Timestamp,AFz,AF3,AF4,AF7,AF8,Pz,P3,P4,2024-04-10 12:40:52.699,fs=125
2337968.991;-6.296;-10.766;3.614;-1.639;8.754;1.863;-0.484;2.123
2337968.999;-10.282;-15.050;1.639;-4.396;9.835;-3.688;-5.849;-1.751
2337969.007;-14.715;-19.111;-4.098;-8.978;1.676;-5.774;-8.754;-3.986
2337969.015;-14.417;-17.583;-5.588;-9.052;0.484;-0.857;-3.166;0.000
2337969.023;-12.964;-16.950;-4.433;-6.929;3.390;1.006;-0.298;-0.410
2337969.031;-13.821;-17.919;-5.811;-8.121;1.825;-4.508;-4.210;-4.582
2337969.039;-8.382;-11.809;-0.931;-3.129;6.743;-3.912;-3.502;-3.241
2337969.047;-4.545;-8.233;0.820;1.229;9.425;-1.974;-2.421;-1.602
2337969.055;-0.484;-5.439;3.316;3.055;11.511;1.639;0.820;0.596
2337969.063;-5.886;-11.586;-2.012;-5.439;6.407;-3.129;-6.221;-2.943
2337969.071;-10.282;-14.789;-5.439;-6.966;4.545;-8.680;-11.958;-6.072
2337969.079;-9.015;-12.852;-4.694;-4.768;6.631;-6.892;-8.270;-5.290
2337969.087;-4.955;-9.649;-2.421;-2.831;7.637;-4.470;-6.221;-2.570
2337969.095;-10.021;-14.678;-6.482;-9.127;4.023;-10.207;-13.374;-6.407
2337969.103;-9.276;-12.591;-6.221;-6.184;5.588;-7.860;-10.803;-5.029
2337969.111;-8.047;-10.990;-6.184;-3.166;4.321;-3.092;-4.992;-1.863
2337969.119;-5.476;-8.009;-3.055;-0.298;6.035;0.820;-1.155;1.676
2337969.127;-7.786;-9.760;-5.774;0.224;4.135;0.298;-1.043;1.043
2337969.135;-10.915;-12.293;-9.499;-2.459;1.639;-3.390;-3.204;-3.129
2337969.143;-8.233;-9.798;-6.594;-0.596;4.284;-1.192;-2.123;-1.453
2337969.151;-7.637;-10.245;-6.072;-1.341;5.402;-3.353;-6.370;-2.757
2337969.159;-4.806;-7.153;-3.651;0.782;8.754;-4.880;-9.350;-4.210
2337969.167;2.868;-0.075;3.278;6.594;15.274;-0.782;-5.402;0.075
2337969.175;5.737;3.353;5.253;10.729;16.764;-0.708;-4.359;-0.149
2337969.169;9.499;6.631;9.462;15.087;21.942;4.359;-0.075;4.917
2337969.177;1.714;-0.782;1.825;7.600;13.635;0.000;-3.316;0.037
2337969.185;-0.820;-2.831;-0.261;4.582;12.405;-4.880;-7.004;-5.998
2337969.193;7.153;5.476;6.743;11.623;19.744;-3.017;-6.668;-3.017
2337969.201;5.998;5.029;4.731;11.027;16.764;-8.903;-12.591;-7.823
2337969.209;8.121;7.860;5.215;16.652;18.105;-8.307;-11.884;-6.221
2337969.217;12.890;11.884;9.611;20.489;22.575;-5.290;-9.499;-1.416
2337969.225;7.004;6.035;2.943;14.566;15.236;-8.084;-12.219;-5.104
2337969.233;-1.565;-2.012;-5.364;5.737;7.041;-11.213;-14.417;-11.288
2337969.241;-1.602;-1.825;-5.998;5.141;7.004;-2.123;-5.327;-5.215
2337969.249;-3.390;-4.880;-8.270;2.868;5.737;1.043;-2.794;-2.459
2337969.257;-5.290;-5.476;-10.766;4.321;2.496;1.900;-1.453;-0.410
2337969.265;-1.490;-1.453;-6.482;7.972;6.929;2.906;-0.037;1.341
2337969.273;-2.906;-2.123;-7.115;6.966;6.966;0.745;-2.682;0.037
2337969.281;-1.490;-2.533;-4.210;5.327;11.101;2.161;-2.496;1.304
2337969.289;3.092;0.112;0.037;5.960;16.131;4.917;0.671;3.092
2337969.297;4.172;1.229;-0.447;6.743;13.523;-0.447;-4.843;-0.373
2337969.305;5.886;3.800;0.149;11.288;13.597;-5.029;-6.855;-3.837
2337969.313;11.064;9.127;5.215;16.391;20.638;-4.359;-4.955;-3.465
2337969.321;19.670;16.540;13.486;22.464;26.412;0.335;-1.676;-0.559
2337969.329;17.695;13.299;11.511;18.217;23.395;-1.974;-5.141;-4.806
2337969.337;16.689;11.772;9.947;17.360;21.644;-2.794;-5.141;-3.725
2337969.345;15.646;11.474;8.456;19.595;20.973;-2.496;-4.806;-2.384
2337969.353;10.841;6.743;3.092;15.125;15.311;-5.439;-8.419;-6.035
2337969.293;5.662;2.384;-1.378;11.362;10.803;-3.353;-7.451;-4.731
2337969.301;4.247;1.192;-1.341;9.425;10.617;1.751;-3.576;0.522
2337969.309;-3.204;-6.855;-8.829;0.373;4.098;-1.341;-7.041;-1.714
2337969.317;-0.224;-3.688;-5.737;3.912;6.892;1.490;-3.539;0.522
2337969.325;8.456;4.694;2.906;13.709;16.205;6.333;3.316;5.662
2337969.333;10.952;7.413;3.427;16.056;16.242;5.849;4.508;4.806
2337969.341;8.494;5.029;1.080;13.523;14.380;3.725;1.341;2.384
2337969.349;8.158;3.986;1.118;10.729;12.331;4.917;1.043;3.129
2337969.357;8.941;3.800;1.006;9.239;12.703;8.121;3.017;5.923
2337969.365;14.305;9.388;5.253;16.391;18.366;11.660;7.041;9.499
2337969.373;15.385;11.027;6.109;16.913;18.254;9.015;5.886;6.929
2337969.381;14.380;10.543;5.811;14.640;20.079;8.680;5.402;6.966
2337969.389;14.156;10.878;5.029;13.188;17.658;12.740;7.898;11.958
2337969.397;9.649;5.737;0.373;6.817;13.821;12.107;6.929;9.984
2337969.405;3.800;-0.708;-4.880;1.378;9.499;6.743;1.639;2.906
2337969.413;-1.639;-2.906;-9.201;0.559;4.321;5.662;1.080;2.049
2337969.421;-0.149;-0.820;-6.109;1.565;10.394;10.133;5.476;7.711
2337969.429;-7.413;-8.158;-13.076;-5.960;2.198;9.127;3.092;7.302
2337969.437;-8.047;-8.941;-13.784;-7.004;-0.373;10.729;4.321;8.233
2337969.445;-2.980;-2.906;-8.680;-1.118;3.427;13.523;7.227;11.139
2337969.453;-5.066;-4.433;-8.233;-3.800;4.545;7.190;1.341;5.662
2337969.461;-8.605;-8.270;-9.052;-9.425;3.465;1.974;-4.172;2.086
2337969.469;-8.270;-7.451;-6.892;-6.594;4.843;1.080;-4.545;2.645
2337969.477;-8.680;-7.339;-6.780;-4.880;5.327;2.012;-1.974;3.055
2337969.457;-3.427;-2.012;-2.608;0.000;9.872;5.364;-0.075;5.588
2337969.465;-5.811;-2.719;-6.258;-1.229;3.166;2.161;-2.459;1.788
2337969.473;-6.184;-2.608;-7.413;-1.788;1.676;-0.186;-3.837;-1.043
2337969.481;-1.527;2.012;-2.906;1.751;6.817;1.676;-1.639;-0.373
2337969.489;-2.198;2.012;-3.763;1.304;3.427;1.676;-0.708;-0.522
2337969.497;-4.694;0.522;-5.960;-0.298;1.006;0.037;-2.533;-2.384
2337969.505;-8.792;-2.943;-9.872;-4.284;-3.465;-2.757;-3.800;-7.302
2337969.513;-7.488;-2.086;-7.860;-3.539;1.118;-0.298;-0.596;-4.396
2337969.521;-5.551;-0.224;-5.886;-0.894;1.751;1.080;1.378;-3.763
2337969.529;-0.745;4.247;-1.155;3.837;6.892;5.364;7.004;-1.155
2337969.537;-0.894;5.029;-1.527;4.992;7.227;6.221;8.382;-1.267
2337969.545;4.098;11.250;2.459;11.548;9.909;9.276;10.133;2.198
2337969.553;2.049;9.984;0.745;10.394;8.270;5.700;4.806;0.037
2337969.561;3.353;9.723;2.049;9.574;9.909;4.992;3.427;0.782
2337969.569;4.135;9.537;1.304;7.302;10.170;3.576;1.304;0.410
2337969.577;8.494;13.746;4.321;10.617;13.784;2.682;1.341;0.633
2337969.585;7.413;12.405;3.278;10.021;12.405;0.447;0.000;-1.937
2337969.593;10.505;15.125;5.364;11.660;14.752;1.155;2.906;-2.868
2337969.601;10.170;15.385;3.502;10.505;9.388;0.112;2.310;-5.700
2337969.609;15.385;21.309;8.382;17.099;15.981;9.835;10.356;4.470
2337969.617;11.586;17.323;3.539;14.752;11.250;11.660;9.462;6.557
2337969.625;8.792;14.678;0.447;11.772;10.207;10.058;7.041;5.290
2337969.633;13.821;20.228;5.923;17.472;16.838;12.405;10.468;7.041
2337969.641;15.348;22.091;6.482;19.781;15.944;10.990;9.425;4.284
2337969.666;22.650;27.902;12.703;24.103;20.973;17.583;15.609;7.749
2337969.674;32.261;36.210;22.501;33.975;32.112;22.724;19.521;9.872
2337969.682;26.710;30.138;17.174;27.195;25.779;17.360;14.789;5.066
2337969.690;23.134;27.865;13.001;22.762;23.358;17.919;14.417;8.680
2337969.698;14.044;17.211;4.359;11.362;17.062;7.786;4.321;4.359
2337969.706;7.115;8.903;-2.347;2.272;10.394;2.347;-2.868;2.086
2337969.714;6.184;7.004;-3.874;1.118;6.184;-0.373;-7.972;1.825
2337969.722;14.901;15.460;5.588;8.754;16.801;5.849;-3.055;8.307
2337969.730;18.999;19.483;9.499;14.491;22.016;9.723;0.522;11.027
2337969.738;21.532;21.644;12.629;17.434;26.636;10.282;3.017;10.170
2337969.746;20.377;22.538;10.915;18.813;22.836;8.047;2.384;5.588
2337969.754;17.285;21.309;7.004;17.434;19.781;3.539;-0.969;-0.075
2337969.762;15.832;20.564;5.029;16.429;18.850;2.384;-0.522;-1.676
2337969.770;17.509;20.750;7.115;16.466;19.819;5.178;5.104;-0.596
2337969.778;18.626;20.228;7.711;16.466;21.979;7.004;6.743;1.714
2337969.786;14.678;15.832;2.161;11.139;16.801;2.310;1.043;-1.900
2337969.794;6.333;7.711;-6.929;3.017;6.817;-3.166;-5.476;-5.662
2337969.802;5.029;6.296;-7.935;2.384;8.494;-3.837;-6.706;-4.098
2337969.810;0.335;2.570;-12.070;-1.192;4.433;-3.316;-7.637;-2.384
2337969.818;-0.596;2.123;-11.511;-2.086;6.072;1.527;-4.284;0.931
2337969.826;2.086;3.725;-7.600;-1.304;12.815;7.302;1.080;5.290
2337969.834;3.166;4.359;-7.935;1.267;11.735;6.966;0.857;3.725
2337969.842;0.484;0.857;-10.915;-2.347;8.978;2.608;-2.235;-2.235
2337969.850;0.708;0.186;-10.096;-3.427;10.356;0.820;-2.757;-5.104
2337969.816;-1.490;-1.751;-11.995;-5.811;6.855;-3.763;-5.551;-9.537
2337969.824;3.129;3.166;-8.419;-1.155;10.133;-2.570;-4.619;-8.158
2337969.832;5.700;6.407;-5.960;1.974;15.423;-3.986;-6.407;-8.307
2337969.840;9.798;11.213;-3.166;8.531;16.727;1.751;-0.931;-1.378
2337969.848;5.886;6.482;-7.413;4.098;12.331;1.714;-0.484;-1.825
2337969.856;2.533;2.645;-11.101;-0.298;6.817;4.247;1.527;-0.149
2337969.864;5.700;4.061;-7.339;1.006;12.033;7.413;3.800;3.576
2337969.872;12.144;9.537;-1.378;5.439;17.919;5.998;0.633;4.284
2337969.880;16.838;14.938;3.427;9.388;21.942;6.407;-0.559;5.551
2337969.888;13.337;13.188;-0.596;8.568;17.099;7.376;2.272;4.359
2337969.896;9.350;9.388;-4.470;5.551;13.411;7.376;3.241;3.837
2337969.904;6.929;6.631;-5.960;1.490;11.176;6.147;2.645;2.384
2337969.912;9.201;9.425;-4.098;5.253;12.927;8.456;4.917;4.545
2337969.920;8.345;7.972;-6.407;3.204;8.829;9.313;5.178;5.439
2337969.928;1.416;-1.490;-12.293;-6.817;6.706;-1.043;-5.476;-4.843
2337969.936;1.788;-0.484;-11.846;-4.619;6.035;-4.508;-6.780;-7.600
2337969.944;-1.974;-3.427;-14.901;-8.121;4.023;-5.588;-8.307;-6.855
2337969.952;-0.186;-0.894;-12.964;-4.731;7.041;-2.049;-5.700;-2.347
2337969.960;4.210;3.874;-9.723;1.714;8.456;2.831;-0.298;2.533
2337969.968;5.625;5.513;-8.643;2.980;5.364;4.098;1.676;2.608
2337969.976;3.092;5.066;-11.437;2.123;1.676;2.161;2.384;-0.522
2337969.984;2.161;3.688;-11.139;0.671;3.316;3.055;4.023;-0.708
2337969.992;-3.949;-2.794;-16.168;-6.407;-0.857;-1.378;-0.857;-5.774
2337970.000;-2.906;-4.433;-14.380;-9.090;1.974;0.857;-0.931;-2.012
2337970.042;-5.774;-8.494;-16.354;-13.635;1.751;0.075;-4.508;-0.112
2337970.050;-4.880;-6.445;-17.099;-11.250;-0.447;-0.522;-5.104;-0.075
2337970.058;-1.714;-2.161;-14.305;-5.588;0.484;0.261;-3.017;-2.347
2337970.066;1.080;1.043;-11.809;-0.373;1.751;2.272;-1.378;-1.378
2337970.074;6.557;5.513;-7.339;4.172;6.296;7.041;4.172;1.527
2337970.082;11.623;10.245;-1.602;7.004;10.803;12.256;9.611;6.780
2337970.090;7.860;5.849;-5.588;2.086;7.637;7.972;2.459;4.806
2337970.098;4.582;3.017;-8.196;0.224;5.886;8.680;2.310;5.625
2337970.106;-2.570;-3.502;-13.970;-7.227;0.633;2.980;-3.353;0.633
2337970.114;-3.725;-3.055;-16.950;-7.749;-3.576;0.484;-4.694;-3.241
2337970.122;-3.390;-2.049;-17.136;-6.780;-3.092;1.751;-1.229;-4.023
2337970.130;-4.843;-3.129;-19.297;-5.737;-5.327;4.396;2.421;-0.857
2337970.138;-3.614;-2.198;-18.142;-7.786;-4.433;8.382;6.780;4.061
2337970.146;-10.319;-8.941;-24.065;-16.093;-8.903;1.863;-0.931;-1.788
2337970.154;-10.468;-7.972;-22.762;-14.976;-7.078;0.745;-3.353;-1.118
2337970.162;-12.964;-8.345;-24.550;-16.429;-10.729;-4.508;-9.201;-6.072
2337970.170;-8.084;-3.241;-19.707;-9.760;-5.737;-3.688;-6.370;-5.737
2337970.178;-1.974;3.427;-11.921;-4.619;4.582;-2.086;-3.017;-5.923
2337970.186;-2.347;3.986;-10.580;-5.551;5.811;-2.943;-2.980;-6.929
2337970.194;-4.284;3.614;-12.927;-7.302;-1.639;-3.502;-3.800;-6.109
2337970.202;0.522;8.233;-6.258;-1.714;6.631;1.229;-1.974;-0.894
2337970.210;2.161;8.307;-4.470;-3.614;7.935;-0.335;-4.843;-2.161
2337970.218;2.198;9.015;-5.364;-2.347;3.390;-4.470;-9.164;-7.451
2337970.226;8.494;16.280;1.118;5.178;10.021;0.037;-4.098;-3.688
2337970.282;7.600;15.199;1.118;3.353;9.909;1.788;-1.974;-1.937
2337970.290;3.204;10.356;-2.310;-0.224;6.147;0.335;-3.800;-2.682
2337970.298;3.129;8.829;-0.857;-2.757;10.170;-0.484;-4.098;-2.831
2337970.306;1.378;7.935;-0.820;-3.427;11.064;-0.782;-4.284;-3.241
2337970.314;2.235;11.288;0.186;1.714;11.064;-2.012;-4.731;-4.210
2337970.322;0.969;11.548;-2.757;1.602;6.743;-2.757;-4.694;-5.364
2337970.330;5.811;15.609;-1.080;5.104;8.196;-0.745;-1.229;-6.966
2337970.338;5.998;16.056;-1.565;5.737;8.978;0.633;0.037;-7.264
2337970.346;4.433;14.640;-3.651;5.215;6.221;5.513;3.986;-1.341
2337970.354;0.447;9.723;-7.339;-0.484;2.086;6.817;2.980;0.708
2337970.362;-0.745;7.451;-7.153;-2.496;4.433;4.657;-0.745;0.298
2337970.370;-0.373;7.711;-5.737;-1.490;6.594;2.943;-1.639;0.261
2337970.378;-1.118;7.153;-7.302;-3.166;3.166;1.453;-2.421;-2.012
2337970.386;-0.186;7.227;-7.600;-4.098;3.129;0.335;-2.719;-5.104
2337970.394;2.235;8.494;-5.923;-4.694;4.433;2.086;-0.745;-4.992
2337970.402;4.955;10.431;-3.241;-4.582;7.488;7.600;5.104;-0.596
2337970.410;-0.037;6.519;-8.307;-8.270;2.272;5.364;4.098;-2.198
2337970.418;2.831;10.431;-5.290;-5.253;5.476;3.651;1.639;-2.049
2337970.426;9.201;16.093;2.235;1.155;15.460;2.757;0.373;-0.969
2337970.434;6.296;13.076;-1.267;-1.565;11.064;-1.714;-4.433;-3.651
2337970.442;2.682;10.282;-6.743;-3.502;4.359;-4.396;-6.482;-6.109
2337970.450;3.241;11.809;-6.706;-2.570;5.364;-2.421;-5.215;-3.278
2337970.458;5.513;14.044;-3.614;-0.596;9.239;-1.043;-5.513;-0.857
2337970.466;5.960;14.044;-3.949;-1.788;8.829;-2.235;-6.817;-3.427
2337970.535;2.496;11.697;-7.935;-5.476;3.166;-5.811;-9.388;-8.084
2337970.543;3.688;13.076;-6.892;-2.496;5.327;-3.465;-5.960;-6.557
2337970.551;7.711;16.205;-3.688;2.235;9.760;3.986;2.682;-1.416
2337970.559;8.196;18.552;-4.210;4.470;8.121;3.912;4.023;-3.763
2337970.567;0.745;13.486;-11.325;1.825;-0.075;-0.671;0.335;-9.015
2337970.575;-5.849;6.296;-16.689;-3.465;-5.253;-1.974;-2.794;-8.754
2337970.583;-5.774;4.880;-14.827;-6.482;-1.714;-1.490;-4.321;-5.513
2337970.591;-2.235;6.668;-10.580;-6.109;5.551;-2.049;-5.029;-3.166
2337970.599;-2.384;6.407;-11.623;-6.184;4.284;-7.190;-9.872;-8.158
2337970.607;-1.378;6.221;-11.288;-7.115;5.811;-9.313;-13.001;-9.425
2337970.615;-0.112;6.817;-9.909;-7.153;6.184;-8.643;-13.225;-6.743
2337970.623;-0.298;7.264;-9.090;-8.531;7.227;-10.878;-16.429;-8.345
2337970.631;1.192;8.419;-7.190;-8.531;9.947;-9.984;-16.503;-8.270
2337970.639;3.725;10.207;-5.551;-6.966;12.182;-8.792;-14.380;-8.531
2337970.647;2.608;9.909;-8.158;-4.955;8.382;-9.052;-12.666;-9.798
2337970.655;2.757;11.250;-9.090;-2.459;7.935;-6.519;-8.456;-8.121
2337970.663;4.806;13.523;-8.680;0.000;8.419;-2.310;-2.235;-5.476
2337970.671;1.565;9.313;-12.554;-4.172;4.508;-1.378;-1.565;-7.004
2337970.679;4.470;11.735;-9.611;-1.080;6.072;3.092;3.390;-2.794
2337970.687;3.353;11.288;-11.921;-1.714;3.055;1.378;1.006;-4.396
2337970.695;2.906;9.760;-13.635;-4.508;2.459;0.484;-1.863;-5.476
2337970.703;2.310;8.158;-12.740;-6.221;4.396;1.378;-2.272;-2.943
2337970.711;3.465;8.941;-11.399;-5.960;5.402;3.166;-0.671;-0.373
2337970.719;2.347;9.350;-13.523;-5.290;3.539;1.118;-3.055;-1.937
2337970.806;-3.986;2.384;-19.372;-11.623;-1.416;-5.290;-9.388;-8.903
2337970.814;-2.235;3.614;-18.328;-9.723;-2.608;-2.421;-5.141;-5.849
2337970.822;-3.204;3.278;-18.105;-10.654;-1.900;-4.992;-6.221;-7.190
2337970.830;-6.407;-1.565;-21.122;-15.832;-3.874;-10.468;-11.101;-11.250
2337970.838;-3.576;0.671;-18.217;-13.001;-1.192;-9.574;-10.505;-9.462
2337970.846;-4.433;-0.298;-17.583;-13.299;0.484;-9.984;-11.697;-8.531
2337970.854;-9.127;-4.731;-23.209;-16.876;-6.631;-11.511;-14.305;-9.611
2337970.862;-11.809;-8.047;-26.077;-20.266;-8.568;-11.213;-15.050;-10.394
2337970.870;-14.789;-9.760;-29.169;-19.968;-12.927;-11.511;-14.901;-12.591
2337970.878;-14.976;-8.643;-29.393;-17.025;-13.001;-8.531;-11.325;-10.990
2337970.886;-9.835;-4.545;-25.071;-12.666;-7.972;-6.370;-10.468;-9.574
2337970.894;-4.768;-0.149;-20.415;-9.611;-3.353;-5.476;-10.952;-7.749
2337970.902;-13.188;-7.376;-29.206;-16.540;-13.337;-8.456;-14.342;-11.511
2337970.910;-15.385;-8.419;-30.994;-16.578;-16.093;-9.425;-14.566;-12.033
2337970.918;-1.527;3.800;-17.285;-4.508;-2.086;-9.462;-12.629;-13.895
2337970.926;0.745;6.706;-16.652;-0.224;-4.657;-9.537;-10.580;-16.317
2337970.934;-0.931;5.588;-18.589;-0.745;-7.264;-6.370;-7.302;-13.784
2337970.942;4.694;12.517;-13.709;4.657;-1.080;-3.316;-4.061;-10.654
2337970.950;9.649;17.397;-8.903;6.482;2.533;-0.671;-1.751;-8.792
2337970.958;10.543;17.807;-6.407;5.923;7.674;1.043;0.894;-6.184
2337970.966;16.131;23.358;0.447;13.337;15.423;6.147;7.227;0.410
2337970.974;14.268;20.154;0.522;10.841;15.274;2.012;1.751;-3.055
2337970.982;10.654;16.168;-4.508;7.302;7.562;-4.582;-4.470;-9.723
2337970.990;6.966;11.884;-8.270;3.427;4.470;-9.611;-9.276;-14.082
2337970.985;10.543;15.013;-4.210;5.774;9.239;-7.227;-7.823;-11.884
2337970.993;12.778;16.987;-1.080;7.711;11.884;-6.519;-7.302;-10.878
2337971.001;15.832;20.862;1.453;13.001;14.193;-1.900;-2.533;-5.774
2337971.009;14.566;20.266;-1.192;12.368;11.027;0.112;-0.671;-4.843
2337971.017;11.064;17.285;-5.886;9.164;6.221;-1.304;-1.900;-8.680
2337971.025;16.205;22.091;-1.192;13.821;11.884;0.559;1.043;-6.557
2337971.033;16.429;22.016;-1.080;14.491;12.107;-2.868;-2.384;-9.649
2337971.041;10.170;15.162;-7.860;6.929;3.427;-10.505;-12.331;-14.380
2337971.049;7.153;11.437;-10.170;5.253;1.453;-14.193;-15.013;-16.652
2337971.057;6.407;10.915;-9.798;4.470;1.378;-13.560;-14.417;-17.285
2337971.065;15.460;17.807;-0.782;9.947;11.548;-5.476;-6.929;-10.282
2337971.073;19.111;20.750;3.241;13.113;14.007;-2.384;-5.625;-8.307
2337971.081;17.583;19.632;0.447;12.368;9.350;-4.098;-7.153;-11.213
2337971.089;15.609;17.285;-1.229;10.915;8.233;-5.849;-7.562;-11.846
2337971.097;16.503;18.664;-0.335;12.964;8.158;-5.253;-6.258;-9.909
2337971.105;14.752;18.217;-2.235;13.150;6.855;-6.147;-7.935;-8.754
2337971.113;7.451;10.394;-9.313;6.631;1.416;-9.723;-11.586;-11.250
2337971.121;9.686;11.474;-5.886;7.823;5.141;-6.855;-9.313;-8.829
2337971.129;8.717;10.952;-6.966;4.880;2.906;-9.909;-11.995;-10.729
2337971.137;2.347;5.104;-15.125;-3.092;-6.333;-15.013;-17.434;-14.901
2337971.145;-0.075;1.602;-17.732;-6.557;-5.737;-13.337;-15.162;-14.417
2337971.153;-0.410;0.447;-16.615;-9.350;-3.725;-9.537;-11.399;-10.580
2337971.161;0.000;-0.522;-14.715;-11.399;-1.639;-5.998;-10.356;-5.960
2337971.169;-1.825;-2.198;-18.403;-12.107;-6.482;-4.582;-9.388;-4.545
2337971.137;-2.198;-2.310;-18.664;-12.405;-6.035;-1.490;-6.743;-1.416
2337971.145;-2.049;-1.341;-17.509;-11.772;-5.178;0.261;-4.135;-1.192
2337971.153;-5.178;-3.129;-19.185;-14.678;-7.339;-2.049;-6.743;-4.061
2337971.161;-2.868;0.186;-15.385;-12.405;-3.614;-1.378;-7.674;-4.284
2337971.169;-0.745;3.353;-12.182;-9.276;-1.229;-0.410;-6.557;-3.800
2337971.177;3.278;8.307;-6.594;-4.396;2.682;2.943;-1.900;-0.671
2337971.185;4.061;11.139;-4.210;-1.155;1.453;4.135;0.335;0.261
2337971.193;-0.224;8.531;-6.445;-2.310;-0.857;2.272;-2.570;-1.714
2337971.201;-4.172;4.806;-7.525;-5.066;-0.745;-1.378;-8.643;-2.608
2337971.209;0.261;9.425;-3.241;-0.261;1.229;-2.310;-11.250;-2.421
2337971.217;8.941;19.036;6.221;8.605;7.674;-3.278;-11.735;-3.092
2337971.225;20.377;31.590;17.248;22.165;14.454;-2.906;-9.984;-1.639
2337971.233;30.287;42.804;27.418;34.422;21.979;-1.490;-8.605;-0.410
2337971.241;44.517;59.307;40.419;52.787;31.851;3.465;-3.055;4.657
2337971.249;56.960;74.059;51.931;70.445;39.078;-0.075;-4.657;-0.559
2337971.257;64.336;83.484;60.089;80.392;44.629;1.714;-1.416;-1.416
2337971.265;69.886;90.934;65.044;88.215;47.684;5.364;3.986;-0.224
2337971.273;67.689;87.805;63.740;83.968;49.062;4.172;3.129;-2.421
2337971.281;57.667;76.182;53.868;70.706;40.717;4.247;1.453;0.000
2337971.289;46.045;63.553;43.474;56.028;33.230;1.080;-2.272;-2.943
2337971.297;37.216;55.246;35.092;47.870;26.897;2.570;-2.868;0.596
2337971.305;30.734;48.988;28.647;41.984;24.736;1.639;-4.545;2.533
2337971.313;21.346;38.221;19.483;30.473;19.521;-0.596;-6.892;-0.037
2337971.321;12.852;28.349;9.723;21.309;10.282;-3.278;-8.754;-4.992
2337971.360;8.941;24.438;5.141;16.280;6.706;-5.551;-8.978;-7.749
2337971.368;9.686;25.369;5.625;14.715;9.201;-2.645;-3.949;-6.743
2337971.376;9.649;24.736;5.029;13.672;8.345;3.874;4.135;-1.788
2337971.384;3.502;18.366;-1.378;8.158;0.969;3.316;2.086;-2.533
2337971.392;1.080;15.236;-5.513;9.090;-0.633;1.453;-0.969;-3.465
2337971.400;2.831;16.503;-4.433;9.313;2.608;1.527;-2.310;-0.149
2337971.408;-0.112;13.262;-7.637;5.290;-1.490;-3.763;-7.264;-2.645
2337971.416;2.868;15.646;-4.880;7.227;1.192;-0.596;-3.763;0.186
2337971.424;2.086;14.417;-5.811;5.886;2.421;2.012;-0.596;2.347
2337971.432;-2.272;10.394;-11.735;3.539;-3.316;1.676;-1.639;-0.224
2337971.440;-9.984;5.178;-20.415;-2.682;-12.331;-3.166;-7.451;-6.743
2337971.448;-7.935;7.413;-18.105;-0.931;-9.239;0.633;-3.316;-3.539
2337971.456;-2.831;10.505;-13.039;2.533;-3.241;5.551;0.633;1.006
2337971.464;-2.757;8.233;-11.288;0.112;0.820;2.906;-0.447;-1.527
2337971.472;-4.210;6.631;-12.442;-0.410;-3.576;-0.410;-1.714;-3.986
2337971.480;0.857;13.374;-8.009;7.078;-0.745;1.676;2.198;-2.459
2337971.488;1.118;14.268;-8.233;8.084;0.782;0.969;2.086;-3.427
2337971.496;-1.863;10.468;-10.952;3.204;-2.496;-0.410;0.186;-3.763
2337971.504;-5.700;5.439;-14.044;-2.235;-5.923;-1.490;-2.570;-3.763
2337971.512;-6.407;3.465;-15.236;-3.129;-5.588;-0.596;-2.086;-3.539
2337971.520;-4.545;5.402;-13.560;-1.229;-3.539;1.788;-0.186;-1.639
2337971.528;-3.278;6.780;-11.660;0.335;-2.347;7.860;5.402;3.055
2337971.536;-8.941;0.112;-17.062;-6.445;-6.035;6.557;4.321;2.161
2337971.544;-11.325;-0.298;-20.564;-7.600;-11.362;4.545;4.172;-0.782
2337971.525;-9.835;0.857;-20.564;-6.296;-13.113;1.863;2.943;-3.539
2337971.533;-1.676;8.345;-11.623;0.112;-2.347;2.272;3.427;-1.676
2337971.541;4.917;15.795;-5.476;8.494;2.347;3.800;4.321;-0.373
2337971.549;10.245;19.521;-1.080;12.070;7.190;3.502;2.906;-0.410
2337971.557;14.678;22.873;3.353;15.125;12.219;5.849;4.619;2.533
2337971.565;8.307;16.689;-2.570;11.586;7.860;-0.745;-3.614;-2.235
2337971.573;3.353;11.176;-6.184;5.886;5.402;-5.625;-10.803;-5.215
2337971.581;13.113;20.340;2.868;13.672;13.299;-6.370;-10.505;-6.258
2337971.589;16.950;24.401;5.998;17.285;16.280;-1.751;-3.539;-3.055
2337971.597;9.015;16.019;-1.006;8.866;8.903;-0.149;0.224;-3.092
2337971.605;4.917;11.437;-3.576;5.513;5.737;1.937;2.868;-2.049
2337971.613;3.316;9.909;-6.147;3.465;3.017;0.931;1.043;-3.353
2337971.621;1.192;7.898;-7.376;0.745;4.098;-1.937;-3.316;-5.029
2337971.629;3.800;9.499;-4.843;1.751;3.725;0.224;-4.061;-2.012
2337971.637;8.270;14.789;-0.149;7.451;8.009;10.282;4.359;6.333
2337971.645;3.651;11.064;-5.439;5.290;2.496;11.697;4.657;8.084
2337971.653;-4.470;3.688;-14.082;-2.868;-7.413;3.092;-3.912;1.490
2337971.661;-1.006;4.880;-10.729;-2.086;-3.316;1.080;-6.333;0.820
2337971.669;0.596;5.513;-9.686;-1.229;-2.347;-0.596;-7.786;0.075
2337971.677;-2.272;1.937;-11.511;-3.465;-4.061;-4.321;-8.978;-4.321
2337971.685;-3.576;0.149;-13.597;-5.476;-6.147;-0.596;-3.800;-0.447
2337971.693;-4.657;-0.075;-16.093;-5.327;-10.207;3.502;1.267;3.874
2337971.701;-6.557;-1.378;-17.062;-6.817;-12.666;6.258;2.682;4.061
2337971.709;-8.270;-3.353;-19.073;-9.760;-13.709;6.855;1.676;2.757
2337971.693;-7.823;-3.166;-18.589;-10.729;-14.491;8.084;3.725;3.763
2337971.701;-9.462;-4.508;-19.409;-11.250;-13.895;9.611;6.072;4.955
2337971.709;-12.182;-6.333;-21.979;-11.884;-15.609;7.600;4.917;3.353
2337971.717;-9.574;-3.874;-20.042;-9.462;-14.342;4.023;0.447;-0.633
2337971.725;-2.421;3.800;-12.591;-2.049;-8.605;5.588;1.527;1.304
2337971.733;2.496;7.823;-7.302;2.347;-3.316;8.978;5.104;5.290
2337971.741;2.831;8.494;-7.525;3.986;-3.204;7.600;5.290;3.502
2337971.749;-2.608;2.198;-12.219;-2.570;-7.004;4.619;5.066;0.261
2337971.757;-4.172;1.378;-14.044;-3.465;-10.133;4.917;7.153;-0.335
2337971.765;-5.960;-0.261;-15.050;-4.619;-11.623;2.943;7.004;-2.161
2337971.773;-6.184;-0.969;-17.472;-5.364;-16.987;0.335;6.557;-5.998
2337971.781;3.949;8.196;-6.817;2.682;-4.955;7.339;13.672;0.224
2337971.789;6.184;8.941;-4.768;2.384;-1.974;9.276;14.901;0.671
2337971.797;0.000;2.496;-10.245;-4.545;-6.035;6.370;8.680;-0.969
2337971.805;1.527;4.061;-6.892;-1.639;-1.974;5.923;6.743;1.155
2337971.813;2.645;5.625;-5.402;1.229;0.969;8.196;8.307;5.215
2337971.821;0.075;2.831;-8.494;-0.820;-2.645;9.015;7.488;7.115
2337971.829;-1.341;1.155;-9.798;-2.235;-1.639;7.451;6.109;5.588
2337971.837;-2.533;0.820;-11.697;-3.837;-4.806;4.247;4.135;2.347
2337971.845;-4.098;-0.224;-12.703;-4.694;-4.992;-1.453;-0.447;-2.086
2337971.853;-2.682;1.863;-10.990;-1.043;-4.135;1.453;2.943;0.373
2337971.861;-3.465;-0.186;-12.852;-2.272;-7.153;2.831;5.625;1.416
2337971.869;-6.482;-4.135;-16.093;-5.923;-9.723;1.490;5.513;-2.496
2337971.877;-1.043;0.671;-9.313;-1.453;-3.017;4.545;7.674;-2.459
2337971.810;1.341;1.639;-5.998;-0.596;-1.490;8.382;8.568;2.533
2337971.818;-2.272;-1.788;-8.792;-3.651;-3.278;6.407;5.476;3.055
2337971.826;-1.676;-1.155;-7.302;-3.316;-0.969;4.396;3.763;2.496
2337971.834;1.602;0.484;-4.023;-0.820;0.820;6.072;6.333;5.886
2337971.842;1.155;0.000;-4.806;-0.820;-1.378;6.780;7.674;4.955
2337971.850;2.980;1.676;-3.241;1.416;1.974;9.276;10.170;4.992
2337971.858;4.694;4.955;-2.794;4.619;0.075;13.970;15.423;9.760
2337971.866;0.447;1.900;-6.407;0.708;-2.906;16.689;17.695;13.486
2337971.874;-0.559;0.037;-6.445;-1.863;-1.155;16.987;15.981;13.448
2337971.882;-1.229;-1.043;-7.264;-4.061;-1.863;13.225;12.442;7.860
2337971.890;1.006;0.410;-6.407;-4.955;-0.969;13.337;12.591;8.829
2337971.898;2.831;4.247;-4.917;-0.037;-0.522;17.099;15.311;12.890
2337971.906;-4.321;-2.645;-11.884;-7.823;-9.611;13.560;12.591;9.499
2337971.914;-9.798;-8.680;-15.423;-14.305;-10.952;12.703;13.076;9.127
2337971.922;-7.302;-5.402;-11.846;-11.772;-7.413;14.119;14.454;11.250
2337971.930;-5.700;-3.949;-10.394;-10.096;-5.923;12.517;11.660;11.101
2337971.938;-3.390;0.633;-6.594;-7.041;-3.129;16.429;14.305;15.087
2337971.946;-5.476;-0.633;-6.631;-8.047;-3.241;14.566;10.990;15.385
2337971.954;-12.740;-7.972;-10.952;-15.087;-6.519;7.525;3.912;9.425
2337971.962;-18.962;-15.274;-16.652;-23.395;-11.474;2.123;-2.161;4.992
2337971.970;-20.824;-17.025;-19.073;-25.108;-16.391;-1.565;-4.768;1.304
2337971.978;-12.890;-9.090;-9.649;-15.572;-6.407;3.017;-0.224;3.874
2337971.986;-2.459;2.049;1.565;-4.061;4.582;9.201;6.668;8.866
2337971.994;-2.049;2.943;1.639;-3.688;3.837;8.009;4.843;6.855
2337972.002;-5.141;0.671;-2.347;-5.178;0.410;4.657;1.416;3.614
2337972.010;-1.453;6.594;0.820;0.857;2.682;7.637;5.998;6.929
2337972.018;-0.261;8.494;2.421;2.570;5.141;10.878;9.649;10.729
2337972.026;-3.129;4.768;-0.522;-1.304;1.714;7.413;7.451;8.494
2337972.036;-7.153;-0.037;-6.445;-6.557;-4.657;1.118;2.310;1.863
2337972.044;-4.880;2.496;-4.917;-4.582;-1.378;0.000;0.894;-0.149
2337972.052;1.825;10.580;2.086;2.496;4.694;5.253;6.296;5.290
2337972.060;-2.384;7.078;-1.453;-1.490;1.676;3.204;4.135;3.316
2337972.068;-5.700;2.459;-3.129;-4.694;-1.527;1.304;0.969;1.974
2337972.076;-2.272;4.321;1.751;-2.086;5.662;5.923;3.986;6.184
2337972.084;-9.947;-3.651;-6.780;-9.276;-2.906;2.049;-1.490;1.714
2337972.092;-9.686;-3.614;-9.015;-9.201;-5.290;1.639;-2.310;0.894
2337972.100;-2.533;3.874;-2.570;-0.186;1.043;7.600;4.172;6.333
2337972.108;-6.519;0.708;-6.594;-3.353;-2.496;0.745;-2.272;-0.857
2337972.116;-12.964;-5.551;-12.554;-9.164;-8.270;-6.072;-8.009;-7.898
2337972.124;-10.356;-2.794;-10.245;-7.898;-6.631;-0.782;-0.820;-4.210
2337972.132;-6.072;1.229;-6.109;-4.806;-2.161;2.719;4.545;-0.671
2337972.140;-7.413;-0.969;-6.482;-8.345;-2.459;-0.931;0.931;-2.049
2337972.148;-8.941;-3.129;-7.302;-10.841;-1.974;-1.751;-0.745;-3.390
2337972.156;2.794;10.878;1.416;4.284;4.396;3.949;5.364;2.123
2337972.164;13.374;22.724;11.623;15.348;14.640;10.096;9.537;7.749
2337972.172;13.337;22.873;12.368;14.342;17.174;10.133;6.817;7.749
2337972.180;12.554;21.048;11.958;12.144;16.615;8.941;5.960;6.370
2337972.188;13.858;21.383;13.933;12.368;18.179;7.935;7.488;6.743
2337972.196;13.933;21.160;12.517;11.437;13.858;3.502;4.582;2.049
2337972.204;15.609;23.022;13.821;14.342;15.199;4.359;7.078;2.272
2337972.212;13.113;22.948;10.096;14.454;11.995;1.825;5.811;-1.565
2337972.220;13.225;24.289;9.052;17.174;9.425;3.353;8.903;-2.608
2337972.247;9.798;21.458;5.923;14.901;6.631;2.533;7.898;-4.098
2337972.255;8.047;18.328;4.470;10.841;5.290;3.725;7.935;-0.745
2337972.263;8.717;17.509;4.806;9.984;6.706;9.239;12.368;5.364
2337972.271;6.855;15.013;2.384;7.600;3.465;9.872;9.574;8.270
2337972.279;0.484;7.562;-3.017;-0.596;-1.565;6.147;2.831;5.923
2337972.287;0.335;6.817;-2.533;-1.714;0.373;4.806;0.931;4.023
2337972.295;5.104;12.219;2.384;2.570;7.860;7.935;3.874;6.482
2337972.303;4.172;12.182;-0.559;3.055;2.421;6.892;5.662;3.241
2337972.311;7.264;13.523;1.341;6.184;4.843;10.170;11.399;4.694
2337972.319;6.258;11.884;0.261;4.470;4.284;10.319;12.703;5.960
2337972.327;-1.863;5.327;-7.637;-2.012;-2.272;2.831;4.955;-0.298
2337972.335;-1.974;5.923;-7.786;-0.186;-3.316;4.172;4.843;-0.894
2337972.343;3.465;10.468;-2.198;4.582;2.831;7.898;7.376;2.421
2337972.351;5.886;12.070;0.298;6.370;6.333;8.382;7.972;3.576
2337972.359;6.184;12.033;0.410;6.184;6.370;7.823;7.153;2.719
2337972.367;6.482;12.778;0.298;6.706;5.402;9.350;8.158;5.998
2337972.375;0.857;6.929;-3.912;-0.112;2.384;5.364;3.316;2.980
2337972.383;-2.831;4.023;-8.047;-2.570;-0.522;2.533;0.335;-0.037
2337972.391;-1.229;6.407;-6.184;1.937;1.267;6.072;4.359;3.502
2337972.399;0.969;7.600;-3.725;4.843;1.565;7.153;7.786;4.284
2337972.407;2.533;9.947;-0.671;5.178;5.588;7.860;8.941;5.513
2337972.415;2.272;9.611;-1.043;4.098;6.072;7.786;8.717;5.700
2337972.423;-6.147;1.639;-9.462;-1.639;-4.210;0.708;1.192;-3.986
2337972.431;-3.725;3.614;-8.494;1.714;-5.849;2.272;1.490;-1.565
2337972.441;-1.080;5.402;-6.333;2.459;-1.825;1.416;0.708;-1.788
2337972.449;4.992;10.543;-0.075;7.749;7.413;2.421;1.378;-0.522
2337972.457;7.451;13.188;3.465;9.798;9.649;4.247;2.086;2.310
2337972.465;10.245;14.976;6.892;11.548;13.225;4.582;0.373;2.272
2337972.473;10.617;15.683;7.004;12.964;13.113;4.508;1.267;0.969
2337972.481;4.731;10.356;1.304;7.451;9.164;1.155;1.378;-3.204
2337972.489;4.731;8.941;0.820;6.780;9.388;0.708;1.118;-4.843
2337972.497;5.625;9.984;2.459;7.674;10.729;2.310;3.055;-3.949
2337972.505;3.614;7.749;0.447;5.327;6.482;5.327;4.321;-1.453
2337972.513;-1.565;2.682;-5.402;0.298;-0.224;1.229;-1.788;-3.912
2337972.521;-3.539;1.118;-5.625;-1.937;1.863;-1.006;-5.104;-3.576
2337972.529;-0.522;4.061;-2.757;2.086;3.949;-1.714;-5.439;-2.012
2337972.537;4.768;9.611;3.427;7.413;9.164;0.112;-2.421;-0.484
2337972.545;5.215;9.760;4.731;7.711;11.213;-2.906;-5.253;-3.316
2337972.553;11.548;14.380;9.760;11.027;13.709;-5.253;-7.227;-5.551
2337972.561;9.835;13.597;8.084;10.841;11.437;-7.339;-7.860;-11.139
2337972.569;16.391;21.979;13.933;19.744;16.429;-1.118;-1.304;-7.078
2337972.577;20.899;27.530;17.695;24.512;20.564;3.017;3.502;-1.788
2337972.585;11.325;17.807;6.817;14.119;8.754;-0.857;-0.484;-5.662
2337972.593;10.021;14.603;6.557;10.654;9.947;0.410;1.788;-6.184
2337972.601;13.784;17.695;10.021;15.274;11.586;9.388;11.176;1.453
2337972.609;12.778;16.093;8.382;14.156;9.015;10.468;11.884;1.416
2337972.617;11.362;14.901;7.413;12.554;8.233;6.445;7.190;-1.527
2337972.625;11.213;14.864;7.488;13.933;8.643;2.868;5.364;-2.980
2337972.621;16.801;20.303;14.007;22.836;14.231;5.849;8.270;0.708
2337972.629;19.595;22.128;17.956;23.805;19.521;6.855;9.984;2.868
2337972.637;18.142;20.117;14.491;21.383;14.082;5.215;9.239;0.969
2337972.645;20.564;22.314;15.646;22.724;13.560;6.594;11.548;2.086
2337972.653;15.125;17.844;10.207;18.813;8.531;6.109;10.729;2.980
2337972.661;9.164;12.629;5.960;14.454;4.694;2.719;7.823;-2.384
2337972.669;11.325;14.938;7.413;17.285;5.625;5.066;10.431;-3.017
2337972.677;8.568;12.517;3.353;14.529;2.347;7.600;11.921;-1.676
2337972.685;7.153;11.064;4.210;11.064;4.396;8.792;12.033;1.341
2337972.693;9.611;12.070;7.264;10.803;8.568;6.482;8.792;2.459
2337972.701;10.468;12.852;7.488;9.425;10.170;1.751;2.980;1.863
2337972.709;6.072;9.499;2.496;5.811;2.757;0.037;-0.149;1.863
2337972.717;3.092;6.594;-0.149;3.539;-0.186;1.192;1.863;1.863
2337972.725;5.327;8.456;3.576;3.688;4.619;8.233;11.101;6.855
2337972.733;7.227;10.915;6.631;6.296;7.451;11.735;16.615;8.233
2337972.741;8.792;13.560;7.562;8.903;7.190;10.952;17.285;7.637
2337972.749;8.717;14.529;8.494;10.319;8.009;11.548;17.323;7.935
2337972.757;6.445;12.442;6.519;8.047;3.800;11.697;17.807;8.680
2337972.765;3.278;7.786;7.078;1.974;6.072;9.760;14.603;8.047
2337972.773;4.657;8.978;8.643;3.427;5.849;10.617;13.374;9.201
2337972.781;11.697;16.466;16.093;9.798;11.660;13.486;14.342;12.107
2337972.789;22.464;27.902;28.722;21.309;26.450;19.111;19.111;18.254
2337972.797;21.160;25.630;28.349;19.819;25.965;17.583;17.509;16.689
2337972.805;11.325;15.236;18.477;9.723;15.236;10.356;9.537;8.680
2337972.813;8.419;12.629;15.497;5.104;13.448;8.568;6.780;7.860
2337972.821;6.743;11.809;13.001;4.061;10.021;5.811;4.210;4.768
2337972.829;7.302;13.784;13.448;7.190;8.717;5.700;6.966;3.092
2337972.837;3.166;10.021;10.394;4.470;6.407;1.565;4.172;-1.341
2337972.801;-4.433;1.043;2.831;-4.098;-1.080;-3.316;-2.347;-4.545
2337972.809;-0.633;4.694;5.476;0.298;1.043;2.906;1.490;2.608
2337972.817;2.757;7.860;8.345;3.539;3.912;3.539;-0.186;2.906
2337972.825;1.304;6.817;6.594;2.235;3.725;2.421;-2.868;0.633
2337972.833;7.562;13.933;12.070;9.090;10.543;9.984;5.104;7.078
2337972.841;9.425;16.391;13.895;11.660;9.760;12.182;8.903;8.568
2337972.849;12.666;18.999;17.472;13.784;12.890;12.852;10.766;7.190
2337972.857;13.225;19.781;17.732;15.944;13.709;13.113;11.697;7.898
2337972.865;10.915;18.179;16.429;15.199;11.884;13.411;12.554;10.394
2337972.873;12.293;19.185;17.881;15.907;14.082;15.572;14.789;12.964
2337972.881;12.405;18.962;15.609;16.578;11.027;16.838;16.242;13.895
2337972.889;5.886;11.735;7.749;9.723;1.006;10.133;8.494;8.009
2337972.897;4.359;10.990;6.482;7.115;2.421;4.619;1.416;3.763
2337972.905;6.519;14.305;8.680;8.941;4.657;9.388;3.725;9.276
2337972.913;5.141;12.219;5.737;6.258;0.782;12.740;6.072;11.288
2337972.921;6.072;12.666;6.855;7.972;2.980;14.231;8.158;12.144
2337972.929;5.104;12.517;6.817;8.084;3.576;15.609;10.356;13.448
2337972.937;5.662;14.417;6.557;9.798;3.241;14.305;13.225;10.543
2337972.945;4.470;12.890;5.327;8.158;0.708;12.778;14.789;6.817
2337972.953;6.035;13.635;8.233;9.276;4.768;9.388;12.964;3.353
2337972.961;3.837;11.139;6.706;6.855;3.465;4.694;7.302;0.112
2337972.969;0.596;6.109;4.396;2.235;2.384;4.359;4.955;0.149
2337972.977;-4.061;1.304;-1.751;-0.969;-6.072;2.235;2.012;-1.080
2337972.985;-7.823;-1.602;-6.184;-2.086;-11.846;3.017;0.335;0.075
2337972.980;-1.192;5.066;0.931;5.476;-3.204;8.866;5.141;6.519
2337972.988;2.496;7.562;5.141;6.258;2.570;7.562;5.104;6.333
2337972.996;1.639;7.600;3.837;5.178;2.086;5.402;4.470;4.657
2337973.004;11.958;18.626;12.368;17.136;10.729;9.909;8.121;11.362
2337973.012;11.399;18.328;11.660;18.254;8.084;0.335;0.373;1.788
2337973.020;9.947;15.609;11.288;15.087;9.090;-6.631;-6.184;-5.253
2337973.028;5.960;10.766;6.258;9.239;1.378;-11.511;-9.909;-10.766
2337973.036;11.474;15.497;10.319;13.486;3.763;-8.754;-6.147;-7.898
2337973.044;14.268;16.242;13.337;13.895;9.611;-10.394;-8.345;-7.786
2337973.052;10.282;13.188;8.829;10.170;3.390;-16.540;-15.087;-13.746
2337973.060;10.021;12.852;7.823;11.772;0.298;-13.262;-13.411;-11.437
2337973.068;9.201;11.176;7.600;9.760;1.416;-8.456;-10.096;-9.164
2337973.076;7.264;9.164;6.296;7.749;2.570;-4.396;-7.786;-5.662
2337973.084;4.172;5.849;3.725;4.210;0.261;-3.949;-8.866;-3.800
2337973.092;7.935;8.531;8.531;6.184;5.662;0.671;-5.923;2.235
2337973.100;11.437;10.543;12.070;9.015;10.878;3.316;-3.986;5.923
2337973.108;14.305;13.001;14.193;11.772;13.299;4.768;-2.943;7.264
2337973.116;18.105;16.689;18.440;15.274;18.887;5.625;-1.490;6.184
2337973.124;16.056;13.895;15.274;11.995;14.566;3.912;-2.719;4.843
2337973.132;15.497;13.299;15.013;11.250;14.566;5.476;-1.229;7.562
2337973.140;12.107;10.058;10.878;9.537;9.239;1.863;-4.061;3.204
2337973.148;7.860;6.855;6.519;6.706;3.353;-4.210;-8.605;-1.863
2337973.156;8.158;7.264;7.376;7.115;5.104;-2.384;-5.178;-0.037
2337973.164;10.990;10.692;10.096;10.468;7.600;4.210;2.161;4.508
2337973.221;10.580;11.064;10.841;10.803;8.084;5.364;2.421;3.614
2337973.229;13.486;13.784;14.491;14.119;11.958;7.004;3.427;5.066
2337973.237;13.635;13.374;14.789;12.852;14.156;6.296;2.459;4.545
2337973.245;7.153;6.221;7.600;6.147;6.147;1.155;-2.906;-0.894
2337973.253;0.969;0.298;0.298;2.496;-4.061;-5.141;-8.568;-7.004
2337973.261;1.155;0.559;1.080;3.465;-2.086;-8.196;-11.213;-9.574
2337973.269;3.725;3.241;3.986;7.935;2.086;-10.245;-13.597;-10.356
2337973.277;6.706;7.078;5.849;13.188;1.825;-10.617;-13.299;-10.468
2337973.285;0.671;2.198;0.596;8.903;-2.794;-10.878;-12.033;-12.368
2337973.293;-5.364;-4.470;-6.109;3.725;-10.021;-7.972;-6.482;-10.878
2337973.301;-6.184;-6.445;-5.700;1.751;-7.600;-6.780;-3.427;-9.313
2337973.309;-1.304;-1.714;-0.708;6.855;-3.278;-2.831;0.037;-6.892
2337973.317;1.565;2.012;0.522;10.990;-4.284;1.714;2.310;-3.427
2337973.325;4.880;4.806;4.582;14.193;0.335;10.096;9.276;3.576
2337973.333;4.321;3.390;3.800;12.070;1.639;6.147;2.980;0.820
2337973.341;3.316;2.384;2.459;10.245;-1.267;1.639;-4.023;-2.310
2337973.349;6.706;5.029;5.439;13.858;1.416;1.863;-4.657;-1.378
2337973.357;7.860;6.035;5.588;15.646;2.645;2.347;-3.353;-0.969
2337973.365;4.694;2.459;1.602;11.511;-4.284;1.676;-1.937;-2.272
2337973.373;2.980;1.155;1.490;10.729;-4.135;-0.186;-0.522;-5.104
2337973.381;6.966;5.849;5.960;14.380;0.335;2.049;1.453;-2.384
2337973.389;8.196;6.184;7.227;15.385;2.123;-0.224;-1.900;-2.310
2337973.397;5.811;2.868;4.657;11.660;0.447;-5.178;-6.929;-8.121
2337973.405;7.190;3.166;7.637;11.139;2.496;1.974;-0.857;-1.006
2337973.384;8.196;3.427;9.686;10.654;5.774;6.035;1.341;2.868
2337973.392;4.359;0.298;5.327;8.158;0.224;-0.559;-5.886;-2.943
2337973.400;4.619;0.261;5.178;8.605;-1.416;-6.594;-13.411;-7.972
2337973.408;5.588;0.857;6.482;10.692;-1.527;-8.680;-15.162;-10.096
2337973.416;13.746;10.468;14.752;21.905;6.780;-2.161;-7.078;-4.359
2337973.424;9.090;6.557;9.649;18.701;1.416;-2.645;-4.284;-7.078
2337973.432;-0.820;-3.465;0.559;9.425;-9.462;-6.072;-5.364;-12.517
2337973.440;-0.708;-4.955;2.347;6.445;-5.551;-3.651;-3.651;-8.680
2337973.448;1.341;-2.757;5.253;5.849;-0.373;0.522;-2.123;-1.825
2337973.456;3.725;0.335;7.227;10.245;0.745;2.943;-0.261;1.043
2337973.464;1.527;-1.453;3.949;8.605;-2.868;0.186;-4.210;0.112
2337973.472;1.155;-1.267;3.651;8.978;-2.012;-0.037;-5.886;2.310
2337973.480;-1.751;-3.800;2.347;6.407;-2.980;-2.459;-8.531;0.820
2337973.488;1.006;-0.484;6.072;8.196;0.075;-1.900;-6.407;0.782
2337973.496;1.155;0.186;7.376;8.494;0.820;-4.396;-5.737;-4.806
2337973.504;-1.825;-3.465;3.129;4.359;-4.135;-9.127;-10.692;-9.760
2337973.512;-2.645;-3.017;0.633;3.353;-9.350;-10.207;-12.666;-9.798
2337973.520;-0.447;0.224;2.943;4.545;-6.147;-10.021;-11.995;-9.649
2337973.528;-2.496;-1.974;1.602;1.267;-9.574;-9.611;-12.033;-9.611
2337973.536;-1.378;-1.304;4.061;1.937;-8.009;1.267;-2.943;-0.969
2337973.544;0.037;-0.298;8.419;3.353;-0.708;9.798;4.806;7.190
2337973.552;0.522;-0.559;11.772;3.837;2.719;11.437;5.737;9.984
2337973.560;1.080;-0.596;13.225;4.768;3.278;12.033;4.768;12.256
2337973.568;-2.347;-3.390;9.723;2.235;-1.900;8.531;3.427;7.115
2337973.522;3.129;2.496;15.683;9.052;4.619;13.225;9.872;10.766
2337973.530;0.447;-0.075;12.480;4.210;1.229;8.270;4.843;5.960
2337973.538;-6.333;-5.439;6.035;-0.447;-5.439;3.427;1.825;0.820
2337973.546;-6.147;-3.576;5.886;3.651;-5.066;5.439;5.588;2.123
2337973.554;-8.158;-4.210;2.496;3.763;-8.307;3.725;4.470;0.484
2337973.562;-5.849;-2.608;4.061;4.172;-6.929;3.502;3.688;0.745
2337973.570;-5.439;-3.614;3.353;1.341;-7.525;3.800;2.086;2.980
2337973.578;-8.456;-6.296;0.745;-2.198;-10.207;3.278;-0.484;1.341
2337973.586;-13.895;-11.437;-3.502;-6.668;-15.050;-0.410;-5.625;-2.123
2337973.594;-13.672;-10.580;-2.719;-4.806;-13.188;3.353;-2.421;2.198
2337973.602;-14.752;-13.039;-2.384;-6.706;-10.654;6.706;0.522;4.955
2337973.610;-19.111;-18.105;-6.296;-11.437;-15.460;6.631;0.037;3.092
2337973.618;-18.217;-17.397;-5.551;-11.511;-12.927;8.307;1.378;4.284
2337973.626;-20.936;-18.477;-8.941;-12.666;-15.534;6.482;1.192;2.272
2337973.634;-18.328;-15.721;-8.568;-8.866;-15.721;7.302;3.614;1.006
2337973.642;-17.248;-13.709;-10.431;-6.519;-19.595;8.792;7.413;0.969
2337973.650;-20.042;-19.148;-13.560;-12.852;-22.352;9.499;5.253;2.235
2337973.658;-22.091;-22.240;-14.491;-15.125;-21.867;8.270;2.310;1.602
2337973.666;-20.266;-20.117;-11.772;-12.107;-17.993;3.427;-2.459;-0.447
2337973.674;-12.815;-11.511;-4.508;-4.135;-14.454;2.123;-3.763;1.229
2337973.682;-11.474;-7.413;-2.198;-1.751;-13.225;1.751;-3.725;1.490
2337973.690;-8.568;-5.886;-1.229;-0.596;-12.480;5.811;0.596;3.092
2337973.698;-1.639;0.782;4.098;6.109;-6.072;11.846;7.302;5.700
2337973.706;-1.602;1.416;4.694;6.668;-4.619;11.548;8.717;6.184
2337973.687;-7.078;-4.694;-0.522;1.080;-9.462;6.817;5.029;3.129
2337973.695;-13.672;-11.921;-5.700;-5.029;-13.411;3.688;1.751;0.335
2337973.703;-12.144;-10.468;-3.353;-2.831;-10.394;6.035;3.763;2.868
2337973.711;-9.574;-7.786;-1.080;-0.410;-9.835;8.009;7.227;3.278
2337973.719;-6.519;-4.806;2.421;1.863;-6.333;7.190;7.004;2.123
2337973.727;-9.052;-6.333;-0.335;1.043;-8.307;3.241;2.496;-0.782
2337973.735;-15.013;-10.803;-7.115;-4.694;-16.391;2.980;0.820;-0.857
2337973.743;-18.217;-14.231;-9.723;-8.233;-19.334;0.931;-1.192;-2.757
2337973.751;-16.689;-13.188;-7.451;-5.737;-14.529;1.490;-1.416;-1.416
2337973.759;-21.681;-18.142;-13.039;-10.729;-17.583;-3.725;-6.221;-7.972
2337973.767;-14.976;-11.176;-8.941;-3.688;-17.919;0.745;1.043;-4.433
2337973.775;-11.586;-7.078;-7.190;1.676;-15.087;3.539;5.215;-2.570
2337973.783;-12.480;-7.451;-8.829;1.192;-14.603;4.470;6.519;-2.719
2337973.791;-13.895;-8.047;-10.878;0.410;-17.323;6.482;8.643;0.447
2337973.799;-20.973;-16.093;-17.434;-8.605;-22.799;-0.224;0.373;-5.327
2337973.807;-20.601;-16.652;-16.652;-9.537;-21.346;-1.043;-0.969;-6.296
2337973.815;-18.850;-15.795;-14.976;-8.568;-19.930;-0.969;-1.937;-6.370
2337973.823;-18.924;-15.236;-15.609;-8.643;-21.234;-1.006;-3.576;-6.557
2337973.831;-16.578;-12.517;-15.274;-6.184;-20.526;1.490;-1.453;-3.874
2337973.839;-15.125;-12.331;-14.454;-5.625;-19.595;6.557;2.421;2.421
2337973.847;-17.583;-16.987;-14.864;-10.282;-18.477;4.210;0.559;-0.037
2337973.855;-12.219;-12.033;-9.164;-7.227;-12.927;7.339;5.402;2.719
2337973.863;-11.027;-10.692;-6.445;-7.600;-8.084;3.912;4.023;0.782
2337973.871;-12.554;-12.964;-7.786;-8.903;-12.256;-1.229;-0.112;-3.986
2337973.835;-11.139;-12.293;-8.196;-8.605;-13.523;-3.390;-1.714;-7.413
2337973.843;-16.019;-16.615;-14.305;-13.039;-19.036;-4.321;-4.172;-6.929
2337973.851;-17.285;-18.217;-15.646;-13.150;-17.993;-3.986;-5.588;-5.364
2337973.859;-7.711;-8.084;-6.743;-2.645;-9.909;0.969;-1.863;0.112
2337973.867;-3.651;-3.204;-4.359;2.943;-8.345;-0.224;-3.241;-1.602
2337973.875;-4.061;-3.241;-4.135;4.433;-6.929;-2.421;-6.147;-4.023
2337973.883;-3.092;-2.272;-2.719;5.551;-4.731;2.310;-1.192;0.224
2337973.891;-4.917;-4.172;-4.321;4.545;-6.855;5.253;1.416;2.645
2337973.899;1.229;0.484;1.378;10.096;-1.527;8.009;4.880;4.433
2337973.907;5.290;6.631;5.178;15.460;1.937;7.488;6.333;3.017
2337973.915;6.258;7.227;5.849;14.380;2.906;0.373;0.671;-4.284
2337973.923;4.396;3.651;4.508;9.388;0.075;-1.304;-3.241;-4.843
2337973.931;0.261;-0.745;0.745;5.886;-3.166;0.000;-4.917;-2.570
2337973.939;1.974;-0.335;2.086;4.880;-0.075;1.863;-4.731;0.149
2337973.947;0.931;-2.049;-0.894;0.857;-4.843;-1.118;-8.047;-2.533
2337973.955;3.204;0.298;-0.112;3.241;-4.172;-1.341;-7.898;-1.751
2337973.963;2.868;-0.373;0.820;2.272;-2.235;-3.129;-8.345;-3.017
2337973.971;6.109;2.161;5.588;6.407;4.172;2.086;-2.459;-0.559
2337973.979;5.215;0.484;4.470;5.662;3.390;4.284;0.782;1.639
2337973.987;2.012;-0.857;2.086;5.402;0.596;0.522;-0.149;-2.123
2337973.995;-0.894;-2.384;-0.782;3.502;-3.949;-4.582;-4.321;-7.786
2337974.003;2.272;-0.075;2.496;5.700;-0.857;-4.917;-4.284;-8.419
2337974.011;-3.465;-5.811;-3.017;0.075;-6.147;-7.786;-6.407;-11.884
2337974.019;-3.874;-5.737;-3.800;0.224;-7.302;-6.855;-6.370;-10.654
2337974.076;-0.410;-3.539;0.335;1.937;-1.639;-3.837;-4.359;-7.190
2337974.084;-0.335;-3.353;0.298;3.129;0.224;-2.310;-3.502;-6.333
2337974.092;-0.522;-3.278;-0.894;3.502;-2.719;1.341;-0.708;-2.980
2337974.100;-1.229;-4.284;-1.565;2.272;-3.427;1.118;0.410;-3.166
2337974.108;-2.794;-6.407;-1.974;0.186;-2.831;0.149;0.149;-3.278
2337974.116;-1.863;-6.184;-1.118;0.484;-3.576;0.857;0.745;-2.086
2337974.124;-1.602;-5.923;-0.447;1.267;-4.135;-1.714;-1.043;-3.986
2337974.132;-1.043;-6.184;0.559;0.410;-1.229;-3.129;-2.161;-5.215
2337974.140;-3.502;-8.196;-2.719;-1.118;-6.221;-3.688;-0.969;-8.270
2337974.148;-4.508;-7.674;-4.359;-0.559;-8.978;-0.335;2.123;-6.035
2337974.156;-6.296;-8.196;-5.253;-0.522;-10.170;1.304;2.496;-4.806
2337974.164;-8.829;-11.176;-8.196;-2.831;-13.411;-0.335;-1.751;-6.072
2337974.172;-6.966;-8.009;-7.004;-0.708;-14.417;0.857;-1.490;-4.731
2337974.180;-3.204;-3.688;-2.757;1.304;-9.388;2.943;1.900;-1.937
2337974.188;-4.396;-5.476;-3.651;-1.900;-10.766;0.224;0.298;-3.837
2337974.196;-5.774;-7.041;-4.321;-4.359;-9.760;-0.261;0.373;-2.235
2337974.204;-11.213;-12.480;-9.574;-8.643;-13.374;-2.868;-3.837;-3.912
2337974.212;-8.158;-10.319;-6.966;-8.903;-12.442;2.123;-0.112;0.596
2337974.220;-7.711;-10.282;-5.364;-12.629;-11.101;3.651;1.155;0.447
2337974.228;-11.511;-13.076;-8.792;-16.242;-16.019;1.341;-0.931;-1.937
2337974.236;-12.442;-13.076;-7.674;-16.317;-15.721;1.900;-0.633;-1.155
2337974.244;-9.015;-8.643;-1.714;-12.331;-9.499;3.017;0.373;0.261
2337974.252;-10.878;-9.313;-1.974;-13.858;-11.288;1.080;-3.316;-1.229
2337974.260;-7.190;-5.923;2.384;-10.692;-8.158;5.588;0.112;3.278
2337974.360;-2.459;-0.969;6.855;-5.439;-3.055;12.890;7.637;7.153
2337974.368;-5.364;-3.204;5.364;-6.557;-4.582;15.870;11.399;9.090
2337974.376;-6.407;-2.459;4.992;-6.929;-5.402;19.968;15.423;13.635
2337974.384;-6.817;-2.757;3.800;-7.153;-6.780;19.446;16.019;13.337
2337974.392;-6.407;-2.496;4.657;-7.078;-5.439;14.454;12.927;9.164
2337974.400;-5.476;-2.496;4.917;-7.525;-5.625;9.984;9.090;5.849
2337974.408;-12.666;-9.835;-2.459;-14.268;-12.591;1.565;-0.335;-0.708
2337974.416;-14.342;-10.356;-3.427;-14.193;-15.199;-3.390;-6.780;-3.949
2337974.424;-8.605;-4.172;2.682;-8.531;-8.047;-5.104;-9.164;-5.774
2337974.432;-6.221;-2.161;5.625;-6.668;-4.955;-5.774;-9.798;-7.600
2337974.440;-3.725;0.708;7.264;-4.210;-2.980;-2.570;-5.662;-6.445
2337974.448;0.410;4.396;11.139;-1.527;1.863;2.794;2.161;-1.527
2337974.456;4.694;9.947;15.311;2.272;4.843;6.445;6.743;2.608
2337974.464;10.170;14.976;20.973;9.611;8.941;12.778;12.890;9.201
2337974.472;3.017;7.935;14.454;2.906;2.459;9.835;6.966;6.743
2337974.480;-1.788;2.868;9.276;-3.688;-3.353;6.817;3.725;3.614
2337974.488;2.533;6.333;13.821;-1.974;2.161;11.101;8.494;7.823
2337974.496;-0.522;1.602;10.133;-7.041;0.112;6.482;2.682;5.141
2337974.504;-1.304;-0.037;8.829;-8.531;0.559;0.224;-2.943;0.335
2337974.512;3.204;5.141;12.890;-2.533;4.359;1.863;0.820;1.192
2337974.520;-0.931;2.570;7.674;-3.576;-2.310;1.080;0.894;-0.335
2337974.528;-6.743;-2.943;2.198;-8.717;-4.135;0.000;-0.931;-2.906
2337974.536;-6.743;-3.204;0.261;-9.164;-6.333;-0.559;-2.272;-4.284
2337974.544;-0.894;3.055;5.029;-3.874;-1.080;1.118;-1.565;-2.645
2337974.585;1.304;6.445;7.413;-0.484;0.224;2.123;-1.267;-1.341
2337974.593;3.427;8.345;8.717;1.788;1.639;1.602;-1.080;-1.714
2337974.601;1.043;4.992;6.147;-0.745;-1.565;2.906;2.272;-0.447
2337974.609;-4.657;-1.490;1.006;-6.482;-7.451;0.186;-0.112;-2.235
2337974.617;-0.037;3.614;5.141;-2.831;-3.092;4.433;3.017;-0.335
2337974.625;2.757;7.376;8.009;0.149;-0.373;7.562;4.508;1.527
2337974.633;-0.708;4.582;3.688;-2.831;-8.009;3.837;1.751;-1.751
2337974.641;3.986;8.531;9.686;2.049;1.527;8.941;6.855;3.837
2337974.649;1.304;5.215;6.929;-1.229;-2.198;9.798;6.296;4.508
2337974.657;-5.141;-1.304;-1.006;-8.605;-10.952;5.700;1.490;-0.037
2337974.665;-3.502;0.708;-0.298;-5.886;-9.425;9.723;5.290;3.763
2337974.673;-0.894;3.800;3.651;-1.714;-3.912;12.666;8.754;6.668
2337974.681;-2.086;3.353;2.198;-0.894;-6.184;11.735;8.829;6.407
2337974.689;-1.453;4.843;1.155;0.894;-9.015;13.113;9.984;7.413
2337974.697;-0.708;4.284;1.304;0.112;-10.133;15.385;11.586;9.723
2337974.705;2.868;7.339;4.470;1.416;-7.041;15.125;12.405;10.356
2337974.713;1.192;4.806;1.602;-2.086;-9.425;8.754;6.519;4.955
2337974.721;-2.123;0.633;-2.347;-5.998;-11.735;3.353;1.825;-2.384
2337974.729;-1.565;0.633;-1.602;-4.843;-10.133;5.215;4.470;-1.304
2337974.737;-1.565;0.335;-2.794;-4.359;-12.107;7.749;6.333;2.645
2337974.745;2.123;3.614;1.416;-1.378;-7.823;10.319;8.270;6.594
2337974.753;0.782;1.378;0.969;-3.725;-8.196;4.023;2.682;2.161
2337974.761;0.596;0.224;1.937;-4.917;-7.004;0.335;-3.166;0.000
2337974.769;0.000;-0.261;1.602;-5.960;-7.339;-1.490;-5.774;-1.490
2337974.855;-3.874;-3.241;-2.198;-7.227;-10.617;-5.439;-9.090;-5.402
2337974.863;-6.631;-4.843;-5.774;-8.643;-13.523;-9.909;-13.411;-8.941
2337974.871;-4.023;-2.980;-5.178;-6.519;-14.715;-9.239;-12.778;-8.643
2337974.879;-2.608;-2.161;-2.831;-5.215;-10.803;-8.605;-10.729;-9.835
2337974.887;-5.588;-5.849;-6.258;-7.227;-14.827;-8.829;-7.860;-10.505
2337974.895;-7.786;-7.004;-7.637;-7.227;-16.913;-6.221;-4.694;-10.021
2337974.903;-7.525;-6.407;-6.892;-7.637;-13.784;-3.502;-1.751;-8.121
2337974.911;-4.992;-2.347;-5.513;-4.023;-14.231;-4.061;-3.465;-7.823
2337974.919;1.229;3.837;-0.522;2.421;-8.531;-1.490;-3.129;-3.986
2337974.927;3.055;5.029;1.602;3.353;-5.290;1.378;-2.161;-0.969
2337974.935;-1.527;0.186;-3.725;-1.229;-13.411;-0.447;-3.204;-3.241
2337974.943;3.129;2.384;0.708;1.118;-8.531;0.969;-2.123;-0.745
2337974.951;5.364;2.943;3.800;1.006;-2.347;-0.075;-6.296;-1.155
2337974.959;6.966;3.353;4.545;-0.149;-3.092;-0.298;-7.786;-0.298
2337974.967;10.803;6.594;8.047;3.912;-1.229;2.161;-2.906;2.496
2337974.975;11.660;7.078;10.543;4.247;2.459;1.192;-1.043;0.633
2337974.983;12.033;7.972;10.766;5.476;1.676;2.347;2.533;-0.559
2337974.991;13.560;10.841;12.219;9.798;4.470;4.172;6.035;1.006
2337974.999;6.929;4.284;4.508;2.794;-2.831;-1.043;0.931;-3.129
2337975.007;5.513;3.949;2.272;3.166;-4.731;-1.043;-0.224;-2.868
2337975.015;2.272;2.719;0.112;2.868;-8.531;0.261;0.857;-1.527
2337975.023;-2.608;-1.639;-3.465;-0.894;-13.448;0.335;0.410;-1.192
2337975.031;-7.823;-8.382;-7.898;-8.158;-16.540;-4.619;-6.333;-4.396
2337975.039;-5.886;-7.302;-4.284;-7.376;-10.878;-4.806;-8.643;-3.688
2337975.215;-2.533;-4.843;-0.484;-6.221;-6.706;-0.447;-3.837;-0.112
2337975.223;-3.614;-6.855;-1.155;-8.754;-6.557;4.582;2.459;2.943
2337975.231;-6.892;-10.580;-4.470;-13.001;-9.425;0.186;-0.410;-2.831
2337975.239;-3.576;-7.972;-1.900;-10.841;-7.115;-1.900;-2.608;-3.651
2337975.247;-1.043;-6.743;1.416;-9.723;-4.210;-3.092;-4.582;-4.694
2337975.255;-0.857;-7.525;2.980;-10.058;-3.092;-2.496;-5.066;-4.433
2337975.263;-5.662;-13.635;-0.894;-17.323;-5.811;-5.290;-9.425;-5.923
2337975.271;-11.250;-19.744;-5.737;-23.656;-11.921;-9.425;-14.417;-8.568
2337975.279;-5.625;-14.529;0.075;-17.285;-6.780;-2.608;-9.947;0.820
2337975.287;-7.674;-13.597;-2.980;-16.503;-12.331;-4.508;-11.697;-0.075
2337975.295;-5.625;-10.431;-1.080;-13.299;-9.984;-6.855;-14.305;-3.539
2337975.303;-1.043;-6.147;1.900;-8.084;-9.388;-2.831;-7.339;-3.204
2337975.311;2.161;-2.943;5.476;-4.768;-5.625;5.253;2.123;3.278
2337975.319;-3.129;-8.270;1.490;-9.239;-7.898;3.427;1.788;2.123
2337975.327;-6.929;-11.921;-2.533;-10.915;-11.474;0.894;-1.304;-1.267
2337975.335;-1.788;-6.855;2.980;-4.992;-6.184;0.261;-2.198;-0.186
2337975.343;3.539;-2.012;9.127;-1.043;1.043;2.533;0.149;2.980
2337975.351;1.527;-4.172;7.786;-3.576;-0.596;3.912;1.416;3.092
2337975.359;-8.084;-13.597;-1.602;-12.890;-9.649;-0.633;-3.949;-0.894
2337975.367;-10.654;-16.093;-4.768;-15.497;-13.411;-4.545;-9.425;-2.272
2337975.375;-6.296;-12.107;-2.086;-11.101;-8.419;-2.980;-7.674;-0.671
2337975.383;-5.513;-9.201;-1.304;-9.760;-7.078;0.559;-3.241;1.155
2337975.391;-3.465;-6.817;1.527;-8.866;-3.986;5.551;1.751;5.327
2337975.399;0.708;-3.390;5.960;-6.594;1.453;11.399;7.562;10.729
2337975.379;1.937;-1.155;7.339;-5.700;1.267;11.809;9.388;9.947
2337975.387;2.049;-0.782;7.525;-6.892;-0.149;10.021;9.015;7.153
2337975.395;2.123;0.335;7.711;-7.749;1.229;9.462;8.754;6.221
2337975.403;4.061;2.123;8.456;-5.104;-0.559;12.144;12.107;9.164
2337975.411;5.513;3.017;9.649;-2.906;1.453;12.256;11.846;9.127
2337975.419;0.186;-1.267;6.109;-7.749;-0.149;8.158;6.743;5.215
2337975.427;-5.066;-5.774;2.161;-12.219;-5.886;5.215;2.086;3.725
2337975.435;-9.760;-10.543;-1.490;-16.205;-10.692;-0.484;-3.390;0.484
2337975.443;-9.201;-9.872;0.857;-13.933;-7.190;0.894;-0.075;1.341
2337975.451;-6.072;-5.923;5.402;-8.754;-1.676;2.421;1.639;3.316
2337975.459;-6.258;-6.109;5.290;-9.574;-3.912;-0.745;-2.198;0.112
2337975.467;-1.751;-2.310;9.686;-6.184;0.298;1.378;1.155;1.267
2337975.475;-0.373;-0.335;11.623;-3.353;2.757;3.874;5.327;3.204
2337975.483;0.112;0.671;12.517;-1.639;4.433;6.706;7.711;5.923
2337975.491;5.327;4.992;17.583;3.949;9.388;10.245;11.660;9.239
2337975.499;5.625;4.955;18.477;2.310;11.884;8.978;10.729;6.370
2337975.507;4.433;4.470;16.727;0.820;10.952;7.264;7.339;5.700
2337975.515;6.445;7.115;16.540;3.986;7.376;11.288;9.425;11.846
2337975.523;8.866;9.760;18.105;6.445;9.649;12.182;10.356;13.039
2337975.531;3.166;4.433;11.474;1.788;2.235;5.104;4.396;5.811
2337975.539;3.092;2.757;13.188;0.298;5.141;6.407;6.817;6.855
2337975.547;3.986;3.986;13.970;1.192;6.221;8.643;9.835;7.749
2337975.555;2.719;3.986;11.809;3.390;4.023;6.519;8.121;4.768
2337975.563;8.047;11.362;17.658;10.394;10.505;7.972;8.717;7.488
2337975.577;0.298;2.161;10.356;0.969;4.359;-0.782;-2.310;0.261
2337975.585;0.671;1.155;9.052;0.335;1.974;2.459;-0.447;4.582
2337975.593;1.639;1.229;10.468;-0.745;3.241;3.837;2.719;6.333
2337975.601;-0.969;0.112;7.302;-1.565;0.633;0.782;2.161;3.241
2337975.609;1.937;3.017;9.239;1.825;2.459;1.080;3.166;1.192
2337975.617;3.949;3.241;10.803;1.825;4.768;1.527;3.725;1.118
2337975.625;4.508;3.316;11.101;2.123;4.955;0.782;3.502;-0.373
2337975.633;5.886;5.215;12.852;4.619;6.482;4.396;4.768;1.714
2337975.641;10.468;9.611;18.366;9.239;14.417;8.494;7.227;6.482
2337975.649;11.362;10.543;18.291;10.207;14.119;6.966;5.588;5.811
2337975.657;7.488;6.296;14.342;5.998;9.574;5.998;5.253;3.651
2337975.665;1.602;1.602;9.015;2.272;4.247;6.221;5.513;3.278
2337975.673;0.857;1.416;9.276;3.539;5.811;5.327;4.098;3.166
2337975.681;-0.484;1.155;6.929;4.619;2.757;1.863;-0.149;1.714
2337975.689;-7.413;-5.588;-0.373;-0.969;-4.992;-3.986;-6.333;-0.335
2337975.697;-6.892;-3.986;1.453;-1.565;-0.708;1.155;-1.267;6.184
2337975.705;-11.697;-9.649;-4.768;-6.892;-7.972;-0.708;-2.570;3.800
2337975.713;-11.660;-11.064;-4.545;-8.605;-6.109;-1.714;-3.800;0.410
2337975.721;-9.350;-8.419;-2.235;-6.370;-3.725;-1.714;-4.396;-1.043
2337975.729;-3.465;-2.123;3.427;0.075;0.894;2.645;-1.378;3.353
2337975.737;-6.035;-5.960;0.112;-4.396;-2.086;-1.527;-6.594;-1.714
2337975.745;-6.109;-6.221;-1.751;-5.253;-4.657;-2.868;-6.929;-2.757
2337975.753;-6.445;-7.637;-2.310;-6.631;-4.768;-4.694;-7.451;-1.900
2337975.761;-12.591;-15.758;-7.488;-14.119;-6.035;-7.935;-10.915;-6.035
2337975.741;-8.829;-11.250;-5.141;-9.350;-6.407;-2.906;-5.439;-2.310
2337975.749;-0.186;-3.092;2.235;-0.782;0.149;-0.708;-1.863;0.037
2337975.757;-0.931;-5.774;0.112;-1.900;-1.155;-5.476;-5.774;-1.490
2337975.765;2.496;-0.335;2.496;2.794;0.745;-2.421;-2.496;2.384
2337975.773;6.407;5.215;7.078;10.058;4.917;4.433;4.284;8.270
2337975.781;7.376;5.811;7.413;11.101;7.004;5.178;5.066;6.258
2337975.789;8.196;6.296;7.972;11.325;7.749;4.135;2.496;4.061
2337975.797;8.270;6.519;7.972;12.293;7.600;6.184;3.427;5.513
2337975.805;5.625;3.092;4.806;8.605;5.588;7.451;4.582;4.768
2337975.813;4.768;1.751;3.688;7.749;3.874;10.394;7.674;6.706
2337975.821;9.276;5.923;8.084;12.852;7.339;16.205;14.864;12.256
2337975.829;8.121;2.868;7.488;9.350;8.754;13.709;13.374;9.686
2337975.837;8.866;4.657;7.711;10.096;7.786;15.199;16.317;11.139
2337975.845;5.774;1.974;3.576;8.196;3.353;13.001;12.517;10.841
2337975.853;4.321;0.671;1.937;8.307;0.000;14.007;10.915;13.188
2337975.861;5.178;1.416;3.837;8.568;2.794;16.205;12.517;16.727
2337975.869;2.794;-1.267;0.298;6.780;-1.006;9.276;5.774;10.133
2337975.877;1.676;-3.390;-1.229;6.072;-1.527;6.072;3.800;6.296
2337975.885;0.261;-3.986;-3.576;5.476;-6.407;6.929;5.066;4.955
2337975.893;4.619;0.782;0.037;9.798;-4.023;14.901;12.964;10.766
2337975.901;7.972;3.166;3.800;11.884;1.267;21.532;19.521;18.068
2337975.909;11.176;5.178;6.706;13.411;4.619;23.879;22.240;21.048
2337975.917;17.099;10.878;12.815;18.626;11.548;30.100;27.828;27.642
2337975.925;16.131;10.692;13.225;18.142;13.113;29.393;27.455;27.642
2337975.936;13.076;6.966;9.723;14.566;9.798;25.854;24.326;25.071
2337975.944;1.863;-4.508;-0.857;3.278;-0.335;21.420;17.881;21.458
2337975.952;-0.373;-8.196;-2.496;-0.745;-0.969;19.632;14.268;19.744
2337975.960;7.823;-1.080;6.333;5.513;7.562;21.905;17.211;22.240
2337975.968;10.915;2.570;9.760;10.096;8.680;22.538;19.744;22.501
2337975.976;12.405;4.210;11.288;11.176;10.990;21.271;18.552;22.687
2337975.984;9.686;3.539;8.121;9.388;8.009;17.434;15.274;18.589
2337975.992;3.800;-1.714;1.080;5.327;-0.261;12.293;11.586;11.660
2337976.000;4.172;-1.527;1.676;6.482;-0.298;16.950;14.678;15.832
2337976.008;4.545;-1.676;2.198;6.892;-0.075;15.870;12.256;14.044
2337976.016;9.276;2.459;7.376;10.915;4.247;18.068;12.554;16.317
2337976.024;14.231;7.488;12.219;16.019;9.127;25.518;19.595;21.867
2337976.032;14.715;7.935;13.448;16.950;9.574;26.897;20.564;23.954
2337976.040;17.658;10.282;16.913;20.042;14.454;26.859;19.595;25.891
2337976.048;18.515;11.250;15.087;22.687;12.629;27.381;21.644;25.742
2337976.056;14.752;7.972;11.548;19.632;9.686;23.693;20.340;20.452
2337976.064;11.288;3.055;9.313;14.566;7.898;20.675;17.583;17.695
2337976.072;9.686;2.198;8.456;14.752;6.594;18.030;15.199;16.093
2337976.080;6.296;0.671;5.104;12.890;3.017;12.219;9.649;11.660
2337976.088;10.952;4.433;9.947;17.285;8.717;15.311;12.778;15.683
2337976.096;9.574;1.304;9.276;13.672;9.313;11.437;8.866;11.809
2337976.104;14.454;6.258;14.454;17.397;14.752;11.586;8.121;12.331
2337976.112;30.845;23.991;31.665;34.943;30.547;28.089;24.624;28.536
2337976.120;19.930;13.635;19.521;23.544;14.156;17.919;14.901;17.695
2337976.160;13.188;6.445;12.070;14.976;8.456;11.511;8.531;12.219
2337976.168;9.499;2.831;9.499;10.356;8.233;8.568;4.917;9.462
2337976.176;14.827;7.302;15.274;15.125;13.188;15.572;12.405;13.895
2337976.184;21.234;14.566;20.787;23.507;17.323;21.197;19.297;18.217
2337976.192;23.842;18.142;24.959;26.487;23.693;23.171;21.867;20.824
2337976.200;11.250;7.302;14.640;13.970;12.517;10.617;10.207;9.798
2337976.208;6.519;3.166;10.878;9.574;9.723;4.135;3.763;5.402
2337976.216;11.064;7.488;16.950;13.225;17.919;7.749;7.413;9.462
2337976.224;14.268;11.288;20.675;17.323;21.569;11.921;11.474;13.560
2337976.232;19.558;17.770;26.338;24.885;26.450;18.179;19.856;18.813
2337976.240;15.274;12.890;22.389;20.228;22.724;11.809;14.417;13.076
2337976.248;6.370;3.576;14.193;10.021;16.987;-1.602;0.559;0.447
2337976.256;12.107;9.574;21.122;15.870;24.699;2.868;4.917;5.215
2337976.264;13.858;11.660;22.538;19.744;24.587;6.221;6.184;8.158
2337976.272;7.227;4.545;16.093;14.268;17.025;4.210;1.788;6.109
2337976.280;4.359;4.806;13.448;10.878;13.858;3.502;-0.224;5.849
2337976.288;8.903;9.462;18.366;14.454;19.670;7.153;2.719;8.903
2337976.296;12.740;11.511;22.724;15.870;25.593;7.115;3.465;8.978
2337976.304;11.995;8.643;21.532;9.686;22.389;4.396;0.745;7.004
2337976.312;11.809;8.121;22.985;8.382;25.257;7.413;2.384;9.909
2337976.320;5.066;2.421;16.019;3.874;20.787;3.390;-2.123;7.525
2337976.328;-2.012;-2.161;9.388;1.453;12.293;-3.874;-8.419;1.006
2337976.336;-5.364;-6.035;7.227;-2.943;10.207;-8.829;-11.735;-5.104
2337976.344;-4.098;-5.588;8.754;-3.651;11.548;-8.345;-11.176;-3.837
2337976.354;-3.316;-4.657;10.468;-2.533;12.778;-7.227;-8.903;-4.135
2337976.362;-3.949;-4.843;9.388;-2.012;12.890;-6.445;-7.749;-2.459
2337976.370;-3.353;-3.949;8.233;-0.484;10.692;-7.525;-7.562;-2.906
2337976.378;0.559;1.565;10.356;5.774;10.692;-1.267;-1.006;3.204
2337976.386;18.924;19.781;28.349;22.650;28.685;13.672;12.666;18.440
2337976.394;21.569;23.060;31.367;26.040;29.914;10.431;8.009;14.342
2337976.402;23.507;27.344;31.106;30.845;26.748;4.359;2.719;5.737
2337976.410;37.067;40.941;43.139;44.927;35.428;3.502;2.868;4.396
2337976.418;55.358;59.120;61.728;63.367;52.378;9.052;9.201;10.952
2337976.426;65.789;68.657;72.122;72.420;60.648;3.986;3.763;7.972
2337976.434;84.713;87.619;93.021;91.605;80.653;5.774;5.439;11.884
2337976.442;93.542;95.665;101.626;98.981;84.378;3.129;2.645;9.574
2337976.450;98.310;99.204;106.879;101.812;84.937;-2.757;-2.421;4.508
2337976.458;104.979;106.357;114.553;109.524;91.195;1.565;1.751;8.531
2337976.466;99.726;99.801;110.306;102.185;90.525;-0.410;-0.857;4.321
2337976.474;100.620;99.614;111.200;100.024;93.617;5.290;3.017;10.394
2337976.482;100.210;100.024;110.604;100.322;93.840;9.127;5.737;14.827
2337976.490;96.820;96.373;106.134;94.734;90.860;15.534;11.437;21.942
2337976.498;94.213;94.324;102.483;93.877;90.525;23.171;19.036;28.946
2337976.506;65.193;65.565;74.096;66.161;65.491;4.023;1.565;9.462
2337976.514;44.405;45.560;53.160;47.050;44.331;-5.700;-6.184;-1.229
2337976.522;39.302;41.910;47.982;42.655;41.276;-3.055;-2.421;0.820
2337976.530;36.694;39.153;43.586;39.600;39.302;2.757;2.868;6.333
2337976.538;26.599;28.796;32.932;30.361;30.585;1.043;1.378;6.631
2337976.477;13.933;17.546;18.254;19.930;17.509;-4.061;-2.831;2.757
2337976.485;11.399;15.497;15.609;17.248;15.832;1.006;2.049;7.078
2337976.493;6.780;9.947;11.660;11.139;14.305;0.075;0.447;5.774
2337976.501;2.384;4.135;7.153;4.284;11.288;-5.700;-5.923;0.298
2337976.509;0.671;1.565;5.327;1.453;11.064;-6.184;-6.855;-1.788
2337976.517;4.657;4.284;7.488;6.370;11.586;-1.155;-0.745;1.527
2337976.525;2.496;1.565;5.774;4.768;11.250;2.086;2.310;3.763
2337976.533;-2.943;-3.129;0.484;-0.335;5.215;2.496;2.943;3.017
2337976.541;-2.570;-2.496;1.118;-0.671;6.109;1.788;3.278;0.931
2337976.549;-6.445;-6.557;-3.129;-3.539;2.608;-1.714;0.857;-2.123
2337976.557;-7.898;-8.494;-4.359;-5.029;3.204;-2.533;-0.522;-2.161
2337976.565;-9.760;-10.468;-7.674;-5.551;-1.118;0.335;2.235;0.224
2337976.573;-11.548;-12.629;-10.133;-6.855;-3.055;0.820;1.900;1.490
2337976.581;-5.849;-7.115;-4.508;-1.565;3.278;4.433;4.061;6.147
2337976.589;-10.319;-11.548;-9.649;-4.731;-2.719;-0.522;-1.416;2.906
2337976.597;-18.477;-20.079;-17.807;-14.342;-10.915;-9.499;-10.878;-3.763
2337976.605;-20.377;-21.830;-20.303;-16.466;-14.566;-10.245;-10.580;-4.992
2337976.613;-20.228;-21.979;-19.930;-16.950;-13.001;-10.617;-9.574;-6.407
2337976.621;-23.209;-24.885;-23.991;-19.036;-18.552;-16.205;-14.380;-10.915
2337976.629;-16.056;-18.552;-16.503;-12.256;-12.405;-11.437;-8.717;-6.594
2337976.637;-8.345;-12.070;-8.345;-6.407;-3.129;-4.955;-3.241;-0.075
2337976.645;-6.109;-9.611;-6.519;-4.545;-1.527;-1.788;-0.484;1.714
2337976.653;-12.070;-15.274;-12.778;-9.537;-7.860;-4.619;-2.421;-1.863
2337976.661;-16.354;-19.819;-18.217;-13.076;-13.262;-4.694;-2.384;-2.421
2337976.640;-18.105;-22.426;-20.564;-15.646;-15.013;-1.453;-1.118;0.447
2337976.648;-20.303;-26.226;-22.091;-19.446;-14.901;-6.072;-7.451;-2.310
2337976.656;-21.458;-26.971;-22.873;-22.091;-15.236;-12.591;-15.721;-7.041
2337976.664;-18.068;-24.028;-20.191;-18.887;-14.640;-11.250;-15.646;-3.129
2337976.672;-10.170;-16.913;-12.554;-10.207;-6.706;-5.551;-9.686;-0.410
2337976.680;-11.027;-15.199;-13.448;-7.488;-8.866;-0.484;-3.688;1.490
2337976.688;-9.239;-12.368;-13.448;-3.614;-9.649;5.253;2.980;5.811
2337976.696;-2.421;-5.402;-6.370;3.092;-3.763;8.717;8.270;9.015
2337976.704;5.029;1.155;1.155;8.680;2.496;10.580;10.692;11.586
2337976.712;1.490;-3.502;-2.831;4.023;-1.304;2.272;2.570;3.725
2337976.720;3.688;-1.565;-0.224;6.184;0.149;-0.782;-0.298;1.080
2337976.728;12.368;5.625;9.015;12.405;9.164;8.196;9.127;9.760
2337976.736;8.903;2.198;4.917;8.866;5.402;6.258;5.960;8.307
2337976.744;7.115;-0.522;3.502;6.557;5.178;2.533;-0.298;6.333
2337976.752;21.644;13.821;19.073;21.271;21.122;11.511;6.631;18.068
2337976.760;10.394;2.384;7.860;9.574;9.574;-2.459;-8.419;4.768
2337976.768;11.399;2.608;8.941;10.245;10.021;-1.118;-6.109;6.333
2337976.776;17.583;10.692;14.417;19.148;16.503;8.568;3.986;14.938
2337976.784;7.562;1.453;4.359;11.921;6.855;0.820;-2.384;4.172
2337976.792;2.868;-2.980;-0.410;8.605;1.490;-1.900;-1.825;0.969
2337976.800;3.912;-2.682;1.639;8.792;4.582;-0.894;2.719;0.820
2337976.808;-4.731;-11.325;-6.892;-0.820;-3.502;-9.537;-4.284;-8.196
2337976.816;-2.943;-10.133;-4.470;-1.080;-2.384;-10.580;-4.917;-9.760
2337976.824;1.267;-7.637;0.708;0.335;2.049;-10.058;-6.147;-8.047
2337976.837;3.912;-4.880;3.912;2.235;5.327;-11.176;-8.717;-7.413
2337976.845;16.652;8.605;16.838;13.709;16.578;2.831;5.029;7.413
2337976.853;3.874;-4.694;5.402;0.373;7.264;-2.533;0.075;1.043
2337976.861;-2.943;-9.872;-0.373;-5.737;0.522;-2.831;-0.745;-1.006
2337976.869;5.513;-0.484;7.674;3.390;4.806;9.015;11.325;9.052
2337976.877;5.327;-0.298;7.302;3.539;4.955;7.488;11.511;6.817
2337976.885;4.396;-1.602;7.972;1.378;6.072;3.055;8.680;4.247
2337976.893;5.066;-0.596;10.096;2.980;5.364;3.241;9.798;4.210
2337976.901;6.817;2.533;12.554;5.700;4.657;6.892;14.156;6.892
2337976.909;9.537;5.104;16.168;7.860;8.084;8.903;15.087;8.009
2337976.917;2.235;-3.017;8.866;-0.931;-0.745;1.006;5.700;0.820
2337976.925;5.923;1.080;14.417;2.049;3.800;2.645;7.153;3.316
2337976.933;11.064;5.998;20.005;7.562;10.915;7.711;11.064;8.605
2337976.941;11.139;5.551;19.222;7.488;6.929;11.362;13.262;12.740
2337976.949;6.445;1.043;13.821;5.178;0.708;9.090;10.207;11.697
2337976.957;4.992;1.751;12.554;5.625;0.559;4.731;5.923;7.860
2337976.965;3.539;1.006;12.070;5.998;-0.671;-2.794;1.341;0.224
2337976.973;3.725;2.161;12.666;8.531;-0.484;-6.147;0.224;-3.055
2337976.981;6.519;5.439;14.864;8.941;0.708;-6.892;1.304;-4.172
2337976.989;9.239;7.264;17.360;10.729;4.806;-2.719;4.061;1.080
2337976.997;2.049;-0.112;10.990;3.763;1.378;-8.643;-4.470;-4.284
2337977.005;1.714;-0.931;10.803;2.496;0.112;-8.680;-5.364;-6.035
2337977.013;4.172;2.272;12.890;4.545;1.006;-6.668;-2.980;-2.086
2337977.021;4.880;2.943;12.815;4.992;1.825;-4.917;-1.602;-0.373
2337977.047;-1.900;-4.098;6.557;-1.229;-1.602;-10.841;-7.413;-6.557
2337977.055;-13.188;-15.125;-4.582;-11.660;-13.933;-18.552;-15.832;-14.603
2337977.063;-14.268;-16.391;-5.364;-13.001;-15.721;-15.497;-12.480;-12.591
2337977.071;-12.591;-15.609;-5.141;-11.511;-15.497;-13.299;-11.362;-10.133
2337977.079;-6.892;-9.760;0.261;-6.370;-8.680;-11.101;-8.941;-7.488
2337977.087;-1.863;-4.061;3.949;-0.745;-6.147;-10.096;-8.009;-5.849
2337977.095;-2.682;-4.619;3.316;-1.751;-6.109;-12.033;-10.543;-8.307
2337977.103;-2.794;-4.917;3.465;-2.682;-4.023;-9.909;-8.531;-7.302
2337977.111;-6.743;-8.829;-1.378;-6.147;-9.574;-11.772;-10.580;-9.313
2337977.119;-11.660;-12.666;-6.594;-11.176;-15.758;-16.913;-16.019;-14.007
2337977.127;-5.215;-6.855;-1.229;-5.625;-9.872;-11.325;-11.362;-6.221
2337977.135;-3.874;-6.594;-0.075;-4.508;-6.258;-10.654;-11.101;-3.204
2337977.143;-12.293;-14.529;-7.339;-12.331;-15.311;-17.844;-18.179;-9.649
2337977.151;-11.325;-13.672;-6.892;-12.144;-16.429;-18.589;-17.621;-10.915
2337977.159;-8.531;-11.809;-4.768;-10.505;-13.895;-18.366;-17.360;-10.766
2337977.167;-12.107;-16.429;-8.531;-14.119;-15.497;-19.521;-18.515;-11.027
2337977.175;-19.185;-22.426;-16.019;-18.887;-22.650;-21.979;-20.340;-14.938
2337977.183;-17.025;-19.483;-13.560;-16.019;-19.558;-12.591;-8.941;-7.525
2337977.191;-15.981;-17.248;-12.480;-12.815;-17.807;-8.009;-2.980;-5.141
2337977.199;-14.976;-15.274;-11.735;-11.101;-16.056;-11.772;-5.849;-8.754
2337977.207;-14.715;-14.082;-12.182;-10.207;-17.695;-12.293;-8.419;-6.929
2337977.215;-15.572;-15.981;-13.188;-11.697;-18.105;-9.984;-9.388;-4.470
2337977.223;-15.646;-16.466;-13.709;-11.139;-17.956;-8.792;-9.090;-4.135
2337977.231;-5.625;-6.519;-4.359;-0.410;-7.376;-0.633;-0.410;3.912
2337977.255;7.488;7.413;8.419;13.001;5.588;8.531;10.803;11.958
2337977.263;-9.611;-8.568;-10.245;-1.974;-13.970;-7.525;-4.172;-5.774
2337977.271;-9.686;-9.462;-10.617;-2.831;-11.697;-7.115;-4.582;-4.880
2337977.279;-5.290;-5.551;-7.562;1.304;-10.133;-3.092;-1.825;0.261
2337977.287;-13.188;-13.039;-15.460;-6.072;-20.564;-12.890;-13.001;-6.929
2337977.295;-11.697;-12.256;-13.150;-5.476;-16.950;-11.511;-10.133;-4.470
2337977.303;-14.305;-15.236;-14.864;-8.196;-17.583;-15.087;-12.629;-9.127
2337977.311;-20.079;-20.750;-20.415;-14.193;-23.209;-22.352;-18.664;-18.068
2337977.319;-10.505;-11.995;-10.319;-6.147;-11.809;-16.540;-11.846;-12.740
2337977.327;-7.339;-9.499;-7.153;-1.825;-8.494;-14.789;-10.356;-10.133
2337977.335;-13.709;-14.640;-14.082;-6.594;-16.056;-17.062;-13.933;-11.846
2337977.343;-12.703;-14.454;-13.597;-6.892;-12.442;-13.188;-10.543;-9.164
2337977.351;-11.660;-14.715;-13.039;-6.817;-12.368;-14.305;-11.474;-9.015
2337977.359;-13.709;-16.503;-15.311;-9.239;-17.099;-17.546;-14.678;-11.399
2337977.367;-11.474;-14.715;-12.778;-6.519;-14.193;-16.987;-16.838;-9.499
2337977.375;-7.153;-9.798;-8.419;-1.416;-9.388;-13.895;-13.150;-7.413
2337977.383;-6.519;-8.792;-7.227;-0.037;-8.121;-11.325;-10.058;-6.706
2337977.391;-3.874;-5.178;-4.657;4.359;-7.078;-6.109;-3.688;-3.502
2337977.399;8.456;7.749;6.258;17.099;4.545;7.078;11.288;6.966
2337977.407;-1.304;-1.565;-3.614;8.009;-3.986;-0.149;5.774;-2.198
2337977.415;-9.649;-10.952;-10.766;-1.453;-10.841;-7.823;-1.192;-9.947
2337977.423;-14.529;-16.466;-14.976;-5.215;-15.050;-13.411;-6.817;-13.113
2337977.431;-14.417;-14.193;-15.944;-2.310;-15.907;-10.952;-4.619;-8.233
2337977.439;-18.738;-18.366;-21.197;-6.482;-22.054;-11.995;-5.588;-9.499
2337977.361;-13.858;-14.417;-16.466;-2.533;-15.907;-5.364;0.037;-2.049
2337977.369;-12.740;-14.491;-15.572;-3.092;-13.933;-6.743;-1.118;-4.433
2337977.377;-13.560;-15.907;-16.652;-3.241;-17.993;-12.107;-5.029;-11.250
2337977.385;-16.317;-17.434;-19.632;-4.470;-21.607;-15.087;-7.823;-13.858
2337977.393;-14.827;-14.938;-18.217;-1.602;-18.887;-8.233;-1.118;-7.786
2337977.401;-11.697;-12.405;-15.385;1.676;-15.348;-0.335;6.407;-2.868
2337977.409;-11.064;-13.523;-15.832;0.931;-17.546;4.545;9.015;-1.341
2337977.417;-8.903;-12.107;-14.640;1.118;-15.795;8.345;11.884;0.335
2337977.425;-5.402;-8.717;-10.692;3.316;-10.505;10.245;14.305;2.496
2337977.433;-6.147;-9.649;-10.580;1.751;-11.809;5.364;9.984;-1.006
2337977.441;-6.035;-10.356;-9.649;1.676;-12.629;0.633;5.811;-3.278
2337977.449;-3.688;-8.717;-5.327;3.427;-6.929;2.161;6.631;-0.261
2337977.457;-2.496;-7.637;-4.284;5.290;-5.588;2.868;7.302;-0.373
2337977.465;-0.596;-6.370;-2.645;7.600;-3.316;4.396;8.307;1.937
2337977.473;-1.267;-6.221;-1.490;9.052;-1.751;3.129;6.407;2.123
2337977.481;-5.178;-9.649;-5.960;6.333;-4.768;-2.608;0.782;-2.608
2337977.489;-10.505;-14.156;-12.591;2.049;-13.709;-9.649;-5.439;-10.319
2337977.497;-7.227;-10.356;-8.978;6.780;-9.686;-3.912;0.820;-5.141
2337977.505;-7.413;-11.139;-8.829;6.706;-9.835;-5.104;0.224;-4.731
2337977.513;-3.763;-8.680;-5.066;9.239;-6.519;-4.880;-0.596;-4.470
2337977.521;2.831;-3.912;1.378;14.380;1.155;-2.012;1.863;-1.974
2337977.529;1.974;-2.421;-0.075;13.933;-2.831;-2.906;4.210;-4.210
2337977.537;3.390;-2.012;2.198;12.517;0.261;-2.459;6.892;-2.757
2337977.545;3.278;-2.906;3.129;9.611;2.906;-5.662;3.763;-4.433
2337977.481;4.992;-0.931;3.353;10.952;0.522;-2.198;6.296;-1.900
2337977.489;6.706;-0.075;5.104;12.107;1.080;-0.782;6.482;-0.149
2337977.497;13.821;6.668;14.156;18.440;10.319;5.439;10.766;7.786
2337977.505;14.342;6.966;17.062;18.030;15.199;7.823;10.915;11.623
2337977.513;-1.416;-7.711;1.676;2.682;-3.800;-8.829;-6.743;-3.316
2337977.521;-7.711;-14.119;-3.353;-4.917;-8.568;-19.409;-17.844;-11.250
2337977.529;-7.004;-13.113;-0.559;-3.651;-4.582;-22.948;-21.569;-13.746
2337977.537;-0.857;-6.035;6.072;3.651;-1.453;-22.799;-19.670;-13.784
2337977.545;5.811;1.565;13.486;11.139;5.104;-18.179;-13.821;-11.027
2337977.553;10.394;6.743;17.732;17.174;6.780;-12.703;-8.047;-9.164
2337977.561;12.144;8.941;19.558;21.048;6.072;-8.978;-4.582;-9.574
2337977.569;17.956;15.758;24.214;27.530;9.276;0.522;3.353;0.671
2337977.577;31.143;28.834;36.955;40.717;20.750;12.219;14.752;13.262
2337977.585;13.225;11.399;19.744;24.699;2.868;-10.952;-7.525;-10.952
2337977.593;10.580;8.941;18.217;23.060;0.671;-15.125;-10.803;-15.832
2337977.601;20.936;20.489;28.498;34.571;10.654;-4.768;-0.559;-4.806
2337977.609;17.397;18.477;23.805;32.261;6.296;-4.396;-0.782;-4.619
2337977.617;15.609;16.540;20.564;30.175;4.172;-2.831;0.745;-2.272
2337977.625;27.120;26.897;32.075;39.451;17.583;11.064;13.448;12.703
2337977.633;15.534;14.566;21.607;24.848;9.835;-1.006;0.224;1.267
2337977.641;15.460;15.087;20.564;24.252;8.754;-2.272;0.037;-0.447
2337977.649;23.767;23.395;27.604;32.708;14.789;2.682;6.333;4.321
2337977.657;14.342;14.193;18.291;23.469;3.017;-8.605;-3.763;-7.935
2337977.665;11.437;9.537;15.572;18.850;3.055;-8.792;-5.104;-9.276
2337977.630;5.551;3.129;9.649;13.374;-3.427;-8.307;-5.104;-8.605
2337977.638;-2.347;-5.215;3.688;5.402;-7.674;-10.841;-7.823;-10.915
2337977.646;-9.649;-12.256;-4.806;-1.416;-16.876;-15.236;-11.884;-13.299
2337977.654;-9.611;-11.623;-6.333;-1.453;-17.472;-12.219;-9.798;-10.543
2337977.662;2.868;0.559;4.098;11.250;-6.035;-0.298;1.267;0.224
2337977.670;-5.402;-5.327;-4.359;5.923;-14.231;-8.531;-6.258;-9.649
2337977.678;-2.682;-2.347;-1.006;8.419;-11.027;-4.210;-2.645;-5.886
2337977.686;-6.519;-6.109;-6.072;4.172;-18.179;-9.090;-7.413;-10.207
2337977.694;-9.835;-8.792;-8.158;2.570;-17.285;-7.525;-6.035;-7.302
2337977.702;-5.215;-4.210;-3.129;5.960;-12.778;0.522;1.304;1.192
2337977.710;-4.917;-4.396;-2.906;3.986;-10.431;1.192;1.341;1.229
2337977.718;-8.792;-6.743;-7.041;2.719;-14.715;0.335;0.708;0.410
2337977.726;-0.410;2.906;1.155;13.337;-8.270;7.488;9.239;6.445
2337977.734;18.701;21.011;22.240;30.808;13.411;18.813;20.526;18.254
2337977.742;12.815;13.895;15.125;22.948;3.427;4.992;6.258;3.763
2337977.750;30.138;30.771;32.485;39.674;18.142;9.611;10.468;7.190
2337977.758;39.376;40.010;42.841;50.068;26.636;9.462;9.127;7.451
2337977.766;55.283;56.699;57.928;67.763;39.227;12.852;11.474;12.182
2337977.774;71.451;74.916;73.574;88.662;50.738;12.852;12.144;13.784
2337977.782;85.719;91.158;88.736;106.469;60.722;7.078;7.711;10.170
2337977.790;94.548;99.242;98.683;115.745;67.838;-2.608;1.118;0.745
2337977.798;107.810;111.647;112.578;127.628;77.002;-3.651;3.055;-1.229
2337977.806;117.533;120.662;122.599;135.116;84.937;-2.980;5.327;-1.416
2337977.814;129.491;132.434;134.408;147.969;95.330;2.012;9.239;4.061
2337977.825;145.324;147.969;150.278;163.913;109.635;9.499;14.715;12.256
2337977.833;144.839;147.820;149.980;163.279;110.976;8.792;13.784;9.350
2337977.841;131.428;136.346;137.053;152.737;99.577;1.527;7.190;0.894
2337977.849;126.436;131.465;131.913;147.149;95.591;0.149;4.731;-1.788
2337977.857;124.797;130.162;129.044;145.808;94.622;3.763;6.519;1.825
2337977.865;119.209;125.393;120.997;140.890;88.476;9.909;11.735;10.170
2337977.873;108.965;115.186;110.716;129.342;81.845;8.531;10.729;10.952
2337977.881;99.018;106.208;100.099;119.880;72.941;4.135;8.494;6.072
2337977.889;92.424;99.912;93.281;113.137;68.434;2.012;8.531;3.837
2337977.897;80.802;89.295;81.137;102.073;58.934;1.267;7.823;4.582
2337977.905;66.608;75.176;64.597;89.966;43.847;1.527;8.456;3.166
2337977.913;53.756;61.765;51.484;76.853;36.582;3.390;10.356;3.278
2337977.921;34.980;43.511;32.037;57.817;19.856;-5.290;0.484;-7.600
2337977.929;34.645;42.804;30.957;55.805;16.689;-0.596;4.880;-4.880
2337977.937;34.422;42.506;30.398;53.085;17.844;4.582;9.015;-0.298
2337977.945;27.828;35.204;23.656;45.598;13.560;4.098;6.258;2.496
2337977.953;23.134;29.132;18.142;39.004;10.654;1.118;2.272;4.880
2337977.961;14.380;19.595;9.388;28.536;4.396;-3.688;-2.608;1.527
2337977.969;9.499;14.082;3.390;22.911;-1.192;-5.588;-2.980;-1.974
2337977.977;5.811;8.754;-0.894;17.881;-3.651;-5.364;-2.682;-3.278
2337977.985;-2.794;-0.484;-9.798;9.537;-10.841;-8.158;-6.966;-8.047
2337977.993;-4.247;-1.267;-10.729;9.872;-11.213;-3.055;-2.198;-3.912
2337978.001;-5.625;-2.608;-11.623;8.568;-9.313;-1.527;-0.522;-0.857
2337978.009;-11.772;-10.282;-18.477;1.676;-14.678;-8.531;-5.476;-7.190
2337978.081;-18.738;-16.242;-26.934;-5.513;-26.673;-11.958;-6.892;-15.125
2337978.089;-18.254;-14.156;-25.593;-5.811;-24.550;-6.966;-2.868;-12.033
2337978.097;-23.358;-19.372;-30.175;-10.766;-26.710;-5.551;-3.241;-9.760
2337978.105;-22.650;-17.732;-30.026;-8.196;-28.387;1.676;3.092;-0.671
2337978.113;-26.226;-22.575;-32.671;-12.666;-29.542;-1.676;0.037;-2.235
2337978.121;-24.326;-20.005;-31.702;-10.505;-29.802;-1.416;0.633;-2.906
2337978.129;-20.936;-14.864;-28.387;-4.359;-26.785;-0.298;2.496;-2.347
2337978.137;-23.171;-17.323;-29.765;-5.662;-26.524;-2.086;1.825;-3.241
2337978.145;-27.344;-23.954;-32.037;-11.288;-26.561;-3.837;1.639;-4.843
2337978.153;-35.092;-31.479;-39.898;-19.856;-34.384;-4.210;0.894;-5.811
2337978.161;-41.686;-37.253;-48.392;-25.406;-46.045;-5.029;-1.565;-5.923
2337978.169;-34.533;-31.106;-41.872;-19.968;-38.743;-1.565;-0.037;-1.863
2337978.177;-25.183;-22.948;-34.049;-12.480;-30.957;-1.341;1.006;-2.384
2337978.185;-21.383;-19.409;-30.473;-9.425;-29.504;-3.278;-0.261;-5.588
2337978.193;-19.744;-17.844;-27.865;-7.749;-25.146;1.043;4.619;1.229
2337978.201;-28.461;-26.710;-35.316;-16.876;-30.473;-7.935;-4.135;-5.774
2337978.209;-31.218;-29.132;-38.370;-19.968;-35.129;-13.895;-9.723;-11.586
2337978.217;-31.628;-29.653;-40.308;-19.856;-38.221;-16.652;-12.405;-16.466
2337978.225;-28.722;-27.381;-38.818;-16.503;-36.024;-14.342;-9.499;-16.391
2337978.233;-23.730;-22.650;-34.459;-11.250;-31.143;-7.115;-3.204;-9.201
2337978.241;-20.675;-19.185;-30.845;-7.115;-27.157;2.459;4.582;1.527
2337978.249;-29.467;-28.685;-39.712;-17.621;-35.055;3.725;5.066;2.235
2337978.257;-29.169;-27.232;-37.812;-15.125;-30.734;6.817;8.643;3.912
2337978.265;-27.567;-25.928;-36.657;-13.337;-30.212;7.153;9.052;3.129
2337978.231;-26.338;-25.518;-36.657;-12.591;-29.206;7.525;9.090;3.763
2337978.239;-18.999;-16.838;-30.696;-4.135;-24.103;19.111;21.197;14.044
2337978.247;-26.301;-24.922;-37.886;-13.523;-29.765;15.385;18.105;9.835
2337978.255;-37.588;-36.992;-49.174;-26.934;-38.408;1.118;1.863;-3.539
2337978.263;-37.849;-37.625;-49.919;-28.946;-41.090;-0.894;-0.671;-4.508
2337978.271;-32.037;-31.702;-43.251;-25.295;-34.608;2.310;2.086;0.075
2337978.279;-30.771;-29.430;-41.611;-23.469;-34.608;-0.969;0.149;-3.055
2337978.287;-31.665;-28.983;-42.990;-22.948;-38.333;-4.396;-1.341;-8.009
2337978.295;-31.330;-29.467;-41.686;-24.438;-36.694;-0.857;2.049;-5.551
2337978.303;-26.450;-24.661;-35.390;-19.856;-30.212;5.551;8.941;-1.155
2337978.311;-27.157;-25.332;-34.682;-20.415;-29.430;2.533;7.264;-3.129
2337978.319;-23.358;-20.564;-30.622;-15.274;-27.008;3.539;8.568;0.447
2337978.327;-9.611;-5.551;-15.609;0.037;-13.188;16.317;21.085;11.139
2337978.335;-27.567;-22.687;-33.081;-17.360;-31.553;0.894;6.147;-5.364
2337978.343;-40.755;-35.428;-45.560;-30.287;-43.325;-10.133;-6.482;-16.242
2337978.351;-38.967;-33.453;-44.964;-28.536;-42.617;-8.717;-6.296;-15.385
2337978.359;-35.726;-29.765;-41.202;-24.624;-40.494;-5.700;-2.943;-12.480
2337978.367;-36.545;-29.579;-41.761;-25.108;-39.078;-3.576;-1.900;-9.760
2337978.375;-31.069;-24.252;-35.726;-19.968;-33.379;2.757;3.017;-3.017
2337978.383;-25.108;-19.260;-27.530;-14.193;-25.146;5.811;6.594;-0.708
2337978.391;-31.851;-26.003;-34.012;-19.968;-32.336;-2.831;-0.559;-9.425
2337978.399;-30.585;-23.991;-32.634;-18.962;-32.187;0.000;3.204;-7.339
2337978.407;-30.436;-25.220;-31.628;-21.644;-29.765;3.800;6.035;-3.055
2337978.415;-34.422;-29.989;-35.390;-26.487;-34.422;2.272;2.757;-3.763
2337978.395;-37.625;-31.777;-39.674;-28.424;-39.488;2.533;3.129;-2.384
2337978.403;-40.680;-33.937;-42.394;-29.393;-43.064;0.708;0.447;-2.384
2337978.411;-33.639;-26.524;-33.490;-21.756;-33.155;6.929;6.482;5.253
2337978.419;-39.004;-32.112;-39.376;-26.338;-37.290;-3.986;-1.565;-5.141
2337978.427;-45.486;-37.998;-47.572;-31.963;-46.529;-15.646;-9.164;-16.205
2337978.435;-44.294;-36.955;-45.709;-30.883;-43.139;-15.870;-6.482;-18.291
2337978.443;-40.084;-32.634;-42.617;-26.561;-40.606;-13.225;-1.639;-15.870
2337978.451;-35.353;-27.716;-38.035;-22.389;-37.104;-13.784;-1.937;-16.354
2337978.459;-38.035;-30.883;-41.500;-25.444;-41.202;-19.073;-8.233;-22.165
2337978.467;-41.798;-34.384;-44.852;-29.355;-43.660;-20.564;-11.995;-22.389
2337978.475;-44.480;-37.625;-47.684;-32.745;-46.156;-15.423;-9.537;-15.348
2337978.483;-45.374;-36.769;-47.982;-33.788;-42.692;-12.219;-8.531;-11.511
2337978.491;-44.517;-36.210;-48.131;-33.192;-43.176;-13.858;-10.952;-13.560
2337978.499;-48.280;-39.451;-51.484;-35.241;-46.752;-14.640;-10.878;-15.944
2337978.507;-49.844;-40.233;-53.309;-35.986;-48.354;-13.448;-8.270;-16.764
2337978.515;-44.256;-35.465;-46.566;-31.255;-39.041;-6.706;-0.894;-11.139
2337978.523;-41.723;-33.602;-44.852;-29.877;-39.637;-2.868;3.166;-6.631
2337978.531;-44.703;-36.955;-47.237;-34.869;-42.468;-8.047;-3.166;-11.511
2337978.539;-42.319;-35.316;-45.449;-34.161;-39.749;-12.554;-10.319;-13.672
2337978.547;-39.935;-32.410;-43.027;-32.075;-38.184;-14.119;-13.560;-13.821
2337978.555;-21.681;-14.678;-25.369;-14.417;-23.246;-0.298;0.298;0.857
2337978.563;-25.146;-19.483;-31.404;-18.328;-25.928;-8.233;-7.190;-8.717
2337978.571;-36.694;-32.000;-44.219;-30.734;-32.932;-20.228;-19.521;-18.738
2337978.579;-36.918;-31.404;-46.827;-29.281;-37.700;-18.738;-16.950;-17.732
2337978.606;-33.937;-28.759;-44.964;-25.295;-36.620;-14.380;-11.586;-15.236
2337978.614;-38.669;-33.081;-50.068;-29.095;-41.500;-12.033;-10.133;-14.789
2337978.622;-43.660;-37.514;-54.538;-32.075;-46.156;-13.933;-11.176;-18.068
2337978.630;-40.755;-34.422;-51.074;-29.020;-41.872;-14.007;-8.568;-18.179
2337978.638;-33.453;-27.381;-43.139;-21.048;-33.192;-8.121;-1.900;-11.921
2337978.646;-37.886;-32.224;-48.243;-25.630;-37.402;-9.462;-3.837;-13.635
2337978.654;-38.184;-34.012;-49.099;-27.679;-40.568;-13.523;-8.047;-17.732
2337978.662;-39.861;-36.843;-48.541;-30.026;-39.004;-16.093;-12.554;-19.222
2337978.670;-37.551;-35.092;-45.449;-28.610;-36.061;-11.995;-9.947;-15.162
2337978.678;-25.257;-22.985;-33.267;-16.615;-24.959;1.416;2.906;-1.602
2337978.686;-34.645;-31.888;-42.245;-25.518;-32.522;-8.419;-6.147;-12.144
2337978.694;-41.276;-38.184;-49.211;-31.628;-39.823;-12.964;-10.505;-17.658
2337978.702;-37.774;-35.353;-45.635;-28.163;-36.322;-5.066;-3.017;-11.288
2337978.710;-32.522;-29.914;-41.910;-24.810;-35.278;3.725;5.662;-3.129
2337978.718;-22.464;-20.154;-32.373;-16.801;-26.412;11.027;14.380;2.943
2337978.726;-21.830;-19.185;-31.255;-14.454;-26.003;5.662;9.499;-1.267
2337978.734;-22.873;-20.415;-33.341;-16.615;-28.871;0.484;4.321;-3.614
2337978.742;-25.555;-23.209;-36.396;-18.664;-31.404;-4.806;-1.378;-7.488
2337978.750;-19.781;-17.062;-30.547;-10.803;-25.183;-1.378;-0.410;-2.012
2337978.758;-17.509;-14.678;-28.498;-7.935;-22.873;-2.347;-2.347;-1.788
2337978.766;-21.681;-19.334;-32.410;-13.076;-27.977;-11.362;-9.872;-10.431
2337978.774;-14.901;-13.858;-26.226;-7.562;-24.177;-6.445;-2.645;-9.723
2337978.782;-17.136;-16.838;-27.716;-9.574;-23.805;-5.066;-0.708;-10.021
2337978.790;-11.772;-9.649;-21.644;-2.608;-14.938;3.502;9.239;-1.043
2337978.891;-22.501;-20.713;-31.032;-12.629;-23.395;-3.949;1.825;-7.376
2337978.899;-25.220;-22.352;-33.788;-13.337;-27.046;-4.508;-0.224;-8.792
2337978.907;-23.879;-20.415;-32.075;-10.841;-25.071;1.863;4.619;-3.278
2337978.915;-22.538;-20.005;-32.224;-9.947;-25.332;1.676;4.731;-2.235
2337978.923;-21.569;-19.148;-31.888;-8.978;-22.724;-2.421;2.570;-3.874
2337978.931;-26.189;-24.103;-37.104;-12.554;-28.163;-9.127;-4.545;-6.855
2337978.939;-27.083;-25.257;-39.227;-14.156;-30.622;-18.142;-15.311;-14.156
2337978.947;-23.767;-23.209;-36.322;-12.368;-26.114;-21.830;-19.111;-17.323
2337978.955;-19.632;-20.862;-32.894;-10.058;-22.799;-17.248;-14.715;-13.784
2337978.963;-18.068;-18.142;-32.559;-6.557;-26.152;-12.740;-9.574;-12.927
2337978.971;-12.033;-10.282;-27.381;0.745;-20.489;-4.321;0.633;-8.121
2337978.979;-13.076;-10.878;-30.510;1.192;-23.358;-6.929;-0.373;-12.890
2337978.987;-8.866;-7.153;-26.263;4.992;-19.856;-4.359;1.825;-10.356
2337978.995;-5.141;-2.459;-21.718;8.680;-18.105;3.055;8.419;-2.608
2337979.003;-6.594;-4.210;-21.867;6.109;-15.050;3.278;8.270;-2.049
2337979.011;-3.725;-0.484;-19.446;10.505;-13.672;7.376;10.766;4.545
2337979.019;-1.527;0.894;-16.615;11.846;-11.437;8.009;8.605;7.041
2337979.027;-8.680;-6.370;-22.650;4.955;-17.211;-3.017;-3.316;-2.980
2337979.035;-11.437;-8.419;-26.673;2.943;-23.767;-10.729;-8.158;-11.064
2337979.043;-8.196;-4.061;-23.730;8.047;-23.544;-8.903;-4.694;-10.319
2337979.051;-5.476;-3.241;-20.191;9.313;-18.999;-6.035;-2.272;-6.780
2337979.059;-10.915;-9.537;-25.854;2.794;-24.624;-9.239;-5.104;-9.574
2337979.067;-19.409;-17.844;-31.888;-4.843;-27.530;-15.162;-9.276;-16.354
2337979.075;-15.460;-13.374;-27.642;-0.410;-26.450;-9.164;-2.235;-13.448
2337979.117;-12.778;-11.697;-24.736;1.900;-23.581;-4.582;2.868;-11.623
2337979.125;-7.264;-5.886;-20.266;7.264;-19.856;1.788;9.052;-5.327
2337979.133;-15.683;-14.454;-28.983;-1.267;-27.865;-3.688;2.459;-6.780
2337979.141;-20.824;-19.707;-32.261;-7.153;-29.430;-1.043;3.129;-2.347
2337979.149;-19.670;-19.521;-30.920;-7.637;-27.977;3.725;7.562;4.880
2337979.157;-24.401;-24.363;-34.198;-14.491;-32.037;2.459;6.147;1.155
2337979.165;-18.962;-19.036;-27.418;-10.394;-25.295;8.270;12.405;6.407
2337979.173;-19.632;-19.148;-28.573;-10.058;-26.934;10.021;14.231;7.376
2337979.181;-33.677;-31.479;-42.021;-22.911;-38.370;-2.198;2.757;-4.396
2337979.189;-39.712;-36.694;-47.609;-29.691;-44.443;-10.878;-5.737;-11.176
2337979.197;-37.178;-33.788;-44.890;-28.014;-46.417;-8.196;-4.433;-9.872
2337979.205;-28.238;-25.518;-34.496;-19.819;-36.210;-4.135;-1.714;-5.998
2337979.213;-20.191;-17.956;-24.885;-14.156;-28.387;-3.092;-1.900;-2.868
2337979.221;-20.303;-18.440;-22.948;-16.391;-26.040;-4.619;-3.576;-4.061
2337979.229;-21.569;-19.446;-23.618;-16.689;-28.685;-3.874;-0.484;-4.657
2337979.237;-23.656;-20.601;-24.773;-17.919;-30.845;-5.290;0.522;-6.966
2337979.245;-19.968;-16.205;-21.160;-13.486;-26.710;-2.123;5.811;-3.353
2337979.253;-14.491;-10.543;-15.795;-6.855;-22.799;5.141;13.001;3.874
2337979.261;-15.274;-11.511;-15.683;-8.009;-20.452;9.835;17.099;7.078
2337979.269;-27.828;-25.444;-27.679;-22.240;-31.441;-1.602;3.017;-1.788
2337979.277;-37.774;-34.943;-38.408;-31.292;-44.331;-10.841;-7.823;-10.468
2337979.285;-38.594;-34.310;-39.153;-30.175;-45.002;-13.039;-10.915;-12.740
2337979.293;-27.530;-22.650;-27.940;-18.068;-30.808;-4.806;-3.129;-6.333
2337979.301;-20.079;-14.640;-20.824;-10.431;-25.891;2.421;6.035;-2.086
2337979.250;-23.507;-17.695;-23.805;-13.001;-30.249;-3.017;2.645;-8.643
2337979.258;-11.958;-6.258;-11.995;-3.688;-14.976;2.310;8.829;-3.986
2337979.266;-6.892;-1.267;-7.935;0.112;-10.096;5.290;10.058;-1.006
2337979.274;-9.052;-3.241;-9.649;-0.857;-12.442;1.267;5.513;-4.955
2337979.282;-7.413;-0.447;-7.972;2.235;-11.437;3.241;7.637;-1.378
2337979.290;-5.104;2.645;-6.668;5.215;-8.717;4.992;9.164;2.533
2337979.298;-2.421;4.545;-4.098;7.041;-7.227;6.706;9.425;4.768
2337979.306;-20.340;-14.678;-22.948;-11.958;-27.344;-7.786;-6.706;-7.376
2337979.314;-25.108;-19.185;-26.189;-17.211;-28.610;-13.895;-10.692;-11.362
2337979.322;-21.905;-15.832;-23.544;-14.044;-26.859;-13.970;-7.935;-12.070
2337979.330;-22.203;-16.987;-23.581;-16.242;-25.705;-19.148;-11.399;-17.807
2337979.338;-18.664;-13.113;-19.968;-13.411;-21.495;-15.646;-7.711;-15.795
2337979.346;-17.472;-12.405;-19.222;-12.405;-20.526;-9.649;-3.204;-11.586
2337979.354;-17.621;-12.852;-21.234;-12.778;-22.948;-4.694;-0.037;-7.786
2337979.362;-14.864;-9.239;-18.887;-11.697;-19.148;-0.261;1.639;-2.682
2337979.370;-15.981;-10.654;-18.403;-13.076;-17.360;-3.017;-0.782;-5.886
2337979.378;-15.460;-10.096;-17.248;-13.262;-17.956;-3.725;-1.416;-7.004
2337979.386;-14.603;-9.090;-17.472;-13.299;-18.887;-3.576;-2.757;-4.992
2337979.394;-12.890;-8.307;-15.944;-12.703;-18.142;-1.304;-1.788;-0.037
2337979.402;-12.033;-8.009;-13.225;-13.262;-13.784;1.937;0.410;3.055
2337979.410;-14.864;-10.170;-16.801;-16.168;-17.248;0.931;-0.186;0.298
2337979.418;-14.976;-10.654;-16.764;-17.285;-17.062;3.837;3.502;0.969
2337979.426;-11.846;-7.525;-13.113;-14.529;-12.033;10.096;10.394;6.370
2337979.434;-16.391;-11.697;-16.987;-18.850;-16.540;7.935;8.121;4.880
2337979.370;-21.942;-16.876;-22.538;-24.661;-23.283;4.433;4.396;1.527
2337979.378;-16.801;-12.480;-17.136;-21.756;-17.397;7.115;6.743;5.215
2337979.386;-14.938;-11.027;-16.466;-21.420;-14.640;5.998;5.364;5.364
2337979.394;-19.744;-16.280;-21.346;-26.859;-21.383;1.043;2.086;-0.969
2337979.402;-17.732;-15.125;-18.701;-26.971;-20.005;1.043;2.943;-0.820
2337979.410;-16.317;-14.268;-17.509;-26.040;-17.136;2.161;4.061;0.931
2337979.418;-20.191;-18.626;-23.916;-29.132;-24.363;3.688;2.831;2.570
2337979.426;-16.950;-16.354;-19.707;-26.859;-18.105;9.350;6.594;9.835
2337979.434;-8.084;-8.531;-10.096;-20.303;-5.439;16.727;14.566;15.795
2337979.442;-22.426;-21.048;-25.854;-31.479;-24.401;1.639;-0.224;0.820
2337979.450;-25.444;-23.320;-28.610;-32.224;-25.742;0.969;-1.863;0.373
2337979.458;-27.902;-26.561;-31.069;-34.682;-28.126;-2.533;-5.029;-2.459
2337979.466;-22.836;-21.942;-24.959;-31.851;-22.687;-0.373;-1.863;0.708
2337979.474;-18.924;-18.142;-21.011;-27.828;-18.403;-0.075;-0.112;-0.410
2337979.482;-13.486;-13.597;-16.131;-23.097;-15.236;3.278;3.353;1.825
2337979.490;-13.709;-14.827;-16.093;-23.879;-14.901;4.657;5.253;3.055
2337979.498;-16.987;-18.142;-18.403;-27.232;-15.758;2.980;2.980;2.272
2337979.506;-16.615;-15.460;-17.434;-25.891;-15.385;4.098;3.316;4.061
2337979.514;-13.560;-14.268;-15.348;-24.997;-13.374;7.786;6.966;7.637
2337979.522;-12.964;-13.746;-15.907;-25.183;-14.752;6.706;7.972;6.035
2337979.530;-14.976;-16.131;-17.956;-27.306;-17.881;-0.447;3.651;-2.496
2337979.538;-11.772;-13.299;-15.683;-24.848;-15.460;-2.123;0.745;-4.247
2337979.546;-6.519;-8.941;-10.394;-22.165;-11.139;0.075;1.714;-2.608
2337979.554;-10.468;-12.517;-13.821;-25.220;-15.162;-2.235;-2.384;-4.545
2337979.565;-13.858;-15.534;-17.732;-27.530;-18.850;-2.235;-3.874;-3.986
2337979.573;-8.419;-10.431;-12.480;-23.507;-14.864;7.637;6.482;5.290
2337979.581;-8.233;-10.990;-12.815;-25.034;-17.174;10.133;8.196;7.637
2337979.589;-7.227;-10.505;-12.219;-23.060;-17.360;9.723;7.451;6.594
2337979.597;-7.823;-10.394;-11.325;-21.122;-15.832;8.307;8.196;5.178
2337979.605;-9.760;-13.039;-12.890;-24.140;-16.615;7.078;6.445;4.396
2337979.613;-10.245;-14.901;-12.219;-26.152;-14.044;5.998;4.955;3.725
2337979.621;-12.182;-16.615;-14.156;-26.487;-16.727;9.239;7.935;6.333
2337979.629;-11.027;-15.534;-12.740;-25.630;-13.597;10.729;8.978;9.313
2337979.637;-12.182;-17.621;-13.709;-29.095;-13.560;6.594;4.508;6.668
2337979.645;-14.119;-21.011;-15.050;-32.820;-17.025;2.235;-0.075;0.596
2337979.653;-12.591;-20.005;-13.374;-31.181;-15.050;-1.118;-3.204;-0.894
2337979.661;-9.649;-17.993;-10.282;-29.355;-11.735;-0.633;-6.147;1.788
2337979.669;-9.276;-17.807;-10.952;-30.920;-12.517;-0.224;-7.600;3.390
2337979.677;-10.915;-18.142;-13.784;-31.106;-17.621;-0.559;-6.184;3.539
2337979.685;-13.150;-20.824;-15.870;-32.969;-19.930;-2.719;-7.153;1.863
2337979.693;-11.027;-19.334;-12.666;-30.957;-15.050;-0.745;-4.880;2.868
2337979.701;-11.176;-18.962;-13.560;-31.516;-15.795;-0.745;-5.215;2.533
2337979.709;-9.388;-16.987;-10.841;-30.138;-13.337;0.931;-2.831;2.868
2337979.717;-5.439;-12.964;-6.482;-25.630;-8.233;3.129;0.335;2.906
2337979.725;-5.476;-12.256;-7.972;-24.065;-12.517;4.582;2.980;2.757
2337979.733;-3.614;-10.543;-6.147;-21.942;-11.399;8.643;8.196;6.258
2337979.741;-3.278;-11.846;-3.986;-22.911;-9.164;10.133;10.207;7.451
2337979.749;-9.649;-18.962;-8.494;-29.728;-11.958;3.986;4.657;1.900
2337979.759;-14.789;-24.326;-14.305;-34.384;-21.532;0.559;0.708;-1.490
2337979.767;-9.164;-19.222;-8.531;-29.653;-14.417;4.098;2.123;2.012
2337979.775;-9.686;-19.670;-9.872;-29.840;-15.572;3.502;1.229;0.522
2337979.783;-9.201;-18.030;-9.313;-27.828;-13.784;5.029;2.906;0.969
2337979.791;-16.317;-23.767;-16.615;-34.496;-19.409;1.527;-1.118;-1.900
2337979.799;-17.621;-25.146;-18.701;-36.359;-23.283;-0.261;-3.837;-2.645
2337979.807;-12.517;-20.489;-14.380;-32.820;-20.452;-0.112;-3.986;-2.906
2337979.815;-11.884;-18.291;-16.168;-32.745;-23.954;0.633;-2.272;-3.465
2337979.823;-7.674;-13.374;-12.666;-29.318;-18.924;9.052;8.605;4.023
2337979.831;-6.184;-12.405;-10.096;-29.132;-16.615;11.884;14.193;5.737
2337979.839;-17.546;-24.401;-20.154;-41.313;-25.518;1.527;4.470;-4.359
2337979.847;-15.162;-22.277;-16.876;-40.717;-23.432;2.533;4.470;-2.570
2337979.855;-8.792;-15.199;-10.915;-34.980;-17.732;9.313;9.611;3.539
2337979.863;-8.047;-13.411;-8.754;-34.682;-16.503;11.288;8.419;6.109
2337979.871;-10.170;-16.391;-9.164;-38.818;-19.632;11.548;7.339;6.109
2337979.879;-12.554;-18.701;-9.574;-42.506;-18.887;10.878;5.998;6.482
2337979.887;-10.692;-15.758;-7.488;-40.494;-17.434;9.947;5.141;6.184
2337979.895;-7.786;-14.193;-4.359;-39.227;-15.423;9.872;6.407;6.668
2337979.903;-6.631;-13.225;-2.384;-37.625;-12.442;8.307;6.966;3.688
2337979.911;-3.390;-8.531;-0.633;-32.000;-12.591;10.319;12.293;4.284
2337979.919;-4.582;-8.978;-1.341;-33.006;-11.735;6.780;10.505;1.118
2337979.927;-12.703;-17.546;-8.531;-40.680;-16.354;1.527;3.278;-2.719
2337979.935;-7.488;-12.293;-4.955;-34.608;-11.772;9.760;9.425;5.737
2337979.943;-10.543;-13.821;-8.345;-37.402;-16.689;8.121;7.115;4.098
2337979.927;-8.494;-11.474;-7.153;-35.837;-16.280;10.468;7.637;6.743
2337979.935;-3.316;-5.327;-2.459;-29.467;-10.505;14.640;10.356;11.176
2337979.943;-5.104;-8.047;-4.843;-32.410;-12.703;12.219;8.568;9.052
2337979.951;-8.531;-10.207;-7.078;-35.763;-14.529;13.225;10.878;10.990
2337979.959;-13.933;-14.752;-13.672;-42.021;-22.128;10.431;7.972;8.717
2337979.967;-10.841;-12.666;-11.399;-41.313;-19.185;11.548;9.015;11.586
2337979.975;-7.041;-10.058;-7.376;-39.376;-12.666;13.150;10.729;11.884
2337979.983;-3.241;-6.668;-3.427;-36.657;-10.245;16.093;13.374;13.821
2337979.991;-1.304;-3.502;-1.937;-31.963;-8.233;18.328;15.646;14.454
2337979.999;-8.084;-9.909;-8.233;-37.663;-14.603;13.970;11.399;9.090
2337980.007;-14.007;-15.460;-13.635;-42.506;-20.713;14.678;11.846;9.425
2337980.015;-7.823;-8.717;-7.898;-35.428;-13.858;27.008;24.736;20.824
2337980.023;-8.643;-9.499;-9.462;-34.980;-15.758;25.146;23.320;19.558
2337980.031;-12.815;-14.231;-15.162;-40.010;-19.893;14.380;13.411;8.680
2337980.039;-13.411;-15.534;-16.280;-41.947;-19.260;12.517;12.703;7.153
2337980.047;-14.193;-16.168;-17.695;-42.953;-21.122;10.841;13.635;5.327
2337980.055;-11.772;-12.480;-16.838;-39.637;-20.750;11.213;14.715;7.302
2337980.063;-9.015;-9.499;-15.162;-36.694;-17.956;8.382;12.182;3.614
2337980.071;-6.407;-7.972;-13.076;-36.545;-16.615;7.786;12.964;2.608
2337980.079;-5.327;-6.706;-10.654;-34.757;-13.672;7.190;12.554;3.763
2337980.087;-1.751;-3.092;-6.594;-32.298;-9.052;5.290;10.468;3.166
2337980.095;-1.416;-2.943;-6.557;-32.000;-10.170;2.645;3.837;2.123
2337980.103;-7.488;-9.127;-13.970;-37.290;-19.595;-0.373;-3.017;0.410
2337980.111;-10.543;-12.852;-16.391;-40.531;-20.713;-0.186;-2.459;0.969
2337980.091;-7.376;-10.096;-12.368;-38.147;-15.646;5.513;3.092;7.115
2337980.099;-9.090;-11.176;-14.380;-38.594;-16.615;3.427;1.006;4.098
2337980.107;-5.700;-8.680;-11.623;-35.018;-14.827;3.465;2.161;4.061
2337980.115;-9.052;-11.548;-16.466;-36.173;-21.793;-2.682;-2.868;-2.570
2337980.123;-10.505;-13.821;-18.217;-37.551;-22.128;-5.700;-5.849;-4.992
2337980.131;-9.090;-13.299;-17.695;-36.769;-23.805;-6.221;-5.215;-6.407
2337980.139;-8.829;-13.337;-17.844;-36.806;-23.507;-2.831;-1.602;-5.215
2337980.147;-7.153;-11.101;-16.354;-33.677;-20.526;-1.267;0.671;-4.731
2337980.155;-8.531;-12.293;-18.291;-34.459;-23.097;-5.364;-4.731;-7.674
2337980.163;-11.399;-15.274;-20.601;-36.247;-24.624;-8.978;-10.431;-9.611
2337980.171;-5.178;-9.350;-15.050;-30.510;-18.887;-0.186;-1.937;0.298
2337980.179;-11.623;-15.087;-22.613;-35.018;-24.699;0.969;-0.261;1.416
2337980.187;-20.117;-22.836;-33.751;-41.835;-37.588;1.378;0.410;0.708
2337980.195;-20.564;-22.501;-35.204;-42.170;-36.769;0.745;0.969;-1.825
2337980.203;-13.039;-16.317;-27.753;-35.577;-27.455;5.327;5.551;1.453
2337980.211;-9.574;-14.715;-24.326;-33.751;-25.183;1.900;3.017;-3.316
2337980.219;-8.456;-12.778;-23.544;-32.932;-26.003;-1.602;-0.484;-7.078
2337980.227;-7.227;-10.431;-23.842;-30.957;-25.481;-2.310;-2.682;-4.582
2337980.235;-6.855;-9.723;-24.624;-30.138;-26.748;-3.092;-4.545;-2.049
2337980.243;-3.576;-8.158;-19.968;-29.169;-21.011;-0.633;-4.284;1.267
2337980.251;1.416;-4.321;-14.119;-25.295;-14.268;4.135;-2.272;6.966
2337980.259;-5.774;-11.176;-21.532;-32.224;-21.085;-1.416;-8.009;2.533
2337980.267;-1.229;-8.196;-18.477;-28.946;-18.142;3.688;-2.757;7.004
2337980.275;3.502;-3.353;-15.087;-22.799;-15.944;9.574;4.172;10.356
2337980.241;-2.608;-7.823;-21.197;-27.530;-23.171;6.519;4.061;4.582
2337980.249;-6.147;-10.729;-23.879;-29.802;-25.518;6.668;4.955;3.017
2337980.257;-9.723;-15.013;-26.412;-33.826;-27.418;6.072;3.912;2.570
2337980.265;-6.184;-10.952;-23.097;-30.212;-26.040;10.356;8.009;6.221
2337980.273;-2.906;-7.823;-20.117;-26.561;-21.532;11.362;10.431;7.190
2337980.281;-9.015;-15.087;-27.120;-32.671;-29.504;5.066;5.588;2.049
2337980.289;-10.207;-15.646;-29.653;-32.783;-32.671;1.825;3.502;-1.267
2337980.297;-6.184;-11.884;-25.816;-29.653;-28.349;4.917;6.333;1.453
2337980.305;-10.580;-17.658;-29.355;-34.161;-31.441;0.149;0.447;-2.049
2337980.313;-13.337;-20.973;-31.367;-37.253;-34.235;-1.304;-3.241;-0.671
2337980.321;-8.531;-15.944;-26.263;-31.367;-27.679;6.333;2.570;6.147
2337980.329;-10.021;-18.589;-30.361;-33.528;-34.086;7.786;3.651;6.743
2337980.337;-10.766;-21.085;-30.100;-36.620;-32.783;8.456;3.763;7.041
2337980.345;-9.052;-19.819;-29.393;-36.545;-30.771;3.949;-2.049;1.676
2337980.353;-0.484;-10.468;-20.117;-28.312;-21.122;2.198;-3.055;0.633
2337980.361;0.931;-8.829;-20.079;-24.848;-24.140;4.321;-0.410;2.049
2337980.369;-5.104;-14.044;-26.338;-29.318;-28.498;1.788;-0.671;-0.931
2337980.377;-7.451;-16.019;-28.871;-30.510;-30.585;1.602;-1.043;-0.298
2337980.385;-4.508;-13.523;-27.120;-28.834;-28.685;4.545;0.522;3.390
2337980.393;2.645;-6.184;-20.377;-21.122;-22.203;10.543;5.923;9.909
2337980.401;1.155;-7.302;-20.936;-22.985;-23.469;10.468;6.855;8.643
2337980.409;0.708;-8.456;-20.936;-23.395;-22.389;14.156;10.841;9.686
2337980.417;-4.433;-13.746;-25.444;-27.865;-25.295;11.250;6.743;5.290
2337980.425;-2.868;-12.144;-24.252;-25.816;-23.991;13.001;7.600;7.711
2337980.376;-5.960;-15.870;-28.014;-28.536;-28.796;8.270;2.757;4.396
2337980.384;-7.413;-16.466;-29.057;-30.100;-28.536;6.072;0.373;3.204
2337980.392;-6.668;-16.168;-28.424;-30.547;-29.542;5.476;0.335;3.576
2337980.400;-4.433;-13.895;-24.587;-27.083;-26.785;7.637;4.582;4.172
2337980.408;-1.490;-11.958;-21.048;-24.699;-25.481;11.213;8.084;7.600
2337980.416;6.109;-5.066;-15.274;-17.770;-22.091;14.380;9.984;11.772
2337980.424;7.190;-3.949;-15.050;-16.876;-20.452;11.623;6.668;10.654
2337980.432;-1.043;-11.958;-22.650;-25.146;-30.436;1.565;-3.055;0.931
2337980.440;-2.086;-14.231;-23.432;-27.195;-29.914;0.969;-4.843;1.639
2337980.448;2.682;-10.766;-19.856;-23.171;-26.226;5.998;1.565;6.445
2337980.456;-1.676;-14.305;-24.177;-28.238;-30.398;3.166;-0.559;3.912
2337980.464;-3.986;-15.870;-25.518;-30.883;-31.590;2.682;-0.261;3.576
2337980.472;-3.763;-15.683;-26.338;-32.112;-32.187;4.284;2.123;3.651
2337980.480;-4.433;-16.764;-27.493;-33.639;-32.708;2.794;2.421;2.719
2337980.488;1.267;-11.437;-20.713;-30.398;-23.767;6.147;5.588;7.451
2337980.496;3.204;-8.643;-17.993;-27.530;-20.750;10.021;7.786;10.207
2337980.504;-1.565;-10.990;-22.873;-28.946;-26.897;7.898;6.258;7.786
2337980.512;-2.310;-10.617;-23.767;-27.418;-27.716;9.127;7.935;8.494
2337980.520;-1.565;-8.941;-22.873;-25.667;-26.040;11.101;8.941;10.654
2337980.528;-4.992;-11.586;-24.438;-29.020;-27.567;6.296;4.470;5.551
2337980.536;-3.539;-10.766;-21.830;-28.014;-25.593;5.402;2.719;4.880
2337980.544;2.310;-3.241;-15.981;-21.011;-18.664;8.754;7.339;8.680
2337980.552;3.278;-1.155;-16.727;-17.770;-20.973;7.637;7.302;6.780
2337980.560;6.258;2.682;-12.144;-14.268;-17.025;8.345;9.574;6.668
2337980.526;14.715;9.723;-2.310;-7.451;-6.221;14.529;15.683;13.411
2337980.534;10.617;5.513;-7.078;-12.144;-10.915;6.258;7.041;7.227
2337980.542;5.625;0.857;-10.729;-17.732;-12.442;4.135;2.794;5.811
2337980.550;-0.075;-3.800;-16.801;-21.681;-18.068;1.416;-1.155;2.421
2337980.558;-1.639;-4.284;-19.409;-21.197;-21.309;0.708;-0.894;0.559
2337980.566;-1.825;-4.284;-19.930;-19.781;-20.117;0.447;1.118;0.298
2337980.574;-3.651;-6.482;-21.756;-22.501;-21.532;-2.719;-1.416;-0.894
2337980.582;-0.782;-3.465;-21.644;-20.042;-22.277;-0.075;1.229;1.453
2337980.590;2.794;0.186;-18.738;-17.136;-18.477;-0.522;-1.192;2.682
2337980.598;8.605;5.327;-13.113;-13.299;-14.305;-1.937;-3.241;2.980
2337980.606;7.004;3.576;-14.044;-14.380;-14.417;-4.210;-4.396;1.229
2337980.614;3.986;2.161;-16.540;-16.652;-13.188;-8.643;-8.233;-3.390
2337980.622;3.651;2.608;-17.844;-15.497;-16.615;-8.233;-6.743;-4.247
2337980.630;7.935;5.700;-15.534;-11.139;-17.285;-5.662;-3.092;-3.539
2337980.638;7.413;3.725;-15.460;-12.964;-15.311;-5.364;-2.868;-4.768
2337980.646;4.806;1.118;-17.248;-16.354;-15.609;-2.496;-1.416;-1.565
2337980.654;3.837;0.335;-19.185;-16.280;-16.727;-1.863;0.894;-1.751
2337980.662;9.239;5.625;-13.560;-11.474;-7.413;3.204;6.370;3.502
2337980.670;4.023;0.820;-19.781;-16.242;-14.789;-4.321;-1.788;-3.763
2337980.678;3.614;0.373;-20.117;-15.758;-14.305;-6.631;-3.465;-5.141
2337980.686;-0.261;-3.763;-23.693;-21.309;-15.199;-8.903;-5.700;-7.898
2337980.694;-1.676;-5.551;-24.661;-24.401;-15.832;-11.772;-10.207;-10.543
2337980.702;-3.278;-7.525;-26.785;-27.120;-21.197;-11.884;-12.293;-10.282
2337980.710;-6.407;-11.064;-29.318;-30.063;-20.675;-11.735;-12.740;-9.239
2337980.663;-5.141;-10.207;-27.195;-28.796;-16.131;-9.835;-10.543;-7.413
2337980.671;-1.863;-7.115;-24.736;-25.555;-14.566;-7.972;-8.196;-7.823
2337980.679;-3.092;-7.115;-27.083;-25.854;-18.030;-7.153;-8.158;-8.158
2337980.687;-2.533;-7.227;-27.381;-26.710;-17.993;-4.135;-6.035;-5.327
2337980.695;-3.688;-7.860;-29.132;-27.083;-20.601;-3.092;-4.210;-3.427
2337980.703;-7.227;-10.282;-32.969;-29.020;-22.538;-1.676;-2.719;-3.129
2337980.711;-5.402;-8.531;-31.143;-27.232;-19.222;4.619;3.204;2.421
2337980.719;-7.339;-10.952;-32.298;-30.585;-19.632;3.614;2.198;1.937
2337980.727;-10.021;-14.342;-36.769;-34.384;-24.922;-2.123;-2.570;-2.831
2337980.735;-8.494;-12.554;-37.253;-32.373;-26.003;-3.651;-4.433;-5.513
2337980.743;-1.006;-5.849;-28.536;-24.810;-15.534;-1.118;-2.645;-3.055
2337980.751;-1.565;-6.855;-28.126;-25.220;-14.231;-2.533;-3.129;-5.066
2337980.759;-6.258;-12.070;-33.639;-28.908;-21.085;-7.972;-7.227;-13.039
2337980.767;-8.978;-14.976;-36.731;-30.510;-23.991;-7.339;-6.780;-13.299
2337980.775;-11.474;-16.876;-40.680;-33.081;-27.753;-5.998;-6.482;-10.692
2337980.783;-15.311;-19.744;-42.953;-36.396;-28.089;-7.153;-9.649;-9.127
2337980.791;-21.532;-24.959;-49.546;-40.196;-35.688;-10.580;-13.188;-11.139
2337980.799;-21.048;-24.587;-49.807;-39.935;-34.682;-12.517;-14.678;-12.107
2337980.807;-17.062;-21.048;-46.566;-36.471;-32.857;-7.972;-11.064;-7.786
2337980.815;-16.950;-21.793;-47.758;-36.806;-35.763;-8.345;-11.809;-9.164
2337980.823;-14.082;-19.968;-44.368;-34.384;-31.292;-7.413;-9.909;-9.872
2337980.831;-7.488;-13.411;-37.290;-27.344;-23.507;-4.694;-5.178;-8.233
2337980.839;-12.256;-17.323;-42.729;-30.063;-30.324;-8.233;-9.425;-10.617
2337980.847;-13.895;-18.701;-42.580;-32.485;-29.244;-9.611;-13.039;-8.419
2337980.886;-17.807;-22.724;-45.076;-36.955;-30.212;-13.262;-16.615;-9.350
2337980.894;-14.976;-20.638;-42.357;-34.161;-27.083;-9.909;-12.107;-3.949
2337980.902;-10.915;-16.838;-38.743;-30.100;-22.650;-4.619;-7.488;-1.155
2337980.910;-10.580;-16.391;-39.749;-29.467;-23.656;-4.396;-7.339;-2.123
2337980.918;-7.786;-13.225;-36.918;-23.693;-21.644;-0.708;-2.310;1.304
2337980.926;-8.531;-12.964;-37.849;-22.538;-24.363;-0.298;-1.155;-0.112
2337980.934;-10.245;-15.274;-38.892;-25.518;-24.624;-1.453;-2.533;-3.651
2337980.942;-7.637;-13.374;-37.402;-23.022;-21.793;-1.788;-4.061;-5.141
2337980.950;-3.241;-8.568;-34.198;-15.832;-20.117;-2.012;-2.757;-4.880
2337980.958;-2.682;-8.345;-34.161;-14.827;-21.756;-0.149;1.788;-2.943
2337980.966;6.706;0.559;-25.816;-4.731;-14.231;12.517;15.646;7.898
2337980.974;-8.382;-13.039;-41.351;-20.266;-28.349;0.447;2.421;-4.396
2337980.982;-10.654;-15.683;-43.698;-22.389;-31.963;-0.671;0.373;-6.519
2337980.990;-13.150;-19.073;-45.709;-24.661;-34.422;-0.894;-0.075;-6.557
2337980.998;-6.706;-12.070;-37.998;-18.366;-26.152;8.345;8.829;4.061
2337981.006;-13.784;-18.105;-45.411;-24.140;-35.018;2.496;2.868;-0.596
2337981.014;-15.460;-20.638;-47.348;-26.152;-37.029;-4.955;-4.582;-6.221
2337981.022;-8.270;-15.199;-39.451;-19.595;-29.355;-1.937;-1.565;-0.894
2337981.030;-5.476;-11.697;-37.067;-18.254;-25.705;1.304;1.341;2.794
2337981.038;-11.995;-17.360;-42.394;-25.816;-29.951;-6.631;-6.594;-5.439
2337981.046;-9.499;-15.087;-39.898;-21.085;-28.946;-4.433;-6.817;-4.061
2337981.054;-10.729;-15.125;-40.680;-20.787;-30.734;-6.109;-8.605;-6.445
2337981.062;-6.706;-10.580;-35.837;-17.434;-26.375;-5.104;-5.886;-6.221
2337981.070;0.820;-5.811;-29.691;-13.560;-19.856;-2.794;-1.229;-5.364
2337981.035;9.649;1.639;-21.309;-6.929;-10.058;8.866;11.437;4.917
2337981.043;-5.923;-13.150;-36.955;-21.420;-25.742;-1.155;-0.149;-6.482
2337981.051;-4.992;-11.735;-36.582;-18.775;-27.157;-2.645;-3.204;-7.413
2337981.059;2.347;-3.800;-29.244;-8.680;-20.675;2.272;0.708;-1.900
2337981.067;1.974;-3.278;-28.796;-7.637;-19.930;1.937;-0.335;-1.639
2337981.075;0.671;-5.439;-29.318;-9.090;-19.856;0.745;-1.118;-0.075
2337981.083;-6.743;-12.964;-36.955;-14.938;-30.510;-4.880;-6.445;-2.980
2337981.091;-7.041;-12.405;-36.731;-13.076;-29.244;-3.278;-4.768;-1.751
2337981.099;-6.594;-10.617;-35.912;-10.766;-27.791;0.335;-0.186;0.410
2337981.107;-9.164;-13.895;-38.631;-12.368;-31.441;0.037;-0.298;-0.820
2337981.115;-8.382;-13.672;-37.476;-13.709;-31.367;1.155;2.570;-0.671
2337981.123;-10.915;-16.689;-40.494;-17.807;-33.267;-1.714;-0.149;-3.278
2337981.131;-9.611;-16.056;-40.531;-16.950;-32.857;-2.496;-1.118;-3.502
2337981.139;-5.998;-13.486;-36.769;-14.715;-27.753;-1.416;-0.261;-1.714
2337981.147;-5.588;-11.958;-36.657;-13.448;-28.424;-0.820;0.820;-1.937
2337981.155;-4.992;-10.096;-35.651;-11.325;-27.977;2.570;3.576;1.378
2337981.163;-3.539;-9.164;-33.490;-10.505;-24.475;4.135;5.066;3.576
2337981.171;-7.078;-13.262;-36.433;-16.615;-27.083;3.651;5.551;3.092
2337981.179;-5.737;-12.629;-34.198;-17.546;-22.948;7.264;9.052;7.562
2337981.187;-7.339;-14.156;-34.422;-20.824;-23.283;4.657;6.557;6.147
2337981.195;-1.676;-7.376;-26.636;-14.454;-16.764;10.617;13.448;12.852
2337981.203;-0.894;-5.700;-25.146;-11.921;-17.136;11.474;15.758;13.746
2337981.211;-15.721;-20.713;-37.290;-26.897;-28.983;-0.559;3.017;3.241
2337981.219;-18.142;-23.320;-39.451;-29.653;-33.416;2.198;4.135;5.439
2337981.200;-17.397;-20.899;-38.780;-27.753;-32.187;5.104;5.811;8.121
2337981.208;-19.856;-22.687;-40.904;-28.610;-35.278;6.855;7.041;9.350
2337981.216;-21.309;-24.624;-41.313;-28.573;-35.241;5.402;4.917;6.706
2337981.224;-14.380;-19.409;-33.379;-24.326;-28.387;4.582;4.098;6.184
2337981.232;-10.431;-15.274;-30.100;-20.340;-31.404;3.688;3.651;5.998
2337981.240;-11.586;-14.976;-30.324;-19.744;-29.579;2.012;2.831;5.439
2337981.248;-16.838;-19.968;-34.869;-23.767;-33.192;-1.602;-1.378;2.682
2337981.256;-15.162;-18.962;-33.118;-21.756;-30.436;-1.378;-1.118;4.582
2337981.264;-21.905;-24.885;-38.855;-29.244;-35.651;-9.425;-7.562;-4.172
2337981.272;-25.369;-28.573;-42.580;-34.161;-38.780;-15.646;-13.374;-11.325
2337981.280;-16.131;-19.073;-34.198;-24.326;-29.467;-11.697;-9.611;-7.823
2337981.288;-9.611;-12.107;-28.387;-16.019;-23.246;-5.886;-4.731;-2.235
2337981.296;-5.029;-8.419;-25.816;-12.666;-22.240;-2.086;-0.447;1.043
2337981.304;-2.831;-7.600;-23.432;-13.784;-20.303;-1.453;-0.820;3.129
2337981.312;-4.284;-9.313;-25.071;-15.795;-21.011;-3.204;-4.321;3.278
2337981.320;-4.582;-9.090;-24.177;-14.827;-20.079;-3.651;-4.694;2.272
2337981.328;-7.525;-11.921;-27.865;-17.360;-23.358;-6.482;-6.258;-2.719
2337981.336;-4.582;-9.015;-27.381;-14.864;-22.836;-4.359;-3.614;-3.316
2337981.344;-0.894;-4.545;-22.948;-9.909;-17.434;1.825;1.527;2.570
2337981.352;-2.012;-4.210;-24.065;-9.313;-16.578;5.290;3.129;5.551
2337981.360;-3.204;-4.135;-26.748;-9.090;-20.638;7.786;4.768;8.196
2337981.368;-5.402;-6.035;-28.424;-10.058;-21.756;7.488;3.912;8.903
2337981.376;0.000;-0.075;-22.985;-4.508;-17.397;13.523;9.574;15.274
2337981.384;1.788;1.863;-20.675;-2.645;-15.832;16.429;13.523;18.515
2337981.365;-13.746;-13.076;-35.539;-19.334;-29.989;1.676;0.931;4.023
2337981.373;-17.099;-16.727;-38.333;-22.911;-32.559;-1.900;-1.304;0.969
2337981.381;-14.529;-14.082;-34.906;-18.962;-29.132;1.192;1.863;4.470
2337981.389;-15.981;-14.529;-36.024;-20.377;-29.877;-2.198;-1.304;1.416
2337981.397;-14.938;-11.809;-35.167;-18.477;-29.281;-3.725;-2.384;1.676
2337981.405;-17.248;-13.374;-37.998;-19.222;-31.181;-5.253;-4.321;1.118
2337981.413;-19.185;-15.609;-41.202;-21.271;-34.608;-6.445;-5.439;-1.900
2337981.421;-16.503;-14.193;-37.886;-21.271;-29.318;-2.757;-2.459;-0.298
2337981.429;-10.580;-9.499;-31.702;-17.732;-23.060;1.490;1.602;3.688
2337981.437;-9.425;-8.233;-31.367;-16.578;-24.512;2.272;1.453;4.433
2337981.445;-2.980;-1.453;-25.183;-10.692;-18.552;5.960;3.949;9.164
2337981.453;-2.570;-1.602;-23.842;-10.431;-17.248;-0.708;-2.235;6.258
2337981.461;-14.603;-14.268;-35.502;-22.873;-28.387;-18.589;-19.409;-10.394
2337981.469;-14.752;-14.454;-36.471;-22.762;-30.249;-21.234;-21.234;-14.156
2337981.477;-10.692;-10.133;-31.255;-18.366;-24.773;-16.987;-16.242;-10.729
2337981.485;-9.574;-8.941;-29.169;-16.019;-21.979;-13.411;-13.262;-7.339
2337981.493;-2.794;-0.820;-23.544;-7.972;-19.893;-3.949;-6.184;1.863
2337981.501;0.373;2.123;-20.154;-4.023;-15.460;1.937;-3.912;8.270
2337981.509;-1.453;-0.633;-21.346;-5.215;-15.311;1.006;-5.141;7.488
2337981.517;-2.831;-3.055;-21.756;-6.184;-14.901;-2.235;-5.662;2.384
2337981.525;0.447;-0.298;-16.615;-3.725;-8.009;1.490;-0.559;3.651
2337981.533;-5.327;-4.806;-21.383;-8.829;-15.125;-1.378;-1.155;-1.527
2337981.541;-5.849;-5.104;-22.985;-8.866;-15.758;-0.224;0.969;-1.006
2337981.549;-4.098;-4.321;-22.240;-8.307;-15.870;2.459;2.794;3.949
2337981.503;5.104;3.465;-13.001;-1.825;-6.743;10.468;7.190;13.821
2337981.511;5.178;3.353;-13.001;-2.719;-8.270;10.170;4.321;15.274
2337981.519;-6.668;-8.643;-23.916;-13.113;-17.583;0.782;-5.886;5.439
2337981.527;-8.531;-9.835;-24.624;-14.082;-18.664;3.017;-3.576;4.619
2337981.535;-13.933;-14.789;-30.249;-17.062;-25.518;2.906;-2.645;2.198
2337981.543;-9.872;-11.213;-25.406;-12.964;-18.664;8.792;3.390;8.121
2337981.551;-2.421;-3.986;-17.732;-6.072;-10.617;14.603;8.643;14.678
2337981.559;-4.694;-5.439;-20.117;-8.158;-13.486;7.153;4.172;7.749
2337981.567;-3.837;-4.321;-18.328;-7.562;-10.952;1.788;1.565;2.906
2337981.575;-4.210;-4.768;-18.477;-7.860;-11.548;-5.178;-4.098;-2.757
2337981.583;-5.290;-6.855;-19.819;-10.803;-14.268;-13.150;-11.809;-9.611
2337981.591;-1.900;-5.178;-17.025;-10.058;-13.709;-13.113;-11.772;-10.133
2337981.599;7.190;3.465;-8.233;-1.565;-4.098;-4.284;-3.688;-0.373
2337981.607;8.158;5.700;-7.339;1.900;-1.974;3.576;1.825;6.221
2337981.615;0.075;-0.559;-14.864;-1.974;-10.543;7.190;3.129;10.207
2337981.623;-0.522;0.261;-14.976;-0.708;-12.033;10.319;6.445;13.784
2337981.631;2.198;1.602;-11.325;0.335;-7.078;11.362;9.015;13.113
2337981.639;-6.929;-7.823;-19.185;-8.531;-13.001;0.522;-0.373;0.298
2337981.647;-8.568;-9.611;-20.340;-8.978;-14.268;-6.035;-5.476;-7.078
2337981.655;-12.927;-13.746;-26.301;-13.001;-21.607;-13.560;-12.107;-14.044
2337981.663;-6.109;-8.307;-19.334;-9.052;-14.119;-9.872;-7.898;-10.803
2337981.671;8.866;5.886;-2.570;5.327;3.390;2.496;4.582;1.043
2337981.679;16.019;12.629;5.662;12.182;10.841;13.560;15.497;13.076
2337981.687;7.562;4.284;-1.229;3.688;5.960;6.817;7.525;8.903
2337981.697;7.227;4.880;-1.118;5.476;6.966;10.245;5.886;14.231
2337981.705;1.937;-0.633;-5.029;0.149;5.066;4.657;-3.651;11.437
2337981.713;-16.540;-21.011;-23.432;-21.681;-12.256;-11.288;-20.824;-3.390
2337981.721;-10.319;-15.758;-17.658;-15.683;-8.196;-5.141;-12.890;2.272
2337981.729;-9.947;-16.727;-17.434;-15.050;-8.009;-0.671;-7.376;4.694
2337981.737;-22.016;-28.461;-29.765;-27.157;-22.687;-8.047;-13.188;-4.359
2337981.745;-23.805;-28.312;-31.516;-26.897;-25.369;-9.835;-11.846;-7.153
2337981.753;-13.486;-17.472;-21.644;-15.236;-17.174;-2.086;-1.527;-2.682
2337981.761;-0.373;-4.992;-9.201;-3.092;-4.247;0.186;3.390;-1.341
2337981.769;5.141;-0.149;-2.570;1.229;3.278;-3.092;-0.410;-3.688
2337981.777;6.370;0.335;0.708;2.831;6.631;-2.645;-2.794;-0.037
2337981.785;4.433;0.112;-1.825;2.272;2.496;2.198;-0.931;6.184
2337981.793;3.465;0.559;-3.800;1.974;1.490;10.245;6.184;13.039
2337981.801;-0.186;-2.682;-9.015;-1.192;-1.527;10.729;8.047;11.437
2337981.809;3.800;0.596;-4.135;1.490;3.204;15.981;13.001;15.721
2337981.817;9.462;5.066;2.645;5.215;9.425;21.458;17.658;20.638
2337981.825;-6.966;-11.139;-13.113;-13.262;-5.811;3.949;-0.373;3.278
2337981.833;-6.109;-8.419;-10.096;-12.815;-1.565;5.960;3.278;4.023
2337981.841;-0.820;-1.974;-4.061;-6.333;2.608;13.337;12.480;11.325
2337981.849;2.012;1.863;-1.006;-2.459;5.253;11.250;11.697;11.437
2337981.857;6.407;6.557;3.874;2.123;10.505;10.356;12.666;12.778
2337981.865;0.745;1.341;0.075;-4.135;4.992;1.080;3.688;3.614
2337981.873;-5.439;-4.917;-4.806;-10.841;0.596;-5.178;-2.980;-3.129
2337981.881;-4.284;-3.465;-2.831;-9.276;4.545;1.751;2.235;1.565
2337981.891;-4.247;-3.539;-1.751;-8.978;3.651;12.293;9.760;9.760
2337981.899;-3.427;-4.545;1.192;-9.723;7.637;18.664;14.044;16.838
2337981.907;-5.439;-7.972;0.037;-13.523;6.519;14.864;9.090;15.236
2337981.915;-11.213;-12.964;-3.204;-19.558;4.284;4.992;-1.192;8.196
2337981.923;-13.337;-14.268;-6.780;-21.495;0.894;-0.782;-5.551;4.098
2337981.931;-12.815;-13.374;-10.133;-20.899;-5.700;-3.800;-5.476;-0.186
2337981.939;-9.090;-8.382;-7.115;-16.391;-2.459;0.335;-0.075;2.868
2337981.947;-2.235;-0.373;0.186;-8.084;4.061;9.798;9.090;11.399
2337981.955;-11.958;-8.121;-7.637;-15.087;-2.943;6.929;5.476;7.898
2337981.963;-22.314;-18.589;-16.540;-24.587;-9.462;-1.341;-4.992;1.565
2337981.971;-18.477;-15.795;-11.660;-20.824;-4.061;3.278;-2.198;7.562
2337981.979;-14.715;-13.001;-6.109;-18.887;2.980;7.562;1.714;12.591
2337981.987;-5.066;-4.992;3.129;-12.517;11.623;14.976;9.649;18.738
2337981.995;0.149;0.857;6.258;-6.966;12.107;18.366;14.082;20.899
2337982.003;-2.123;-0.149;3.576;-7.674;9.201;11.995;7.823;14.827
2337982.011;-0.596;1.825;4.321;-6.445;9.649;8.009;4.843;12.442
2337982.019;4.992;6.668;7.041;-1.825;10.952;9.872;5.923;14.193
2337982.027;5.290;7.488;5.960;-2.198;9.052;8.158;4.023;11.101
2337982.035;7.302;9.388;6.147;-0.298;9.052;8.047;3.763;9.686
2337982.043;10.096;11.139;8.196;1.416;10.878;11.474;8.903;10.245
2337982.051;5.662;7.488;4.880;-0.969;7.451;11.325;11.027;8.941
2337982.059;3.465;7.339;3.353;0.633;7.041;14.119;14.901;10.766
2337982.067;9.574;14.342;10.617;8.084;16.280;18.738;18.962;16.950
2337982.075;10.356;14.529;13.821;7.711;19.222;17.174;15.199;15.907
2337982.058;3.725;6.482;7.637;-0.671;12.331;8.605;5.364;8.084
2337982.066;-0.373;3.278;4.284;-4.433;8.419;6.445;2.645;6.221
2337982.074;-0.745;3.166;1.863;-4.098;4.210;7.711;3.390;8.009
2337982.082;3.390;6.519;4.992;1.267;8.196;10.282;6.184;11.735
2337982.090;0.410;3.912;1.490;-0.633;5.290;6.855;3.390;9.015
2337982.098;-6.258;-0.224;-5.849;-5.923;-2.347;2.310;-3.055;2.272
2337982.106;1.006;8.009;2.421;1.714;5.737;9.127;2.757;8.047
2337982.114;9.611;16.391;10.729;10.245;12.368;16.876;10.431;15.423
2337982.122;4.396;9.798;6.519;5.029;9.090;15.236;8.531;15.125
2337982.130;1.229;5.364;4.955;1.192;9.239;15.721;8.419;16.913
2337982.138;1.937;5.513;6.258;0.596;11.474;14.901;7.078;18.291
2337982.146;-0.931;3.316;2.757;-2.161;7.786;12.293;4.843;14.454
2337982.154;-7.339;-3.986;-3.539;-9.313;0.596;4.210;-3.316;6.296
2337982.162;0.037;3.129;4.806;-1.155;8.419;9.015;3.390;11.511
2337982.170;2.012;5.402;5.178;1.565;8.568;12.629;8.196;13.039
2337982.178;3.390;8.084;3.614;4.545;4.061;12.144;7.711;11.027
2337982.186;6.668;11.101;7.190;8.196;6.631;11.511;8.866;9.462
2337982.194;10.952;15.125;12.517;13.597;13.560;13.262;13.076;9.574
2337982.202;22.016;25.816;23.283;24.326;25.593;19.073;19.781;14.529
2337982.210;23.469;25.444;23.209;24.922;26.561;14.529;16.168;11.288
2337982.218;27.902;30.957;27.344;30.398;31.963;15.534;17.397;14.529
2337982.226;23.320;27.269;22.836;24.438;27.940;11.884;13.560;12.368
2337982.234;14.454;16.876;13.858;12.815;18.626;4.023;3.129;6.482
2337982.242;15.199;16.391;13.784;11.995;16.838;0.969;-0.671;3.092
2337982.250;17.397;18.775;15.683;15.348;18.179;0.894;-1.378;3.353
2337982.258;20.526;21.495;18.068;18.887;19.819;2.719;-1.229;5.998
2337982.266;18.962;19.744;17.658;17.136;21.234;1.714;-3.166;3.874
2337982.274;17.025;18.403;18.179;15.534;23.432;3.055;-0.671;4.210
2337982.282;18.179;18.887;20.079;17.062;24.326;7.637;4.023;9.164
2337982.290;7.339;7.749;9.611;6.929;13.784;3.092;-0.782;6.780
2337982.298;3.166;2.719;6.706;1.974;13.411;0.298;-4.657;6.780
2337982.306;-5.066;-4.545;-0.410;-4.843;6.258;-4.470;-9.574;3.539
2337982.314;-2.980;-0.820;2.347;1.118;8.754;-10.356;-13.784;-3.017
2337982.322;10.729;12.107;15.981;14.901;22.091;-5.215;-6.258;0.559
2337982.330;-2.459;-1.416;2.161;0.484;7.264;-16.987;-16.280;-11.548
2337982.338;-3.800;-2.123;-0.708;0.596;1.974;-12.033;-9.164;-7.674
2337982.346;-2.645;-2.272;1.006;-0.969;5.774;-7.972;-5.811;-3.688
2337982.354;-1.192;-0.671;3.017;-1.527;8.047;-7.823;-6.780;-2.384
2337982.362;-0.522;0.075;4.917;0.522;9.164;-7.376;-5.700;-0.857
2337982.370;4.135;5.141;11.250;6.966;16.950;-0.596;0.224;6.966
2337982.378;-2.645;-1.043;5.290;2.123;7.302;-6.743;-6.184;1.453
2337982.386;-8.307;-7.190;-0.224;-3.837;3.204;-12.890;-12.070;-4.657
2337982.394;-10.245;-9.649;-1.863;-6.147;2.645;-16.913;-15.460;-9.425
2337982.402;-6.743;-6.557;0.633;-4.172;4.806;-15.385;-11.958;-10.096
2337982.410;-1.490;-1.192;5.625;-0.708;10.729;-6.966;-4.061;-3.912
2337982.418;1.192;1.714;7.898;1.825;11.809;-4.657;-2.347;-1.676
2337982.426;8.233;6.668;14.454;6.668;18.068;-0.149;2.086;3.316
2337982.434;17.360;15.162;24.326;15.087;29.542;7.004;7.972;12.182
2337982.446;4.917;2.682;12.740;2.198;18.962;-3.837;-3.539;1.416
2337982.454;3.055;0.484;10.170;0.522;14.864;-3.316;-3.688;1.043
2337982.462;4.061;2.123;10.580;2.310;11.586;-1.341;-3.353;2.347
2337982.470;4.172;2.906;11.660;4.433;10.543;-3.204;-4.657;1.825
2337982.478;4.657;3.427;12.815;6.072;12.778;-2.049;-2.831;2.868
2337982.486;1.490;2.198;9.686;5.364;10.468;-1.043;-0.224;2.049
2337982.494;3.390;4.619;12.293;8.084;11.846;0.894;3.166;4.433
2337982.502;0.931;1.527;9.574;5.588;9.276;-1.080;2.347;2.906
2337982.510;-4.508;-3.949;3.725;0.186;4.210;-2.272;0.112;1.118
2337982.518;-6.407;-5.513;2.012;-1.192;0.708;-1.788;-0.410;0.149
2337982.526;0.894;2.272;10.058;5.774;7.711;2.943;3.614;5.104
2337982.534;0.373;1.453;8.643;4.768;5.253;-0.633;-0.335;2.198
2337982.542;-0.633;0.261;8.009;3.017;5.551;-0.447;0.335;2.645
2337982.550;-2.943;-1.676;8.307;-1.937;7.451;-4.433;-2.831;-1.714
2337982.558;-1.676;-0.820;9.388;-1.416;8.903;-6.519;-4.582;-2.347
2337982.566;-1.751;-2.012;9.537;-2.421;7.637;-7.339;-5.290;-3.427
2337982.574;0.894;1.155;12.293;0.447;6.929;-3.986;-2.831;-1.006
2337982.582;0.857;1.378;13.709;-0.075;7.376;-4.508;-3.688;-0.410
2337982.590;0.224;-0.224;13.970;-2.682;6.855;-9.574;-10.133;-2.384
2337982.598;1.974;1.155;17.174;-1.863;8.531;-9.201;-12.144;-2.123
2337982.606;0.149;-0.820;17.807;-3.241;9.611;-11.399;-12.517;-4.694
2337982.614;1.080;-0.112;20.750;-2.235;14.044;-10.319;-8.643;-3.427
2337982.622;-0.261;-0.484;20.154;-2.123;12.591;-8.754;-6.482;-3.241
2337982.630;1.341;3.204;21.271;2.421;12.517;-4.806;-1.565;-0.224
2337982.701;3.986;5.811;23.283;5.700;13.672;-2.868;0.224;1.453
2337982.709;1.900;3.614;22.054;4.321;10.841;-5.811;-3.539;-0.894
2337982.717;1.080;4.023;21.383;4.210;11.623;-2.533;-0.373;1.378
2337982.725;-2.161;1.416;17.472;0.298;7.227;-4.768;-3.017;-0.820
2337982.733;-0.857;3.092;18.068;1.341;7.711;-3.055;-0.447;-0.633
2337982.741;0.224;4.061;19.446;3.427;11.474;0.782;2.645;1.639
2337982.749;1.229;5.960;19.111;5.178;8.270;6.184;6.855;6.780
2337982.757;0.820;6.296;18.552;5.588;8.233;5.476;5.253;6.258
2337982.765;2.049;7.227;19.483;6.296;9.686;3.055;3.539;4.508
2337982.773;3.502;8.419;20.750;6.855;10.952;1.416;3.166;1.527
2337982.781;11.474;15.907;28.946;13.970;18.366;6.035;9.090;4.992
2337982.789;14.231;18.999;32.112;16.689;21.309;7.898;12.219;5.960
2337982.797;11.288;15.609;29.691;13.150;19.893;4.619;8.643;2.533
2337982.805;8.196;11.101;25.891;8.829;15.050;3.427;7.488;2.943
2337982.813;5.513;7.078;23.469;4.731;12.852;1.043;4.508;1.974
2337982.821;7.786;9.537;26.040;5.551;17.248;2.570;4.023;4.247
2337982.829;3.800;4.806;21.309;-0.820;14.752;0.820;1.043;2.980
2337982.837;-0.037;0.857;15.944;-3.427;9.052;-0.969;-0.820;0.596
2337982.845;0.857;1.267;18.254;-2.682;12.070;-0.633;-0.596;1.825
2337982.853;7.749;8.270;26.263;4.359;19.297;4.135;4.247;6.445
2337982.861;8.829;10.841;25.928;6.072;16.317;3.874;2.868;6.892
2337982.869;6.407;8.978;23.544;4.731;14.678;-1.378;-1.378;2.198
2337982.877;3.874;8.419;19.819;5.774;11.921;-0.820;0.000;0.708
2337982.885;6.333;10.803;20.787;9.313;13.001;4.210;3.502;5.364
