Timestamp,AFz,AF3,AF4,AF7,AF8,Pz,P3,P4,2024-05-16 11:51:12.922,fs=125
5445492.289;15.199;30.510;-10.729;69.626;-11.884;42.319;48.019;43.213
5445492.297;0.708;15.907;-24.736;54.762;-25.295;29.430;36.024;33.006
5445492.305;12.144;25.481;-10.878;62.250;-10.058;43.213;49.099;48.093
5445492.313;12.927;27.679;-10.766;66.310;-9.686;43.586;49.099;47.609
5445492.321;10.654;29.095;-15.572;70.520;-14.640;33.528;37.476;34.533
5445492.329;18.515;35.502;-6.370;74.469;-2.645;40.680;45.449;39.674
5445492.337;25.593;42.319;-0.931;83.297;4.396;44.443;49.584;44.778
5445492.345;23.581;39.637;-5.476;81.770;-3.353;45.486;51.185;47.162
5445492.353;17.993;31.963;-9.947;74.282;-7.525;35.428;40.270;39.078
5445492.361;11.064;23.954;-20.452;60.946;-22.352;21.197;24.065;28.126
5445492.369;16.391;29.281;-15.348;64.783;-12.852;22.762;26.561;31.963
5445492.377;16.764;30.696;-15.460;66.794;-9.872;23.767;28.610;33.751
5445492.385;13.635;28.908;-17.211;67.167;-11.548;29.020;35.353;38.669
5445492.393;17.136;33.379;-14.007;73.574;-6.594;39.861;45.113;46.529
5445492.401;19.595;36.620;-12.927;79.088;-5.588;49.658;52.862;52.489
5445492.409;5.886;21.346;-27.977;63.591;-21.458;37.700;42.357;39.712
5445492.417;-12.368;1.676;-44.517;41.425;-35.316;17.285;22.240;23.134
5445492.425;-13.411;1.825;-45.672;44.666;-32.708;9.649;12.629;21.197
5445492.433;-6.109;8.307;-36.061;51.521;-30.696;13.523;15.385;27.195
5445492.441;2.310;16.764;-25.854;58.375;-19.222;22.277;22.911;37.439
5445492.449;14.678;29.579;-13.337;71.637;-1.378;40.084;39.749;51.409
5445492.457;7.227;22.873;-23.171;65.900;-12.778;40.159;38.259;46.529
5445492.465;6.296;23.320;-25.481;67.614;-15.944;46.119;44.703;51.595
5445492.473;-3.316;12.144;-33.565;54.501;-20.564;33.118;35.241;37.551
5445492.578;3.949;20.042;-26.338;63.032;-12.778;34.012;37.625;40.792
5445492.586;6.407;22.128;-23.767;64.597;-11.325;32.783;34.347;45.784
5445492.594;-0.224;14.491;-31.963;57.630;-17.956;27.753;28.051;37.849
5445492.602;-4.247;7.823;-35.614;48.429;-22.314;28.461;28.685;32.857
5445492.610;-0.671;12.815;-31.367;56.550;-19.893;30.138;32.447;32.261
5445492.618;16.093;31.218;-14.715;74.916;-3.353;44.741;46.305;49.658
5445492.626;-2.608;11.139;-32.708;51.521;-21.495;26.189;27.381;34.794
5445492.634;-15.274;-0.559;-45.486;39.637;-34.235;14.678;15.497;25.481
5445492.642;-0.782;14.082;-30.920;55.805;-18.105;24.736;26.412;33.677
5445492.650;16.019;29.579;-14.640;67.800;-5.029;33.788;38.221;41.202
5445492.658;28.908;41.611;1.527;78.902;11.176;44.331;48.988;49.323
5445492.666;20.638;33.155;-4.843;71.861;6.258;44.145;45.896;46.380
5445492.674;9.909;24.028;-16.913;66.236;-8.047;42.655;44.033;42.431
5445492.682;13.188;26.785;-12.256;66.012;-5.327;44.331;46.119;47.609
5445492.690;4.061;16.540;-17.621;52.005;-13.337;33.565;36.806;39.376
5445492.698;-3.725;9.537;-24.177;45.225;-20.787;30.398;36.694;37.439
5445492.706;-0.820;13.858;-22.165;52.415;-22.128;35.167;42.692;39.861
5445492.714;8.196;21.495;-9.798;59.903;-12.703;46.454;52.303;49.658
5445492.722;3.688;16.987;-11.995;54.017;-16.466;49.360;52.005;51.521
5445492.730;5.364;16.317;-8.233;50.329;-17.099;48.727;49.174;50.701
5445492.738;14.491;24.587;3.017;59.344;-7.004;57.966;56.587;59.605
5445492.746;6.221;14.491;-4.023;48.727;-10.729;48.913;48.392;47.386
5445492.754;4.508;13.337;-4.768;48.466;-14.789;42.990;44.145;44.145
5445492.762;5.625;16.317;-1.676;51.297;-17.099;35.800;38.296;39.563
5445492.859;11.213;23.283;6.407;56.587;-10.319;32.075;37.476;38.631
5445492.867;13.560;24.512;9.649;55.470;-7.823;31.069;36.396;37.998
5445492.875;21.942;31.106;17.695;60.685;-0.857;32.075;35.092;37.253
5445492.883;25.369;34.682;22.873;62.920;3.800;36.769;40.680;37.923
5445492.891;28.722;37.029;27.455;64.038;7.525;46.380;52.676;45.374
5445492.899;24.550;33.490;23.991;62.324;2.943;49.844;56.997;49.695
5445492.907;16.168;26.450;15.981;56.736;-4.880;38.520;45.262;42.133
5445492.915;19.222;28.685;21.122;55.991;1.192;32.634;37.998;39.004
5445492.923;18.068;28.349;19.893;55.544;-2.347;32.000;35.018;35.577
5445492.931;22.948;34.831;26.003;64.448;4.023;43.698;43.698;45.337
5445492.939;22.762;34.831;25.630;63.106;2.757;45.076;44.666;45.747
5445492.947;17.360;27.791;20.340;54.613;-2.496;42.543;43.660;42.431
5445492.955;11.921;18.999;17.248;44.890;-4.321;39.525;43.772;35.651
5445492.963;14.678;23.134;18.217;50.850;-4.508;44.294;48.876;38.221
5445492.971;17.621;27.902;19.856;56.662;0.373;46.268;50.701;40.233
5445492.979;10.952;21.458;13.784;50.925;-3.278;35.018;41.388;30.063
5445492.987;10.058;20.005;12.964;46.864;-1.006;33.677;38.818;34.310
5445492.995;-1.304;8.680;-0.298;34.533;-15.534;24.028;28.089;29.355
5445493.003;-8.233;0.298;-2.868;24.438;-21.942;15.572;18.515;23.805
5445493.011;6.892;15.274;10.729;37.998;-9.276;28.238;32.447;36.098
5445493.019;14.640;22.538;16.801;44.554;-2.794;36.024;38.184;41.351
5445493.027;15.609;23.395;14.827;46.529;-5.886;41.053;40.978;41.984
5445493.035;12.517;18.850;11.548;40.829;-10.207;42.394;42.357;41.947
5445493.043;13.784;22.501;10.654;45.821;-10.468;37.998;40.829;38.557
5445493.067;9.835;17.211;8.978;37.104;-11.362;26.077;32.224;29.057
5445493.075;13.225;18.552;14.044;36.173;-4.880;19.893;27.120;25.854
5445493.083;15.944;20.824;17.174;37.253;-0.410;21.979;28.424;28.946
5445493.091;4.955;13.597;4.359;35.241;-16.019;17.844;23.581;22.650
5445493.099;17.472;25.034;14.454;45.188;-5.960;21.793;25.444;27.530
5445493.107;27.083;31.590;23.805;49.025;4.098;28.498;30.063;37.216
5445493.115;23.134;26.412;17.323;42.766;-0.633;26.934;27.902;34.682
5445493.123;15.832;20.079;12.852;38.557;-4.172;27.083;27.455;34.049
5445493.131;11.325;14.305;12.331;32.783;-4.172;26.003;26.934;30.249
5445493.139;11.250;15.087;12.144;33.714;-2.794;28.051;30.547;29.616
5445493.147;14.193;18.403;12.927;34.682;-2.757;30.063;33.304;31.218
5445493.155;13.597;16.987;11.027;32.298;-5.066;25.667;28.908;29.206
5445493.163;10.058;13.895;6.035;32.485;-11.101;24.252;27.306;30.771
5445493.171;5.513;8.084;3.092;24.922;-10.766;25.369;27.269;33.006
5445493.179;9.276;14.603;4.396;32.596;-10.431;36.135;35.763;42.468
5445493.187;15.981;21.756;6.817;40.606;-9.611;45.002;43.400;51.744
5445493.195;2.049;6.147;-2.943;25.555;-21.458;24.997;26.152;33.006
5445493.203;5.066;8.196;3.055;26.450;-14.603;23.209;24.810;31.814
5445493.211;9.164;13.746;6.519;32.671;-10.766;28.089;30.734;34.161
5445493.219;7.264;13.262;1.192;32.373;-15.385;24.401;29.169;29.244
5445493.227;17.285;23.134;9.723;40.978;-6.929;28.275;34.235;29.914
5445493.235;21.160;26.003;14.603;42.059;-2.570;29.989;35.316;31.032
5445493.243;19.446;25.742;13.597;42.841;-1.974;37.663;39.600;40.196
5445493.251;14.529;19.968;7.004;37.625;-5.290;37.812;36.210;39.563
5445493.292;12.182;16.503;4.359;31.367;-8.494;37.439;33.416;42.357
5445493.300;20.377;22.091;14.156;35.577;2.421;37.514;33.900;45.374
5445493.308;21.607;23.544;13.374;36.806;0.559;33.565;32.708;39.563
5445493.316;21.495;26.338;10.543;40.568;-4.396;29.169;32.037;29.951
5445493.324;18.589;24.065;6.594;39.823;-5.960;23.916;27.493;21.905
5445493.332;9.872;14.268;-1.118;27.418;-11.809;19.930;23.171;15.385
5445493.340;14.789;17.248;3.614;29.318;-6.109;32.037;34.422;27.269
5445493.348;13.039;15.125;-0.969;26.934;-9.239;33.900;35.577;30.473
5445493.356;12.591;15.348;-2.049;29.057;-11.213;36.508;36.508;36.471
5445493.364;9.947;12.331;-4.470;24.661;-11.548;33.043;29.504;39.265
5445493.372;5.588;8.605;-8.643;18.515;-15.683;27.716;24.438;34.608
5445493.380;20.042;22.836;6.333;31.777;-0.633;26.263;25.257;30.734
5445493.388;21.495;23.656;5.774;32.298;-1.676;16.429;17.136;20.452
5445493.396;13.299;12.927;-2.235;19.260;-8.196;15.385;15.646;20.079
5445493.404;17.397;16.317;1.155;25.518;-5.178;24.773;25.779;28.647
5445493.412;25.295;23.283;10.543;31.926;7.451;32.894;34.682;36.955
5445493.420;16.913;16.093;2.608;26.524;-0.335;26.375;29.318;28.722
5445493.428;15.944;16.317;0.596;27.381;-4.023;20.154;24.512;18.254
5445493.436;18.552;18.962;1.490;28.871;-1.043;16.876;24.252;16.242
5445493.444;23.469;25.295;7.004;37.812;4.694;16.131;23.507;18.217
5445493.452;18.515;20.303;2.459;30.883;2.086;6.333;10.133;10.431
5445493.460;18.924;19.409;1.453;25.667;1.751;12.964;13.672;16.578
5445493.468;25.146;24.103;9.201;28.908;7.972;27.604;26.971;30.063
5445493.476;20.489;20.638;4.880;26.450;3.129;31.479;30.361;34.124
5445493.534;11.474;12.182;-4.508;18.291;-3.912;29.989;30.920;31.516
5445493.542;7.935;7.786;-10.692;11.474;-10.990;25.108;27.902;28.312
5445493.550;11.548;12.740;-8.084;16.987;-8.047;26.412;28.498;30.808
5445493.558;10.654;13.039;-9.388;17.472;-8.643;21.718;24.848;23.358
5445493.566;15.274;16.354;-5.737;20.005;-5.476;19.185;21.979;21.495
5445493.574;19.670;18.217;0.894;19.073;1.155;21.271;22.762;23.320
5445493.582;28.908;27.791;9.760;28.163;10.096;27.157;26.748;29.504
5445493.590;23.879;22.948;5.066;23.171;3.874;21.197;19.670;25.630
5445493.598;15.236;15.683;-4.284;16.913;-3.166;16.466;15.087;17.621
5445493.606;15.274;18.924;-5.476;20.899;-1.565;20.601;18.813;19.968
5445493.614;12.964;19.073;-5.811;21.979;-2.719;20.266;19.409;19.483
5445493.622;14.901;19.968;-3.949;20.228;-0.708;20.079;18.924;20.638
5445493.630;18.217;22.687;-1.527;20.638;1.900;25.220;20.899;27.232
5445493.638;13.262;17.509;-7.376;13.523;-3.390;21.271;16.689;22.277
5445493.646;13.299;18.068;-8.158;16.578;-2.645;21.793;19.483;19.744
5445493.654;11.958;17.658;-9.798;15.721;-2.906;24.736;22.203;25.071
5445493.662;15.013;21.271;-5.960;20.042;-0.037;29.504;26.673;32.783
5445493.670;11.511;18.440;-9.872;17.248;-5.402;28.610;24.587;30.957
5445493.678;10.319;17.621;-10.058;17.285;-7.488;22.128;19.334;22.538
5445493.686;19.260;27.195;0.261;26.003;5.998;26.785;24.214;25.481
5445493.694;19.148;27.604;-0.149;24.736;5.253;27.940;26.003;23.656
5445493.702;18.887;25.555;0.559;22.054;3.241;28.685;25.816;25.891
5445493.710;27.381;32.373;11.586;27.455;13.411;33.230;32.112;33.043
5445493.718;28.573;33.192;15.870;27.716;16.689;33.639;33.379;35.763
5445493.759;32.000;37.290;19.819;33.267;20.452;37.625;35.763;39.600
5445493.767;17.732;23.432;8.158;19.148;7.786;30.585;28.163;28.200
5445493.775;14.827;22.650;7.562;19.930;1.453;35.316;33.677;32.522
5445493.783;19.260;29.057;12.517;28.722;3.390;37.998;36.992;33.490
5445493.791;16.019;25.332;10.654;25.071;1.751;30.957;29.765;25.965
5445493.799;15.162;23.507;13.039;20.526;3.651;29.467;24.959;26.934
5445493.807;20.638;28.014;20.936;25.295;10.207;31.739;26.375;32.187
5445493.815;10.543;15.832;12.852;14.529;-0.596;20.526;15.199;20.936
5445493.823;9.872;14.380;12.964;11.809;-2.831;22.277;19.521;20.936
5445493.831;13.150;15.870;17.844;11.586;2.272;21.681;20.675;19.856
5445493.839;9.276;10.207;15.944;2.533;-3.129;14.305;13.709;13.784
5445493.847;13.225;15.423;21.681;6.333;1.490;18.999;18.030;19.148
5445493.855;23.767;25.928;33.975;18.924;15.013;32.522;31.628;31.479
5445493.863;20.638;22.538;32.596;20.340;12.107;33.751;33.304;30.957
5445493.871;11.437;13.411;25.854;10.617;4.582;27.940;25.705;25.593
5445493.879;12.591;15.795;26.412;11.995;2.421;32.187;26.636;30.473
5445493.887;23.209;26.561;34.682;23.395;11.027;39.823;35.949;36.322
5445493.895;20.638;22.911;31.628;17.844;8.829;35.763;32.596;31.367
5445493.903;14.864;16.876;25.965;10.096;1.006;26.934;23.209;24.661
5445493.911;19.483;21.309;31.218;13.784;6.296;23.544;19.446;23.469
5445493.919;14.640;17.062;27.530;9.723;1.937;19.260;15.981;19.111
5445493.927;15.460;16.801;30.585;9.984;5.849;23.805;21.011;23.730
5445493.935;17.695;19.073;33.118;13.560;8.605;25.667;23.469;28.536
5445493.943;15.348;17.658;28.983;15.199;0.037;23.618;22.464;24.103
5445493.939;15.199;17.956;29.020;16.354;2.123;24.252;24.103;21.756
5445493.947;19.111;20.750;31.739;18.775;4.806;26.263;26.077;22.538
5445493.955;10.915;9.537;24.214;3.465;-1.304;18.440;17.248;11.586
5445493.963;6.445;2.757;21.532;-5.066;-2.645;13.486;9.127;10.170
5445493.971;17.993;13.039;36.806;5.625;15.460;13.709;10.058;15.311
5445493.979;6.780;3.688;24.997;-2.533;5.029;14.268;13.299;14.678
5445493.987;-1.937;-3.949;16.317;-7.823;-3.241;15.534;17.472;13.635
5445493.995;0.186;-2.198;17.844;-5.178;-1.341;22.985;25.295;19.036
5445494.003;-4.172;-5.551;11.660;-7.823;-7.041;22.948;24.736;16.205
5445494.011;-8.233;-9.425;7.227;-11.921;-11.250;20.117;22.575;13.746
5445494.019;-7.227;-8.307;8.717;-9.090;-10.692;16.391;20.750;13.597
5445494.027;-7.637;-9.835;7.786;-11.921;-10.915;9.760;13.113;10.766
5445494.035;-1.378;-6.072;13.299;-12.033;-4.470;16.689;19.483;21.346
5445494.043;7.860;3.316;21.905;-2.831;1.788;24.885;27.977;23.507
5445494.051;7.898;3.241;23.097;-5.998;5.625;27.791;30.436;20.377
5445494.059;-3.390;-7.115;9.499;-13.486;-7.860;16.466;18.813;7.674
5445494.067;-4.023;-7.488;9.760;-12.480;-5.625;14.082;14.715;9.947
5445494.075;2.719;-0.373;15.646;-5.774;2.123;19.707;20.452;18.105
5445494.083;1.602;-1.639;14.454;-6.557;0.335;20.415;22.389;20.489
5445494.091;-4.694;-9.760;9.499;-16.354;-6.743;16.019;16.727;15.572
5445494.099;-3.204;-9.127;6.966;-13.635;-11.288;11.586;11.660;9.574
5445494.107;-1.974;-9.574;9.127;-17.472;-3.502;8.717;10.021;5.811
5445494.115;1.788;-5.923;9.984;-15.125;-4.098;8.643;10.617;6.631
5445494.123;-4.508;-10.505;2.161;-18.142;-12.107;5.960;7.376;2.868
5445494.087;-3.763;-7.786;2.719;-14.193;-9.835;15.236;17.956;8.866
5445494.095;2.198;-2.421;9.127;-11.101;-2.682;24.885;27.195;17.881
5445494.103;5.178;-2.459;11.437;-11.250;-0.596;26.040;26.748;17.695
5445494.111;3.576;-4.172;7.525;-13.672;-2.719;22.314;22.724;13.337
5445494.119;-4.061;-9.164;-0.186;-13.970;-10.170;10.207;12.591;6.296
5445494.127;-6.631;-9.909;-4.023;-13.895;-16.280;7.562;10.096;8.121
5445494.135;0.186;-4.619;2.012;-11.250;-7.153;11.399;14.529;12.107
5445494.143;4.731;1.974;6.258;-6.706;-0.782;12.629;16.093;11.288
5445494.151;16.540;15.609;17.025;8.307;7.935;22.016;25.257;17.211
5445494.159;25.108;26.263;26.263;19.148;16.093;29.802;31.590;23.507
5445494.167;41.015;46.007;38.892;34.794;22.836;27.940;29.951;19.632
5445494.175;65.528;72.792;65.900;57.109;45.113;27.865;30.473;18.626
5445494.183;92.313;104.867;92.164;82.143;65.118;32.373;33.714;22.762
5445494.191;130.981;147.782;129.007;118.054;93.617;34.384;37.178;26.077
5445494.199;164.844;184.886;161.454;148.192;120.699;29.951;33.937;24.028
5445494.207;193.752;216.179;187.941;173.971;142.418;27.493;30.883;24.550
5445494.215;202.172;228.100;191.517;183.173;139.885;22.501;25.220;20.117
5445494.223;199.452;228.025;185.296;184.514;132.173;21.383;24.177;18.701
5445494.231;197.478;224.672;184.029;180.006;132.471;26.189;30.100;21.569
5445494.239;196.882;222.661;180.192;178.069;129.044;34.459;39.153;26.003
5445494.247;185.817;210.628;168.011;168.420;121.966;41.053;43.698;30.436
5445494.255;157.394;180.639;139.847;141.673;98.720;36.918;38.147;28.349
5445494.263;135.601;157.468;117.160;120.588;82.850;32.410;33.937;26.599
5445494.271;119.358;137.761;100.173;103.265;74.580;27.083;30.212;22.389
5445494.222;93.468;107.735;76.219;75.139;55.358;10.803;15.721;6.966
5445494.230;77.933;92.760;60.499;64.261;45.039;7.376;12.219;6.780
5445494.238;70.855;85.644;53.421;60.536;41.947;13.150;16.540;14.193
5445494.246;67.763;81.025;50.664;57.481;41.723;24.401;26.599;25.481
5445494.254;51.185;62.212;32.373;40.494;25.146;19.707;19.595;21.271
5445494.262;33.900;41.425;13.523;18.515;8.978;9.686;9.313;9.425
5445494.270;35.651;42.059;16.317;21.607;14.529;14.640;12.554;12.182
5445494.278;19.781;24.587;3.837;2.123;6.929;11.846;9.313;6.445
5445494.286;11.437;17.993;-4.470;-0.224;-0.857;14.119;13.188;4.359
5445494.294;10.841;17.248;-4.023;1.974;1.229;18.999;17.509;6.370
5445494.302;4.210;9.798;-8.903;-3.837;-1.974;20.042;17.956;9.537
5445494.310;-1.900;1.676;-16.615;-11.139;-9.649;17.770;14.491;9.388
5445494.318;-4.843;-1.043;-22.762;-12.815;-11.846;17.099;13.746;10.319
5445494.326;-10.692;-7.115;-26.152;-20.675;-14.082;21.234;15.199;17.174
5445494.334;-7.488;-6.668;-20.638;-19.968;-7.823;31.181;24.140;27.455
5445494.342;-19.148;-18.217;-33.416;-29.728;-21.197;22.054;16.652;15.199
5445494.350;-26.785;-26.301;-39.712;-36.880;-27.902;10.692;7.786;2.049
5445494.358;-19.297;-19.819;-32.336;-29.765;-19.409;6.594;7.339;1.863
5445494.366;-21.197;-24.214;-34.608;-35.539;-19.521;-3.241;0.224;-4.508
5445494.374;-29.244;-34.571;-41.910;-47.162;-25.816;-8.717;-4.657;-7.004
5445494.382;-31.777;-37.327;-42.841;-48.243;-26.412;-3.204;-1.937;-0.112
5445494.390;-31.814;-37.849;-40.606;-49.435;-26.971;3.204;3.539;3.055
5445494.398;-32.224;-39.488;-41.611;-50.068;-26.710;11.064;10.654;7.190
5445494.406;-32.745;-38.110;-43.958;-47.907;-26.748;15.460;12.517;12.517
5445494.403;-41.462;-45.486;-52.191;-53.681;-33.155;11.064;6.855;10.319
5445494.411;-41.872;-46.454;-51.260;-53.458;-30.361;10.096;5.774;6.296
5445494.419;-37.625;-43.698;-45.933;-50.180;-25.257;12.480;10.617;4.992
5445494.427;-43.996;-50.738;-51.372;-55.432;-29.914;4.470;4.545;-3.129
5445494.435;-39.525;-45.002;-52.042;-48.168;-32.969;5.364;4.843;-2.719
5445494.443;-32.149;-35.539;-44.778;-37.476;-25.667;12.740;9.909;6.966
5445494.451;-33.006;-36.508;-45.374;-39.786;-26.636;15.274;8.419;10.282
5445494.459;-34.608;-40.568;-46.603;-45.337;-29.244;14.193;6.333;9.276
5445494.467;-33.863;-40.345;-43.847;-44.480;-27.418;12.293;6.407;11.399
5445494.475;-34.645;-39.376;-45.449;-43.027;-32.596;12.331;7.562;12.070
5445494.483;-36.061;-41.313;-48.541;-46.082;-31.330;10.096;3.129;7.898
5445494.491;-34.608;-39.637;-43.213;-43.586;-20.638;8.605;0.708;7.153
5445494.499;-29.765;-35.502;-36.359;-39.488;-15.423;10.766;4.470;8.754
5445494.507;-29.318;-34.943;-37.067;-39.898;-20.191;7.749;2.533;4.396
5445494.515;-31.777;-38.743;-35.129;-44.703;-20.042;6.072;0.596;2.496
5445494.523;-27.344;-32.447;-28.908;-38.184;-17.658;11.288;6.445;9.909
5445494.531;-34.794;-36.322;-37.476;-43.325;-28.796;6.855;4.582;6.109
5445494.539;-40.382;-40.941;-43.660;-48.690;-38.035;5.327;3.427;2.868
5445494.547;-36.322;-37.700;-37.178;-47.199;-35.129;14.938;11.101;11.139
5445494.555;-27.306;-29.020;-25.034;-36.769;-25.295;25.369;17.509;21.197
5445494.563;-31.441;-33.900;-27.008;-41.090;-31.330;19.819;9.686;13.784
5445494.571;-35.018;-37.849;-26.934;-46.603;-31.553;14.082;3.278;7.562
5445494.579;-32.783;-34.943;-21.495;-42.357;-25.928;13.784;5.402;5.700
5445494.587;-31.702;-34.459;-19.073;-44.331;-26.077;13.486;9.388;3.725
5445494.672;-36.024;-37.961;-23.879;-46.492;-33.230;11.250;9.574;3.763
5445494.680;-27.418;-27.753;-16.280;-34.161;-30.212;13.784;11.548;7.302
5445494.688;-21.532;-22.091;-7.898;-30.734;-23.395;14.789;9.909;10.431
5445494.696;-11.139;-12.927;3.465;-23.618;-13.076;18.068;11.846;13.746
5445494.704;-8.717;-12.703;4.061;-21.048;-11.995;18.179;12.442;11.846
5445494.712;-7.264;-11.325;8.270;-22.091;-8.792;19.073;14.603;12.182
5445494.720;-11.586;-15.683;6.929;-27.567;-11.139;11.176;6.706;7.339
5445494.728;-15.385;-19.036;5.104;-28.908;-11.809;2.049;-2.831;2.235
5445494.736;-13.784;-18.142;5.849;-26.971;-8.643;0.745;-2.794;2.682
5445494.744;-8.456;-13.486;10.356;-22.985;-5.998;5.141;1.453;5.737
5445494.752;-12.815;-18.328;5.439;-31.404;-12.219;12.964;6.557;5.886
5445494.760;-9.835;-14.268;7.711;-26.450;-10.319;23.991;17.472;10.133
5445494.768;-4.992;-9.611;13.784;-21.942;-4.023;25.108;19.856;11.735
5445494.776;-5.327;-9.313;14.454;-21.048;-2.049;16.764;13.113;9.164
5445494.784;-10.692;-15.460;8.494;-27.567;-8.084;7.115;5.737;5.327
5445494.792;-15.609;-20.675;3.390;-33.639;-12.331;6.296;5.327;8.978
5445494.800;-15.534;-20.564;2.049;-34.533;-15.311;10.170;9.835;11.772
5445494.808;-20.675;-26.003;-3.316;-40.829;-20.824;5.998;3.725;3.465
5445494.816;-15.013;-19.632;1.267;-33.155;-19.260;14.678;11.213;6.966
5445494.824;-10.468;-16.876;5.998;-30.808;-12.927;18.552;15.572;9.127
5445494.832;-8.866;-15.423;7.711;-28.610;-11.548;14.678;11.176;7.264
5445494.840;-5.327;-13.001;12.740;-27.940;-6.631;8.903;4.396;4.433
5445494.848;-2.831;-10.245;15.236;-26.822;-5.327;5.662;1.341;3.278
5445494.856;8.233;1.825;24.550;-13.299;1.155;10.915;8.233;7.898
5445494.882;13.895;10.468;29.616;-7.376;6.855;7.935;5.849;4.657
5445494.890;12.256;11.362;29.579;-7.860;5.104;1.118;-2.049;-2.086
5445494.898;25.667;28.796;41.574;9.723;15.162;3.353;0.447;2.235
5445494.906;38.855;49.248;54.576;30.883;24.103;2.123;1.043;0.373
5445494.914;70.781;89.593;81.174;66.012;42.692;8.307;10.915;5.364
5445494.922;101.216;124.387;108.741;94.734;62.212;12.964;16.578;10.282
5445494.930;129.268;155.754;135.712;118.762;82.701;14.752;17.285;13.001
5445494.938;152.402;180.937;157.207;137.538;100.508;22.240;23.320;18.030
5445494.946;163.317;190.064;165.999;144.243;106.953;29.318;28.908;22.240
5445494.954;168.495;194.535;168.495;148.714;108.890;28.871;27.083;20.750
5445494.962;164.770;189.431;163.615;147.559;104.569;26.599;24.475;17.211
5445494.970;148.751;166.856;147.298;128.783;92.313;24.959;22.165;15.274
5445494.978;129.193;161.119;124.574;110.716;76.219;18.105;17.323;11.101
5445494.986;115.260;145.771;109.226;105.947;64.299;14.454;16.764;10.766
5445494.994;95.591;120.588;89.444;84.043;47.870;10.617;13.895;10.133
5445495.002;77.449;98.348;70.930;62.920;35.837;5.141;9.201;6.221
5445495.010;71.265;88.401;64.634;55.619;35.018;8.307;12.852;7.525
5445495.018;63.516;79.013;56.773;49.546;28.983;12.666;16.354;10.580
5445495.026;42.804;54.464;37.923;29.355;14.342;7.898;13.150;3.353
5445495.034;37.327;43.027;34.571;18.962;15.572;12.629;17.062;11.474
5445495.042;13.560;17.546;11.362;-4.731;-5.253;-5.290;-2.906;-4.768
5445495.050;3.316;6.668;-0.969;-13.225;-13.784;-7.562;-6.258;-11.101
5445495.058;-0.671;1.751;-5.327;-15.087;-15.870;-1.080;0.000;-7.451
5445495.066;-1.974;-0.186;-7.525;-16.205;-16.093;4.321;5.625;-3.912
5445495.023;-8.717;-6.482;-14.789;-22.687;-20.601;4.098;4.992;-4.768
5445495.031;-8.754;-6.184;-13.001;-21.085;-18.850;11.325;9.835;2.570
5445495.039;-7.860;-7.413;-12.219;-22.836;-19.521;15.572;11.846;8.270
5445495.047;-15.199;-17.360;-20.228;-33.267;-25.034;12.517;9.574;4.582
5445495.055;-20.862;-23.283;-24.587;-38.296;-28.014;10.058;8.754;-0.410
5445495.063;-26.189;-29.989;-28.461;-43.735;-29.877;12.480;10.766;-0.931
5445495.071;-21.383;-25.928;-22.426;-38.594;-23.134;14.827;11.995;3.166
5445495.079;-18.142;-23.320;-18.068;-37.365;-19.744;12.256;9.798;4.433
5445495.087;-22.799;-30.808;-22.240;-47.162;-21.122;5.886;4.843;0.522
5445495.095;-28.498;-37.141;-29.318;-52.713;-25.854;0.298;0.335;-8.494
5445495.103;-29.132;-38.221;-30.622;-52.489;-26.934;0.522;0.335;-6.966
5445495.111;-32.224;-41.984;-34.459;-57.220;-31.143;6.258;3.651;-3.129
5445495.119;-26.599;-34.571;-28.573;-48.354;-24.512;19.781;15.646;8.047
5445495.127;-28.610;-35.912;-31.702;-49.770;-25.555;19.819;15.087;11.511
5445495.135;-35.614;-41.947;-43.362;-54.240;-38.929;11.288;8.717;2.012
5445495.143;-32.820;-38.967;-41.127;-51.372;-32.485;10.356;11.697;1.676
5445495.151;-29.430;-36.880;-32.820;-50.366;-23.805;13.672;15.981;4.508
5445495.159;-32.336;-39.712;-36.471;-53.383;-28.834;8.345;10.394;-4.657
5445495.167;-26.859;-36.359;-32.187;-50.738;-24.252;11.958;13.188;-0.335
5445495.175;-28.834;-38.855;-36.284;-54.948;-28.796;13.858;13.895;3.241
5445495.183;-32.559;-41.761;-39.488;-58.338;-31.367;10.803;8.084;1.676
5445495.191;-33.565;-43.251;-41.127;-60.350;-32.298;9.984;5.737;2.682
5445495.199;-34.906;-44.964;-44.107;-60.201;-36.135;16.838;11.027;9.425
5445495.207;-36.694;-45.821;-43.958;-59.493;-35.763;17.844;12.144;12.778
5445495.155;-35.912;-44.070;-40.829;-55.991;-30.100;17.397;13.635;13.076
5445495.163;-32.112;-40.978;-36.769;-54.166;-24.624;16.503;14.938;8.494
5445495.171;-30.845;-41.425;-36.843;-54.277;-25.891;11.288;10.021;-0.373
5445495.179;-27.902;-37.402;-36.731;-49.435;-26.412;10.841;8.680;-0.671
5445495.187;-25.034;-34.906;-37.812;-47.572;-26.561;10.468;8.456;2.310
5445495.195;-27.306;-36.471;-38.445;-46.305;-26.561;7.637;5.104;0.596
5445495.203;-26.487;-34.422;-38.110;-44.331;-27.753;4.396;2.012;1.267
5445495.211;-34.273;-43.996;-46.305;-55.544;-34.012;-4.061;-7.153;-5.662
5445495.219;-33.863;-43.921;-45.709;-58.115;-32.336;-0.559;-4.470;-0.745
5445495.227;-30.547;-40.345;-40.904;-53.979;-25.295;4.321;-0.335;5.253
5445495.235;-32.522;-41.761;-44.927;-54.166;-29.504;1.714;-2.682;0.186
5445495.243;-27.791;-37.067;-39.563;-47.907;-25.257;4.247;1.900;-4.135
5445495.251;-18.291;-27.977;-30.436;-39.525;-18.105;7.376;8.903;-5.849
5445495.259;-15.795;-23.767;-28.536;-35.688;-15.758;8.196;8.531;-4.023
5445495.267;-20.340;-30.622;-31.888;-43.511;-16.913;1.416;0.484;-6.407
5445495.275;-32.634;-42.692;-43.176;-56.103;-29.281;-9.686;-13.113;-11.995
5445495.283;-35.763;-44.070;-46.752;-56.885;-35.688;-12.927;-17.509;-13.784
5445495.291;-34.533;-45.411;-48.578;-58.822;-35.129;-12.144;-16.056;-10.878
5445495.299;-31.441;-44.666;-44.107;-59.493;-27.604;-7.488;-13.039;-7.786
5445495.307;-23.134;-35.949;-34.161;-52.042;-16.429;-0.112;-5.998;-4.396
5445495.315;-18.962;-29.951;-30.249;-42.878;-12.666;4.396;0.522;-2.310
5445495.323;-15.870;-25.183;-28.722;-36.880;-12.331;4.470;2.496;-3.651
5445495.331;-16.615;-27.269;-30.808;-40.755;-15.683;-0.596;-2.682;-8.270
5445495.339;-12.815;-24.028;-27.008;-38.967;-11.437;-1.527;-4.172;-7.413
5445495.333;-7.264;-18.515;-22.128;-30.734;-5.811;3.427;0.037;-1.527
5445495.341;-3.278;-15.944;-18.738;-26.040;-1.937;12.890;7.153;7.972
5445495.349;-7.711;-17.472;-24.065;-28.834;-7.115;15.534;8.903;8.978
5445495.357;-14.007;-21.532;-27.083;-34.161;-13.039;10.952;5.700;2.682
5445495.365;-18.515;-26.897;-32.559;-39.078;-15.274;4.433;-0.112;-1.267
5445495.373;-19.036;-28.871;-34.906;-36.806;-15.013;2.421;0.969;-1.155
5445495.381;-24.959;-34.310;-42.059;-41.425;-21.905;5.290;4.433;-0.335
5445495.389;-34.384;-43.176;-50.478;-50.776;-28.685;6.519;4.545;-1.639
5445495.397;-38.147;-46.864;-53.383;-54.091;-28.834;6.557;4.880;-1.378
5445495.405;-27.567;-33.304;-43.176;-39.451;-19.334;14.827;14.752;6.296
5445495.413;-29.244;-35.390;-43.809;-44.964;-18.999;16.242;18.328;9.350
5445495.421;-28.126;-33.788;-40.457;-41.947;-19.744;14.938;15.572;9.835
5445495.429;-27.269;-32.894;-39.227;-41.984;-20.862;9.239;8.605;5.811
5445495.437;-24.512;-31.516;-34.124;-41.984;-19.185;5.141;5.141;-1.602
5445495.445;-18.962;-27.828;-28.983;-37.327;-14.566;7.525;8.084;-2.235
5445495.453;-25.742;-38.520;-34.012;-48.317;-20.042;5.625;5.886;-2.235
5445495.461;-31.926;-42.170;-37.029;-53.272;-26.114;3.204;3.539;-1.751
5445495.469;-36.582;-47.050;-35.651;-57.518;-26.189;-0.522;-0.075;-3.278
5445495.477;-38.967;-49.323;-37.849;-57.295;-30.957;0.373;-0.596;-1.527
5445495.485;-32.634;-45.933;-28.610;-56.997;-23.432;4.955;3.688;2.123
5445495.493;-12.554;-26.524;-7.190;-39.563;-5.625;14.044;12.703;9.127
5445495.501;-7.525;-20.228;-3.725;-32.447;-5.700;16.801;15.348;5.364
5445495.509;-9.239;-21.607;-4.135;-34.682;-6.296;12.293;8.196;-0.894
5445495.517;-14.529;-27.567;-4.731;-41.239;-7.264;4.917;-0.633;-6.445
5445495.558;-9.574;-24.959;0.857;-41.053;-3.576;4.843;-0.969;-3.390
5445495.566;-18.477;-36.694;-10.729;-53.644;-12.070;-8.196;-13.113;-13.039
5445495.574;-25.108;-42.990;-10.952;-57.481;-14.715;-13.560;-18.477;-16.056
5445495.582;-25.220;-40.904;-9.388;-58.040;-15.311;-6.743;-13.262;-7.637
5445495.590;-23.879;-40.233;-9.872;-59.344;-18.068;5.774;-1.378;5.737
5445495.598;-26.003;-40.084;-10.915;-54.389;-20.079;11.250;5.327;4.135
5445495.606;-36.471;-45.933;-24.885;-58.077;-28.871;8.494;4.843;-2.384
5445495.614;-36.359;-45.188;-25.481;-59.903;-31.553;13.746;12.293;1.192
5445495.622;-50.627;-60.648;-38.631;-73.686;-46.268;2.272;1.118;-9.164
5445495.630;-49.174;-60.163;-39.935;-72.233;-44.592;4.210;4.619;-3.800
5445495.638;-50.329;-61.542;-34.757;-75.437;-39.414;8.866;8.307;4.061
5445495.646;-64.112;-75.437;-48.615;-90.897;-52.638;-1.825;-3.316;-5.364
5445495.654;-61.244;-72.606;-43.735;-87.135;-48.392;-1.155;-0.894;-5.364
5445495.662;-56.028;-69.886;-38.594;-84.899;-47.609;3.241;4.210;-1.676
5445495.670;-53.979;-69.253;-37.067;-87.805;-48.056;-1.676;2.123;-6.296
5445495.678;-57.518;-72.904;-41.425;-91.717;-52.750;-11.772;-6.631;-17.025
5445495.686;-55.991;-69.849;-41.574;-86.762;-51.707;-12.442;-7.860;-18.105
5445495.694;-43.213;-55.879;-31.106;-72.420;-41.835;-4.023;-1.267;-8.978
5445495.702;-32.596;-44.033;-22.016;-60.126;-33.565;3.837;5.439;-1.229
5445495.710;-33.379;-47.199;-19.558;-66.943;-31.330;3.465;1.974;-2.831
5445495.718;-40.829;-54.501;-26.897;-73.500;-38.482;0.708;-2.533;-6.743
5445495.726;-39.376;-51.670;-23.730;-70.110;-34.533;4.657;2.235;-4.694
5445495.734;-34.794;-45.933;-21.458;-65.826;-33.155;8.978;8.754;-0.596
5445495.742;-33.192;-43.176;-18.291;-60.163;-32.187;12.480;12.890;5.737
5445495.737;-35.092;-47.497;-19.558;-66.943;-32.075;5.215;6.258;1.192
5445495.745;-40.941;-55.693;-27.977;-73.537;-38.296;-1.863;0.075;-7.339
5445495.753;-38.818;-53.272;-26.785;-69.216;-37.998;-4.098;-1.416;-9.313
5445495.761;-32.932;-47.237;-17.919;-63.442;-30.510;-1.267;2.794;-7.339
5445495.769;-35.875;-52.527;-19.222;-69.849;-30.100;1.006;1.676;-6.035
5445495.777;-41.649;-58.077;-27.791;-76.257;-36.731;1.751;0.820;-4.247
5445495.785;-39.339;-50.403;-25.481;-70.520;-36.955;2.943;1.341;-1.341
5445495.793;-43.660;-54.911;-29.281;-72.941;-40.121;-1.527;-3.166;-2.086
5445495.801;-35.800;-45.411;-22.352;-65.118;-35.688;5.476;3.539;5.290
5445495.809;-32.075;-41.574;-20.042;-61.393;-32.894;6.557;6.370;4.917
5445495.817;-46.194;-54.352;-32.634;-72.084;-45.337;-5.588;-4.135;-9.909
5445495.825;-40.643;-52.154;-29.840;-68.322;-41.761;2.570;4.806;-3.539
5445495.833;-41.313;-48.131;-31.032;-64.522;-44.703;3.129;6.743;-8.419
5445495.841;-42.729;-46.045;-33.341;-60.163;-45.337;3.614;9.090;-9.015
5445495.849;-47.423;-53.570;-34.682;-69.551;-43.400;2.570;7.674;-6.929
5445495.857;-49.695;-56.997;-38.370;-72.569;-48.839;-0.633;3.576;-6.817
5445495.865;-44.256;-52.974;-34.608;-66.273;-45.598;-2.421;0.782;-6.743
5445495.873;-39.972;-48.243;-28.834;-63.777;-39.339;-5.215;-2.123;-9.425
5445495.881;-37.365;-46.603;-25.593;-63.814;-35.167;-6.557;-2.533;-11.660
5445495.889;-39.227;-50.142;-28.051;-64.708;-34.980;-7.786;-3.800;-11.511
5445495.897;-42.543;-50.478;-33.304;-65.044;-41.239;-8.494;-4.359;-9.425
5445495.905;-47.535;-52.974;-39.600;-66.869;-45.896;-15.683;-11.101;-15.944
5445495.913;-52.042;-58.301;-41.835;-72.122;-48.392;-21.905;-16.950;-23.618
5445495.921;-46.268;-55.023;-33.416;-70.259;-37.253;-15.497;-12.927;-16.019
5445495.857;-39.935;-45.784;-27.902;-60.052;-33.714;-8.382;-7.488;-9.909
5445495.865;-39.078;-44.554;-28.089;-59.754;-33.751;-13.635;-13.188;-14.827
5445495.873;-32.149;-37.849;-24.922;-53.756;-32.112;-8.680;-8.568;-8.978
5445495.881;-30.994;-38.147;-25.854;-54.725;-32.783;-6.445;-5.811;-7.488
5445495.889;-26.599;-35.465;-19.632;-51.521;-27.865;-8.047;-5.364;-8.978
5445495.897;-18.887;-28.349;-5.625;-43.511;-16.913;-7.600;-3.949;-8.903
5445495.905;-7.562;-16.131;5.178;-32.522;-7.153;-9.127;-5.551;-11.697
5445495.913;2.570;-2.794;14.938;-22.128;-0.261;-13.150;-9.984;-13.299
5445495.921;35.316;29.802;48.056;7.972;30.212;-2.719;-0.447;-1.416
5445495.929;60.610;56.811;74.953;29.877;50.701;-8.717;-6.221;-6.370
5445495.937;85.756;85.123;102.632;53.011;71.935;-12.554;-9.649;-9.909
5445495.945;118.800;123.568;132.695;86.203;91.195;-8.494;-7.339;-1.565
5445495.953;148.453;159.070;156.984;117.645;107.214;-7.115;-5.923;0.633
5445495.961;157.766;173.151;162.162;130.534;107.400;-6.333;-3.725;-4.955
5445495.969;173.077;189.021;176.094;145.622;120.252;1.751;7.302;-0.931
5445495.977;175.685;189.990;176.318;146.627;121.146;6.147;13.150;2.645
5445495.985;159.666;171.140;156.462;133.142;101.179;5.886;9.947;4.396
5445495.993;145.920;160.299;141.039;119.843;91.307;7.972;10.580;8.605
5445496.001;132.211;149.943;124.536;109.375;79.647;4.098;7.562;5.104
5445496.009;108.182;125.580;95.405;88.140;63.218;-5.811;-0.298;-5.737
5445496.017;89.295;101.179;78.008;65.975;49.435;-10.952;-5.327;-6.929
5445496.025;77.449;83.447;73.910;49.546;44.964;-15.944;-9.909;-8.531
5445496.033;59.716;65.453;57.146;36.396;33.416;-15.683;-9.052;-6.221
5445496.041;38.594;43.176;34.906;16.913;15.423;-18.626;-11.325;-11.437
5445495.980;19.893;21.905;14.044;-1.527;-1.155;-21.122;-16.727;-16.615
5445495.988;13.039;14.417;6.035;-6.035;-7.786;-16.689;-14.529;-9.947
5445495.996;4.694;7.637;0.261;-12.219;-7.637;-14.938;-13.299;-9.052
5445496.004;-0.559;0.186;-4.582;-16.131;-8.717;-6.706;-7.078;-1.751
5445496.012;-3.763;-5.290;-11.511;-18.813;-12.293;-0.969;-3.204;2.310
5445496.020;-9.239;-9.760;-17.621;-22.277;-18.328;-1.155;-3.763;-1.974
5445496.028;-15.944;-16.913;-22.091;-29.132;-25.183;-3.539;-6.258;-10.170
5445496.036;-20.862;-24.103;-27.530;-35.204;-27.716;-5.774;-7.562;-11.548
5445496.044;-24.065;-27.232;-29.169;-36.433;-26.412;-2.123;-3.986;-8.605
5445496.052;-23.209;-25.965;-30.845;-34.124;-28.610;4.023;3.763;-4.210
5445496.060;-32.745;-35.875;-41.872;-42.766;-39.339;-1.080;-0.708;-6.594
5445496.068;-46.901;-50.887;-55.172;-55.879;-53.681;-8.866;-10.729;-10.580
5445496.076;-48.913;-53.756;-56.811;-63.069;-54.650;-13.746;-16.838;-12.368
5445496.084;-44.852;-50.180;-53.681;-58.636;-46.641;-10.990;-14.007;-11.846
5445496.092;-45.411;-50.515;-54.128;-54.836;-46.007;-12.629;-13.635;-13.523
5445496.100;-44.219;-49.472;-53.719;-50.776;-44.070;-13.858;-13.560;-13.895
5445496.108;-44.256;-49.435;-48.056;-49.546;-39.041;-16.131;-14.827;-16.578
5445496.116;-44.219;-48.243;-47.199;-49.211;-39.488;-14.529;-12.442;-12.070
5445496.124;-49.546;-56.140;-55.172;-59.269;-48.503;-14.789;-14.566;-11.437
5445496.132;-52.750;-60.759;-59.530;-64.000;-51.334;-14.603;-16.429;-11.958
5445496.140;-58.748;-65.416;-65.006;-64.746;-54.799;-9.760;-12.591;-11.325
5445496.148;-65.975;-68.806;-72.345;-65.938;-60.014;-10.580;-13.933;-10.952
5445496.156;-63.255;-63.516;-71.265;-63.702;-58.375;-11.101;-11.474;-9.649
5445496.164;-60.387;-61.505;-71.228;-62.324;-58.301;-4.210;-4.508;-4.955
5445496.172;-56.140;-59.754;-66.794;-61.616;-50.589;-1.974;-2.906;-5.737
5445496.180;-39.935;-44.294;-49.211;-46.492;-33.639;-5.551;-6.072;-8.866
5445496.188;-40.606;-44.331;-48.615;-44.629;-34.869;-8.121;-8.233;-10.319
5445496.196;-50.962;-53.607;-55.470;-55.581;-43.474;-20.377;-17.807;-20.601
5445496.204;-50.850;-54.352;-55.023;-55.954;-41.835;-19.372;-16.429;-17.099
5445496.212;-41.015;-48.541;-47.833;-48.652;-34.012;-8.233;-8.233;-4.731
5445496.220;-42.096;-49.733;-50.254;-51.260;-37.700;-10.282;-11.735;-6.892
5445496.228;-45.784;-50.850;-47.721;-51.558;-32.336;-12.890;-13.635;-11.027
5445496.236;-43.437;-51.782;-42.990;-51.819;-26.710;-13.523;-13.374;-11.884
5445496.244;-36.694;-45.225;-35.837;-46.976;-25.183;-9.835;-8.196;-9.201
5445496.252;-36.173;-45.896;-36.135;-49.025;-25.779;-8.270;-7.786;-7.972
5445496.260;-45.784;-54.911;-43.996;-58.599;-35.129;-13.597;-14.231;-11.139
5445496.268;-50.589;-57.332;-47.125;-60.163;-41.649;-15.795;-16.242;-9.499
5445496.276;-46.715;-52.936;-43.288;-53.905;-36.024;-15.497;-13.933;-7.488
5445496.284;-49.584;-56.811;-43.139;-57.891;-38.557;-22.128;-19.334;-12.293
5445496.292;-45.486;-51.074;-34.906;-51.297;-33.975;-19.483;-16.205;-13.225
5445496.300;-36.471;-43.362;-27.046;-44.852;-28.051;-12.517;-11.288;-12.666
5445496.308;-28.051;-36.471;-16.689;-37.812;-19.521;2.608;0.112;-3.725
5445496.316;-29.840;-41.872;-18.328;-40.382;-20.266;6.184;2.868;-1.937
5445496.324;-31.739;-43.474;-17.844;-43.102;-21.420;7.637;5.141;0.075
5445496.332;-39.637;-49.286;-19.781;-52.713;-28.349;-6.147;-5.700;-9.723
5445496.340;-44.219;-52.638;-23.060;-56.475;-30.734;-16.205;-14.417;-13.709
5445496.348;-35.912;-43.139;-20.117;-46.082;-23.767;-10.654;-8.866;-3.427
5445496.356;-36.545;-47.311;-21.271;-50.254;-24.624;-19.036;-18.403;-10.170
5445496.325;-36.098;-48.093;-12.778;-52.117;-25.332;-21.048;-23.693;-14.007
5445496.333;-31.963;-39.339;-12.331;-44.890;-22.538;-12.331;-17.546;-8.419
5445496.341;-28.163;-36.322;-6.594;-39.488;-18.403;-6.929;-10.766;-11.548
5445496.349;-25.481;-36.955;0.186;-40.494;-13.970;-4.135;-5.700;-13.113
5445496.357;-25.555;-35.875;0.186;-39.600;-14.454;-2.272;-2.272;-9.872
5445496.365;-21.718;-31.590;1.825;-35.502;-12.480;-0.782;-0.447;-5.551
5445496.373;-24.624;-33.826;-6.072;-36.061;-21.346;-4.806;-4.470;-4.172
5445496.381;-32.783;-39.749;-15.572;-42.319;-31.143;-16.466;-15.721;-11.884
5445496.389;-35.763;-42.394;-16.727;-43.251;-31.032;-22.277;-23.246;-15.534
5445496.397;-40.941;-44.480;-20.750;-47.348;-32.634;-21.756;-26.189;-14.119
5445496.405;-40.568;-45.151;-22.240;-49.248;-32.671;-17.248;-24.140;-11.623
5445496.413;-40.010;-45.523;-16.764;-47.423;-33.192;-12.182;-15.423;-10.729
5445496.421;-39.227;-47.199;-17.844;-48.243;-34.682;-12.293;-12.331;-12.442
5445496.429;-30.696;-42.357;-9.611;-44.331;-22.873;-7.749;-6.445;-7.972
5445496.437;-36.024;-46.790;-13.076;-51.670;-27.567;-15.460;-15.460;-16.540
5445496.445;-37.514;-47.237;-16.540;-50.031;-30.361;-21.830;-22.873;-21.160
5445496.453;-30.473;-37.476;-10.990;-39.153;-25.854;-21.271;-21.867;-18.403
5445496.461;-23.507;-30.398;-9.164;-33.379;-25.257;-17.583;-18.403;-14.231
5445496.469;-11.437;-19.521;0.931;-22.762;-9.388;-7.972;-6.706;-8.941
5445496.477;-14.342;-23.283;0.671;-29.244;-17.099;-10.468;-7.339;-13.858
5445496.485;-13.076;-20.191;2.906;-28.908;-12.703;-7.898;-6.482;-9.760
5445496.493;-19.446;-27.269;-6.296;-35.800;-22.873;-16.354;-14.268;-15.795
5445496.501;-22.091;-34.012;-12.554;-39.712;-27.679;-22.836;-19.334;-18.515
5445496.509;-24.214;-33.490;-11.586;-39.116;-26.263;-23.469;-18.924;-19.185
5445496.504;-25.667;-30.845;-15.795;-37.402;-29.542;-24.252;-19.781;-18.850
5445496.512;-26.152;-33.341;-11.846;-38.892;-27.306;-21.942;-19.819;-16.280
5445496.520;-18.738;-28.051;-2.757;-34.571;-16.391;-15.497;-14.938;-8.829
5445496.528;-14.268;-26.189;-1.900;-32.037;-15.050;-14.789;-14.454;-8.829
5445496.536;-20.564;-28.908;-8.382;-38.892;-24.624;-20.601;-20.191;-17.285
5445496.544;-29.132;-36.322;-18.515;-46.194;-32.410;-24.252;-23.060;-21.160
5445496.552;-31.553;-38.780;-23.767;-47.460;-34.496;-22.426;-20.564;-20.042
5445496.560;-26.599;-35.241;-13.039;-40.233;-27.940;-14.156;-11.884;-12.927
5445496.568;-19.260;-27.046;-1.974;-33.677;-16.056;-12.964;-8.978;-12.219
5445496.576;-21.234;-26.822;-5.364;-33.826;-21.011;-13.039;-11.288;-11.586
5445496.584;-22.016;-30.510;-11.325;-38.445;-27.604;-12.890;-11.846;-14.007
5445496.592;-12.033;-18.813;-4.023;-27.306;-17.919;-5.029;-3.949;-5.923
5445496.600;-11.735;-17.658;-4.619;-23.991;-15.944;-4.731;-2.310;-2.570
5445496.608;-12.815;-17.658;-8.531;-23.544;-23.060;-7.786;-4.917;-4.433
5445496.616;-10.692;-16.876;-1.825;-22.538;-18.664;-7.637;-3.502;-5.923
5445496.624;-15.870;-20.638;-8.643;-25.369;-24.661;-8.568;-2.831;-9.350
5445496.632;-14.491;-21.793;-11.846;-25.742;-25.108;-2.794;1.974;-3.874
5445496.640;-8.531;-13.225;-6.333;-20.228;-15.683;3.651;7.451;1.714
5445496.648;-12.442;-16.466;-7.600;-23.320;-18.291;-3.316;0.633;-7.041
5445496.656;-16.876;-23.618;-9.052;-26.524;-21.569;-12.293;-8.233;-15.870
5445496.664;-16.503;-24.810;-9.909;-26.301;-21.644;-15.944;-11.735;-14.231
5445496.672;-17.807;-22.054;-14.119;-25.705;-24.885;-23.320;-19.632;-16.950
5445496.680;-17.695;-19.372;-14.827;-22.389;-27.865;-24.810;-22.501;-17.732
5445496.688;-22.464;-21.793;-21.905;-23.693;-34.459;-28.908;-26.450;-21.644
5445496.684;-19.185;-19.260;-18.999;-20.303;-28.610;-19.297;-15.087;-16.652
5445496.692;-15.683;-18.068;-15.758;-17.732;-23.581;-14.640;-8.754;-14.417
5445496.700;-13.858;-18.701;-18.477;-20.005;-29.951;-15.907;-9.984;-17.732
5445496.708;-19.111;-22.762;-18.999;-26.114;-30.026;-16.764;-12.405;-16.987
5445496.716;-22.054;-25.705;-23.656;-27.306;-35.167;-20.415;-15.944;-18.440
5445496.724;-17.621;-21.830;-21.234;-22.873;-31.106;-17.397;-11.921;-13.821
5445496.732;-11.288;-17.472;-15.870;-19.111;-23.842;-13.560;-9.462;-9.388
5445496.740;-10.729;-14.901;-18.701;-16.242;-20.228;-14.231;-11.101;-11.250
5445496.748;-6.631;-9.984;-6.966;-11.027;-13.225;-11.623;-9.164;-9.649
5445496.756;-9.537;-12.964;-10.803;-15.870;-20.787;-13.225;-12.070;-10.841
5445496.764;-14.752;-17.434;-17.621;-19.036;-25.667;-16.280;-14.640;-13.486
5445496.772;-16.168;-19.148;-19.148;-20.228;-23.395;-15.981;-14.342;-11.399
5445496.780;-10.766;-14.789;-13.746;-16.689;-16.429;-7.786;-5.849;-2.459
5445496.788;-10.058;-16.242;-10.878;-17.323;-17.248;-2.719;-0.410;3.986
5445496.796;-20.973;-22.985;-21.085;-24.512;-29.430;-8.941;-7.711;-3.800
5445496.804;-17.434;-19.819;-25.034;-22.501;-30.920;-9.462;-11.735;-6.296
5445496.812;-8.680;-13.001;-20.601;-16.391;-21.346;-3.353;-6.743;-1.192
5445496.820;-4.694;-9.499;-13.188;-13.001;-14.007;1.714;0.149;2.161
5445496.828;-10.990;-14.007;-22.054;-17.397;-18.254;-5.327;-6.072;-5.439
5445496.836;-13.970;-18.366;-21.681;-19.781;-22.799;-7.339;-8.829;-7.786
5445496.844;-14.901;-21.122;-21.346;-24.699;-21.458;-6.706;-8.456;-5.290
5445496.852;-15.460;-17.956;-27.642;-24.065;-26.152;-6.929;-7.302;-3.688
5445496.860;-16.391;-19.483;-21.458;-24.103;-21.942;-7.339;-7.227;-4.023
5445496.868;-16.280;-21.346;-19.260;-24.624;-19.073;-7.413;-6.966;-4.731
5445496.864;-16.168;-23.693;-21.569;-24.997;-18.999;-9.537;-11.064;-7.637
5445496.872;-17.621;-24.363;-23.209;-25.854;-19.111;-12.293;-15.534;-9.276
5445496.880;-23.246;-27.046;-29.765;-29.057;-25.146;-19.707;-22.389;-14.864
5445496.888;-19.222;-20.564;-27.418;-20.415;-20.377;-11.288;-12.405;-6.035
5445496.896;-24.550;-29.579;-35.316;-28.126;-31.441;-15.311;-13.746;-11.027
5445496.904;-30.771;-36.657;-36.359;-36.769;-33.788;-22.091;-19.595;-16.838
5445496.912;-30.175;-34.980;-36.731;-35.577;-31.665;-21.644;-19.446;-14.566
5445496.920;-21.979;-28.014;-34.757;-28.946;-32.634;-14.566;-12.405;-10.096
5445496.928;-12.890;-17.807;-24.512;-18.142;-24.736;-5.364;-4.061;-4.247
5445496.936;-4.061;-8.084;-10.170;-7.935;-5.402;2.310;2.608;0.931
5445496.944;-11.437;-16.131;-15.758;-14.417;-9.909;-10.394;-11.399;-11.176
5445496.952;-15.572;-17.695;-20.899;-14.529;-14.119;-15.572;-14.938;-16.354
5445496.960;-12.815;-17.397;-18.515;-13.635;-15.423;-15.423;-11.139;-14.938
5445496.968;-10.431;-13.486;-17.285;-9.798;-12.591;-8.978;-3.166;-7.860
5445496.976;-13.709;-17.323;-22.016;-12.703;-17.621;-9.127;-5.327;-6.221
5445496.984;-14.976;-18.179;-22.352;-12.219;-17.099;-9.127;-8.047;-5.327
5445496.992;-17.285;-22.613;-30.734;-14.119;-17.844;-10.096;-10.431;-6.519
5445497.000;-19.744;-23.134;-31.330;-14.082;-20.862;-7.562;-8.941;-3.949
5445497.008;-11.325;-14.193;-16.689;-7.898;-10.319;-0.894;-1.788;0.708
5445497.016;-10.990;-15.832;-17.732;-11.325;-11.772;-3.129;-3.129;-3.465
5445497.024;-11.548;-16.578;-21.532;-11.213;-15.683;-3.465;-2.198;-3.204
5445497.032;-12.256;-17.136;-22.873;-9.015;-16.540;-2.198;0.261;-0.447
5445497.040;-12.405;-14.938;-24.587;-5.625;-14.082;-0.373;2.570;1.118
5445497.048;-16.838;-18.515;-26.897;-10.207;-16.950;-4.955;-2.086;-2.347
5445497.073;-19.707;-23.469;-27.455;-16.540;-23.395;-6.631;-4.135;-2.272
5445497.081;-13.486;-16.131;-23.432;-8.009;-18.813;-2.272;0.931;-0.373
5445497.089;-16.466;-15.460;-22.948;-4.694;-15.423;-2.049;0.037;0.261
5445497.097;-13.597;-15.981;-22.091;-4.917;-16.801;-1.490;0.708;0.186
5445497.105;-9.313;-16.913;-17.434;-9.425;-12.256;4.061;7.637;3.874
5445497.113;-2.347;-8.792;-0.596;-3.166;-2.421;3.725;9.201;1.565
5445497.121;1.974;-1.714;1.341;4.061;-4.955;-1.229;5.811;-1.155
5445497.129;-0.559;-2.757;-1.527;2.719;-8.754;-2.347;6.780;-1.937
5445497.137;-6.929;-8.382;-5.588;-5.513;-11.325;-8.009;1.192;-6.855
5445497.145;-5.364;-9.350;-2.831;-5.327;-7.972;-4.135;3.166;-2.272
5445497.153;-6.072;-11.697;3.986;-6.445;-4.359;-2.906;2.049;-1.118
5445497.161;-6.817;-8.047;5.364;-3.353;-5.290;-1.416;3.651;0.708
5445497.169;-5.066;-5.402;5.811;-0.708;-7.339;3.688;9.947;6.706
5445497.177;-3.017;-4.992;8.456;-1.378;-4.582;8.158;15.423;11.139
5445497.185;-13.448;-16.056;-1.118;-11.995;-18.626;-4.731;3.912;-2.570
5445497.193;-7.413;-8.643;5.960;-3.055;-8.270;1.229;9.537;2.533
5445497.201;-3.427;-3.688;11.027;1.378;-3.465;3.986;11.176;4.433
5445497.209;-10.133;-12.033;7.413;-6.557;-9.388;-1.825;6.258;-1.080
5445497.217;-7.264;-7.264;8.829;-4.917;-8.382;-2.496;4.396;-1.155
5445497.225;0.224;1.527;17.807;3.129;-1.229;-1.080;5.700;1.304
5445497.233;3.166;2.906;20.526;5.551;-3.651;-2.645;5.029;-0.931
5445497.241;-1.453;-1.788;17.434;0.596;-4.917;-4.545;3.837;-1.714
5445497.249;-6.370;-5.215;17.323;-3.390;-3.129;-4.657;4.508;-3.204
5445497.257;0.857;-2.235;22.240;2.421;2.049;-1.527;8.084;-2.719
5445497.345;11.995;6.407;26.822;10.170;6.333;2.459;13.225;1.900
5445497.353;5.662;0.484;22.762;-1.453;-0.820;-2.757;8.382;-3.651
5445497.361;8.717;5.923;28.424;3.427;3.651;-2.421;8.158;-4.210
5445497.369;8.605;6.706;28.573;7.413;7.711;-2.757;6.184;-2.906
5445497.377;6.929;3.614;27.828;4.545;3.278;-2.384;4.135;-0.484
5445497.385;4.731;0.782;23.767;1.527;-2.384;-0.969;6.296;3.725
5445497.393;2.868;-1.304;20.377;-1.267;-4.880;-1.788;6.296;5.364
5445497.401;-2.235;-4.210;17.881;-6.333;-8.978;-7.600;0.745;-1.118
5445497.409;2.757;0.633;23.097;1.714;-4.098;-3.278;5.476;0.596
5445497.417;1.676;-2.868;19.222;1.118;-6.184;-6.668;1.565;-4.359
5445497.425;1.714;-2.161;19.483;2.459;-3.912;-7.935;-1.825;-6.072
5445497.433;4.545;0.149;23.618;0.820;-1.788;-7.115;-4.172;-5.774
5445497.441;6.407;0.373;22.352;-0.522;-7.078;-8.978;-6.109;-7.339
5445497.449;3.427;-1.788;19.372;0.261;-11.027;-7.674;-2.384;-3.502
5445497.457;6.966;2.868;21.271;1.825;-6.706;-1.155;5.998;4.470
5445497.465;6.892;4.321;18.366;4.768;-4.731;2.272;8.158;8.196
5445497.473;1.639;-1.565;19.185;-0.484;-7.860;-0.186;3.837;5.849
5445497.481;0.857;-2.235;22.575;-3.166;-5.364;-5.178;-2.161;0.261
5445497.489;3.688;0.447;23.469;-1.118;-5.998;-8.121;-6.855;-2.496
5445497.497;5.327;1.676;23.246;1.006;-7.376;-6.631;-4.657;-3.874
5445497.505;8.270;3.912;21.085;4.508;-6.966;-1.565;2.757;-5.476
5445497.513;7.004;2.012;23.730;3.353;-5.327;-1.676;4.210;-7.115
5445497.521;7.674;5.998;27.828;5.960;-1.416;-3.763;5.290;-6.706
5445497.529;10.878;9.984;28.387;11.325;0.447;-1.229;8.792;-1.602
5445497.568;4.731;3.502;20.713;6.035;-9.723;-4.135;6.221;-0.149
5445497.576;-3.763;-8.158;6.743;-6.221;-18.477;-10.431;0.410;-3.651
5445497.584;-0.745;-5.737;10.617;-6.668;-12.927;-7.376;1.304;-0.447
5445497.592;-0.037;-4.731;15.125;-5.364;-9.388;-8.084;-1.527;-3.278
5445497.600;1.118;-5.960;15.646;-6.445;-5.513;-4.210;1.714;-1.900
5445497.608;-7.264;-13.560;6.743;-10.654;-11.809;-6.072;1.192;-5.960
5445497.616;-12.219;-17.583;3.353;-12.591;-18.030;-4.917;4.657;-6.370
5445497.624;-9.201;-17.770;7.600;-13.486;-15.460;-1.639;9.537;0.373
5445497.632;-9.388;-10.803;6.035;-8.903;-15.609;-3.390;7.637;2.868
5445497.640;-12.219;-12.480;3.576;-14.603;-21.271;-6.780;0.782;1.229
5445497.648;-0.186;-4.433;17.807;-5.774;-8.643;-3.316;2.161;7.413
5445497.656;11.697;8.158;30.398;6.780;7.488;1.825;8.866;7.711
5445497.664;12.256;6.482;26.599;4.135;2.272;-6.184;2.980;-1.378
5445497.672;13.262;7.264;25.369;5.327;3.837;-7.115;-0.037;-1.080
5445497.680;14.007;8.605;24.587;5.364;3.204;-3.725;1.304;2.794
5445497.688;16.019;9.537;33.975;6.557;7.674;1.043;6.929;7.749
5445497.696;16.019;9.984;34.645;7.041;11.064;2.608;7.562;10.133
5445497.704;19.707;12.629;32.037;5.737;11.735;1.341;7.562;7.749
5445497.712;13.411;4.470;24.028;-2.272;2.943;-4.694;4.023;-0.149
5445497.720;5.811;-0.745;16.019;-5.178;-5.476;-6.557;5.215;-2.012
5445497.728;4.508;-2.682;19.222;-7.786;1.080;-5.364;5.960;-0.112
5445497.736;0.745;-5.327;14.938;-11.958;-1.527;-8.084;-0.373;0.112
5445497.744;-4.023;-13.523;3.837;-17.360;-10.319;-13.970;-9.388;-5.513
5445497.752;-4.582;-10.505;-2.161;-15.013;-9.984;-7.451;-4.694;1.006
5445497.703;1.974;-3.949;15.758;-10.096;-4.843;2.570;5.178;7.600
5445497.711;10.841;4.619;27.455;-0.671;1.192;11.809;12.405;16.317
5445497.719;14.007;10.058;22.240;3.129;7.711;8.605;10.952;12.703
5445497.727;20.675;17.695;28.200;9.574;12.368;5.290;11.101;8.643
5445497.735;17.919;18.999;25.146;13.635;3.949;-0.633;8.456;4.172
5445497.743;2.757;5.774;9.015;5.290;-12.517;-7.078;2.943;-2.794
5445497.751;21.830;18.962;19.222;11.921;8.978;6.817;17.025;7.972
5445497.759;36.582;32.634;39.786;21.569;22.314;17.546;24.289;16.950
5445497.767;29.467;26.189;40.047;15.646;15.832;12.666;16.540;14.380
5445497.775;28.610;28.014;44.145;17.397;18.701;16.615;18.924;16.987
5445497.783;41.015;38.967;48.876;25.816;25.705;25.257;27.865;24.997
5445497.791;40.606;36.657;43.102;21.979;18.887;20.415;24.065;19.968
5445497.799;29.616;28.424;39.712;12.331;10.580;13.597;18.403;12.964
5445497.807;41.723;36.098;52.266;22.575;19.707;23.618;29.653;21.644
5445497.815;51.968;43.474;61.058;30.324;30.771;30.436;36.322;27.902
5445497.823;47.386;40.419;59.456;27.902;26.636;25.779;31.404;24.512
5445497.831;31.106;25.854;44.219;15.646;13.374;13.486;18.105;13.523
5445497.839;30.473;26.003;45.225;14.752;8.829;13.150;18.477;15.199
5445497.847;31.292;26.934;41.127;17.658;8.158;14.789;24.140;17.211
5445497.855;33.230;24.550;51.297;19.148;14.901;22.799;35.018;29.579
5445497.863;41.910;29.802;60.014;17.583;12.256;11.772;23.693;20.340
5445497.871;29.132;23.395;50.254;17.136;8.531;-8.754;6.221;-8.382
5445497.879;47.795;42.319;64.857;30.436;21.122;7.413;19.856;4.098
5445497.887;57.556;54.389;74.394;46.752;31.292;12.480;23.246;10.282
5445497.868;51.782;49.919;73.686;45.784;28.349;12.815;22.501;11.139
5445497.876;47.162;46.454;68.881;41.127;19.707;15.981;25.630;14.156
5445497.884;69.067;67.353;93.058;64.597;41.686;37.700;46.492;37.141
5445497.892;77.263;73.165;103.973;73.612;55.321;48.131;56.326;47.386
5445497.900;75.251;72.122;105.612;74.133;53.383;60.797;66.012;63.330
5445497.908;63.479;62.548;95.740;60.089;39.488;47.386;50.217;51.111
5445497.916;80.802;75.214;104.234;75.102;50.329;43.251;51.223;41.611
5445497.924;97.714;94.101;127.517;97.491;70.632;65.118;73.276;63.330
5445497.932;97.975;90.636;122.972;93.058;68.657;66.310;70.557;68.955
5445497.940;114.851;106.692;143.237;112.467;83.447;73.873;77.076;75.251
5445497.948;117.905;113.733;143.163;118.576;85.458;85.533;88.364;88.103
5445497.956;120.476;118.911;144.430;123.419;86.315;88.550;89.146;95.107
5445497.964;113.063;109.561;140.555;114.962;84.899;81.174;81.770;92.499
5445497.972;116.415;108.406;147.969;116.341;92.834;85.868;82.254;111.647
5445497.980;127.032;120.029;159.815;128.448;104.681;96.522;91.977;128.783
5445497.988;125.170;117.458;154.413;125.654;96.709;89.183;85.086;120.029
5445497.996;126.287;118.129;156.276;125.766;96.485;92.424;87.433;124.313
5445498.004;127.666;119.619;159.778;127.889;96.709;90.525;86.538;121.370
5445498.012;128.187;122.190;159.740;133.552;95.069;86.837;85.458;114.106
5445498.020;133.589;123.382;160.374;132.211;97.118;89.258;87.060;118.129
5445498.028;136.979;127.964;170.209;137.314;106.804;92.946;87.880;122.115
5445498.036;141.189;127.815;178.441;141.673;109.449;96.075;92.126;124.015
5445498.044;149.272;132.546;188.202;143.871;114.031;102.594;99.391;130.907
5445498.052;151.135;142.343;192.262;149.831;118.241;104.681;100.695;132.509
5445498.063;150.688;143.424;193.380;152.253;121.333;106.804;102.483;135.675
5445498.071;145.845;136.793;183.135;144.392;110.380;107.549;100.508;137.426
5445498.079;146.180;137.947;189.357;142.157;115.931;95.107;89.034;121.742
5445498.087;158.660;147.857;188.276;152.737;116.788;100.397;96.895;123.270
5445498.095;162.944;150.092;196.621;158.437;117.458;103.451;101.812;126.250
5445498.103;172.071;156.537;215.545;165.254;134.334;114.180;112.616;135.340
5445498.111;182.874;164.732;222.512;171.848;140.704;124.127;120.699;146.702
5445498.119;190.586;177.436;224.002;181.496;143.275;130.944;127.703;154.488
5445498.127;177.026;165.217;204.258;173.375;128.075;117.756;116.564;139.996
5445498.135;185.221;175.908;219.792;184.849;136.197;124.387;119.992;148.043
5445498.143;202.619;184.216;240.542;191.815;154.227;138.804;134.371;164.397
5445498.151;196.472;178.814;239.909;182.725;150.762;133.589;129.938;160.150
5445498.159;184.998;168.979;229.739;174.381;141.673;120.327;122.041;142.306
5445498.167;186.041;165.850;229.031;170.246;139.847;104.532;110.492;126.958
5445498.175;189.133;166.483;228.472;169.985;138.618;88.997;89.929;116.862
5445498.183;183.471;161.566;223.704;165.105;132.397;89.407;86.576;117.533
5445498.191;196.584;175.871;238.456;182.502;142.343;112.616;107.177;138.991
5445498.199;214.837;196.882;256.374;204.667;163.987;142.902;135.750;163.577
5445498.207;226.423;207.350;268.817;212.751;179.149;157.468;151.619;174.940
5445498.215;240.393;220.649;283.569;226.796;192.560;176.467;172.257;193.082
5445498.223;249.371;226.088;293.851;231.080;201.501;190.027;184.067;209.697
5445498.231;242.740;216.514;284.798;219.867;190.325;187.010;179.484;207.238
5445498.239;221.767;200.048;263.788;206.828;169.426;161.603;154.264;183.396
5445498.247;227.690;202.432;259.317;208.542;162.013;136.979;131.764;159.852
5445498.262;224.262;203.140;261.329;208.803;161.901;138.693;134.818;160.150
5445498.270;234.246;203.960;267.588;207.312;175.834;143.573;136.420;171.103
5445498.278;241.995;208.095;281.818;208.952;184.141;149.198;139.587;176.281
5445498.286;233.650;201.240;284.724;208.281;182.763;148.714;139.736;174.902
5445498.294;229.515;202.693;280.887;213.273;180.602;158.884;152.290;188.090
5445498.302;219.569;188.127;250.414;196.323;162.572;150.539;144.951;186.153
5445498.310;218.116;179.783;253.171;185.706;155.568;140.145;132.397;180.677
5445498.318;219.606;186.749;264.384;194.758;161.603;134.632;127.591;176.393
5445498.326;203.811;182.651;252.984;196.956;158.586;126.995;123.158;169.240
5445498.334;214.279;183.731;257.865;196.621;162.348;114.478;112.019;157.021
5445498.342;224.561;189.990;272.579;197.999;167.824;123.344;120.848;167.601
5445498.350;199.340;164.025;242.107;170.246;134.036;107.661;107.288;146.739
5445498.358;227.094;193.343;268.258;203.215;165.962;142.902;139.065;181.049
5445498.366;229.925;192.411;267.141;203.513;166.632;141.747;135.787;188.500
5445498.374;192.150;157.952;233.538;173.375;136.383;95.926;94.883;137.240
5445498.382;170.209;137.091;212.677;154.376;116.676;78.343;75.549;120.215
5445498.390;147.074;113.882;196.472;130.720;93.021;57.630;50.478;101.477
5445498.398;124.499;91.977;167.377;105.537;66.571;37.253;28.498;84.303
5445498.406;124.164;91.568;163.764;108.071;65.379;50.627;45.523;102.036
5445498.414;96.671;61.393;143.722;83.596;45.151;22.165;19.856;65.230
5445498.422;77.896;46.752;125.989;67.353;24.922;-0.857;-7.264;42.617
5445498.430;96.373;65.863;144.728;84.974;37.923;17.285;11.623;62.548
5445498.438;101.067;64.857;136.942;85.160;32.000;2.049;-0.112;43.437
5445498.446;70.855;34.347;108.182;60.424;7.041;-14.789;-15.832;20.079
5445498.436;15.683;-16.689;54.426;12.740;-44.070;-53.830;-56.252;-13.970
5445498.444;-33.937;-69.775;9.425;-47.460;-87.023;-115.149;-121.929;-69.737
5445498.452;-46.268;-89.481;-5.513;-65.304;-110.306;-133.403;-141.487;-81.882
5445498.460;-95.367;-137.836;-53.830;-108.704;-164.397;-176.206;-184.588;-125.207
5445498.468;-141.598;-177.361;-96.150;-144.914;-204.034;-221.729;-232.160;-170.581
5445498.476;-152.923;-190.735;-113.137;-152.625;-215.210;-239.834;-246.838;-189.692
5445498.484;-181.049;-222.214;-137.798;-189.878;-242.852;-263.192;-272.654;-209.883
5445498.492;-260.510;-303.499;-215.583;-267.476;-318.997;-357.702;-366.569;-308.938
5445498.500;-262.186;-311.658;-225.119;-273.511;-325.143;-360.087;-368.319;-313.520
5445498.508;-297.725;-344.813;-263.639;-303.909;-361.018;-388.846;-400.580;-338.331
5445498.516;-374.168;-416.413;-334.159;-373.423;-439.622;-459.068;-470.132;-410.974
5445498.524;-409.335;-453.182;-366.271;-410.452;-474.192;-489.764;-504.814;-439.771
5445498.532;-445.582;-490.323;-405.982;-446.811;-508.130;-528.134;-546.463;-476.912
5445498.540;-448.450;-490.956;-415.444;-446.178;-512.600;-524.670;-543.967;-472.590
5445498.548;-492.558;-538.602;-458.471;-489.652;-555.962;-569.858;-589.825;-518.523
5445498.556;-520.237;-567.771;-488.870;-518.970;-585.429;-611.730;-630.356;-566.170
5445498.564;-506.416;-549.294;-478.588;-500.157;-578.351;-606.738;-629.090;-562.221
5445498.572;-506.788;-555.217;-478.625;-506.900;-578.053;-616.126;-637.993;-563.897
5445498.580;-533.275;-585.616;-508.800;-536.032;-605.769;-647.120;-662.021;-586.212
5445498.588;-587.143;-645.854;-570.193;-596.344;-662.468;-707.284;-714.138;-643.134
5445498.596;-618.212;-676.401;-599.734;-627.860;-691.786;-740.886;-747.331;-671.633
5445498.604;-643.283;-696.406;-620.335;-649.989;-714.660;-764.765;-768.267;-687.018
5445498.612;-667.535;-721.142;-646.301;-675.172;-738.576;-811.256;-809.059;-730.641
5445498.620;-710.562;-767.186;-690.371;-720.732;-781.976;-851.899;-849.962;-768.155
5445498.634;-696.518;-749.454;-680.536;-699.200;-769.868;-836.849;-831.671;-758.842
5445498.642;-598.580;-651.553;-584.275;-598.207;-674.650;-744.313;-738.986;-668.839
5445498.650;-630.058;-684.671;-609.159;-630.282;-698.119;-773.780;-772.327;-697.002
5445498.658;-623.763;-677.444;-604.279;-623.390;-692.084;-767.298;-767.559;-690.259
5445498.666;-638.776;-693.202;-618.771;-637.472;-705.943;-779.219;-779.964;-697.337
5445498.674;-650.734;-707.768;-633.262;-650.100;-716.560;-799.634;-798.479;-718.273
5445498.682;-643.767;-704.415;-624.359;-647.902;-707.954;-784.397;-780.709;-700.802
5445498.690;-644.550;-700.690;-625.737;-646.040;-709.221;-779.591;-773.333;-696.704
5445498.698;-647.344;-708.848;-632.666;-652.000;-709.817;-801.347;-792.071;-722.632
5445498.706;-639.036;-700.466;-620.410;-640.638;-691.935;-785.887;-781.268;-709.482
5445498.714;-656.098;-714.585;-637.956;-657.029;-704.713;-807.941;-801.198;-730.939
5445498.722;-686.459;-746.697;-674.836;-687.242;-742.935;-832.304;-821.128;-753.999
5445498.730;-672.787;-732.392;-665.709;-670.217;-729.039;-802.465;-791.661;-718.087
5445498.738;-634.938;-692.382;-618.100;-626.855;-686.720;-757.463;-748.709;-681.728
5445498.746;-627.488;-679.307;-611.842;-611.953;-671.484;-738.576;-729.002;-669.733
5445498.754;-647.418;-700.615;-624.545;-631.995;-688.732;-750.832;-739.694;-679.567
5445498.762;-664.294;-719.130;-649.840;-647.977;-709.482;-773.109;-759.736;-702.776
5445498.770;-662.357;-709.854;-643.879;-635.907;-702.068;-771.843;-757.761;-705.272
5445498.778;-620.186;-669.137;-600.256;-595.339;-659.041;-722.371;-710.562;-659.227
5445498.786;-633.188;-676.848;-610.054;-600.219;-671.484;-722.930;-709.929;-665.896
5445498.794;-646.338;-686.944;-621.304;-608.601;-685.602;-719.577;-707.246;-663.586
5445498.802;-652.745;-695.139;-624.284;-614.934;-690.855;-716.597;-705.533;-659.674
5445498.810;-658.482;-699.759;-627.935;-617.728;-693.053;-713.803;-701.621;-659.525
5445498.818;-625.290;-663.213;-588.782;-580.139;-657.253;-675.507;-662.245;-621.676
5445498.768;-610.314;-643.916;-570.454;-557.117;-642.464;-653.528;-639.111;-599.809
5445498.776;-590.272;-633.225;-555.404;-548.474;-630.766;-648.126;-633.337;-592.582
5445498.784;-583.529;-626.519;-541.657;-539.459;-612.363;-644.214;-629.947;-588.968
5445498.792;-583.977;-625.998;-535.846;-533.722;-608.414;-635.237;-622.347;-579.283
5445498.800;-578.538;-619.665;-530.034;-528.991;-603.572;-624.247;-612.177;-569.075
5445498.808;-564.866;-605.434;-515.990;-512.749;-586.286;-607.111;-592.209;-556.596
5445498.816;-555.217;-594.221;-505.224;-499.189;-577.047;-588.410;-574.030;-539.944
5445498.824;-552.423;-589.453;-502.244;-492.744;-575.818;-576.340;-561.662;-526.011
5445498.832;-550.523;-589.229;-498.109;-489.913;-574.403;-573.061;-557.229;-527.985
5445498.840;-528.246;-567.473;-474.565;-467.114;-545.494;-550.374;-532.903;-504.516
5445498.848;-522.584;-556.149;-467.934;-454.895;-538.640;-533.462;-513.606;-489.205
5445498.856;-524.260;-559.203;-471.547;-460.222;-541.061;-529.066;-510.439;-483.505
5445498.864;-524.782;-560.097;-467.859;-459.626;-539.720;-533.424;-516.139;-487.305
5445498.872;-496.879;-532.716;-440.441;-431.761;-510.328;-516.884;-498.146;-468.902
5445498.880;-474.267;-517.033;-413.805;-423.491;-488.684;-513.718;-495.017;-463.165
5445498.888;-446.737;-489.801;-387.765;-398.904;-465.550;-493.973;-474.676;-446.253
5445498.896;-433.028;-472.963;-374.615;-379.980;-454.038;-474.080;-454.038;-428.259
5445498.904;-425.093;-464.991;-364.147;-372.566;-443.235;-463.799;-444.055;-419.058
5445498.912;-413.693;-455.230;-350.289;-364.445;-428.855;-450.350;-429.973;-402.927
5445498.920;-396.408;-443.831;-334.680;-355.169;-413.470;-438.876;-417.493;-388.063
5445498.928;-365.637;-411.086;-302.456;-322.014;-382.960;-411.198;-387.691;-359.006
5445498.936;-366.643;-409.372;-305.027;-319.891;-387.542;-417.195;-390.336;-361.316
5445498.944;-357.330;-399.090;-297.949;-311.621;-379.570;-413.135;-383.966;-351.518
5445498.952;-332.966;-373.386;-275.522;-287.592;-356.957;-390.559;-361.875;-324.994
5445498.903;-310.205;-356.697;-250.414;-275.001;-332.892;-378.527;-349.060;-314.116
5445498.911;-288.188;-335.909;-221.990;-256.039;-304.095;-362.657;-333.861;-296.570
5445498.919;-260.212;-307.225;-193.864;-227.652;-276.268;-323.653;-296.086;-259.653
5445498.927;-242.442;-291.876;-181.794;-214.651;-265.501;-299.029;-272.132;-235.662
5445498.935;-218.637;-268.333;-158.511;-190.809;-244.118;-277.869;-251.047;-215.992
5445498.943;-195.056;-245.161;-128.448;-171.885;-218.377;-255.443;-228.323;-193.715
5445498.951;-161.156;-214.763;-97.156;-143.796;-187.047;-232.309;-202.544;-168.830
5445498.959;-131.689;-186.376;-68.396;-116.378;-158.623;-214.912;-181.422;-149.645
5445498.967;-103.042;-159.256;-40.159;-91.307;-131.689;-200.383;-163.130;-132.322
5445498.975;-71.786;-128.113;-10.617;-60.126;-100.918;-179.373;-140.294;-112.131
5445498.983;-59.195;-117.645;1.565;-51.521;-87.991;-172.183;-132.285;-104.606
5445498.991;-53.830;-114.478;5.551;-49.435;-85.644;-167.377;-126.846;-99.577
5445498.999;-34.831;-95.963;25.518;-28.722;-66.794;-141.338;-101.775;-78.008
5445499.007;-13.523;-73.202;47.572;-8.047;-48.950;-122.078;-83.074;-61.952
5445499.015;21.793;-34.720;82.254;28.983;-19.073;-97.230;-59.158;-39.078
5445499.023;68.247;17.732;128.821;77.859;24.587;-67.689;-30.175;-8.680
5445499.031;152.290;107.363;209.659;162.795;96.671;-10.915;22.948;49.695
5445499.039;249.222;212.379;296.906;264.421;173.412;49.137;81.658;107.065
5445499.047;300.519;266.209;341.907;312.775;208.616;77.076;109.598;129.417
5445499.055;336.058;307.448;372.566;351.667;229.441;99.093;131.652;147.708
5445499.063;362.359;335.500;395.589;376.776;247.322;122.711;156.239;169.165
5445499.071;384.487;355.281;414.290;391.938;265.613;142.641;176.504;184.253
5445499.079;395.067;364.929;419.691;395.924;271.425;152.141;185.259;189.617
5445499.087;398.420;363.588;419.356;394.844;274.554;161.007;193.976;198.930
5445499.113;393.242;357.032;414.178;387.989;277.124;169.352;203.140;209.920
5445499.121;389.107;349.991;406.243;375.547;277.944;182.167;215.545;229.776
5445499.129;380.687;340.939;395.104;371.486;271.536;187.866;222.549;234.544
5445499.137;361.577;315.383;374.503;345.595;257.939;179.037;213.869;223.368
5445499.145;357.591;303.388;366.159;331.178;258.535;190.660;228.062;234.619
5445499.153;363.067;308.491;369.884;337.362;267.811;215.210;251.085;261.627
5445499.161;350.736;295.043;357.330;323.690;263.415;222.065;257.231;267.029
5445499.169;336.505;279.285;343.546;307.374;251.867;227.280;260.137;269.487
5445499.177;315.532;254.884;321.791;282.079;234.880;219.047;249.371;260.100
5445499.185;341.609;276.975;343.807;303.164;261.813;253.320;278.801;291.094
5445499.193;340.641;274.740;341.348;299.588;264.123;252.053;273.585;289.381
5445499.201;331.104;264.160;330.843;285.059;258.014;246.726;271.983;279.509
5445499.209;321.828;254.475;319.257;277.981;248.700;248.961;275.336;272.989
5445499.217;352.524;286.028;348.240;311.173;281.371;296.943;321.083;315.420
5445499.225;356.287;289.045;349.171;316.352;286.363;314.266;338.629;336.133
5445499.233;348.464;281.222;336.803;308.566;275.448;316.314;342.205;331.886
5445499.241;347.644;280.440;333.078;310.317;275.411;315.458;339.560;332.408
5445499.249;356.473;288.785;340.007;318.363;286.885;327.192;348.687;348.352
5445499.257;364.184;294.521;348.687;320.897;298.843;333.413;352.859;354.275
5445499.265;355.057;282.563;339.784;306.070;292.696;328.794;347.905;349.320
5445499.273;363.179;290.424;345.483;312.440;301.376;339.597;356.920;362.918
5445499.281;366.978;294.112;345.372;318.661;304.133;346.154;365.153;368.580
5445499.289;376.776;304.878;352.822;329.986;310.615;353.754;374.056;379.235
5445499.297;367.202;293.925;341.460;317.320;306.666;334.419;356.510;359.267
5445499.297;359.155;284.165;328.831;305.995;293.665;315.383;340.492;334.382
5445499.305;425.316;350.140;390.559;372.902;356.361;379.458;402.667;395.551
5445499.313;421.181;346.564;385.121;367.314;354.424;376.552;396.743;396.520
5445499.321;422.746;349.320;384.450;370.853;356.473;368.096;389.852;388.585
5445499.329;431.798;358.447;391.603;377.148;367.835;369.810;394.322;391.453
5445499.337;437.498;365.041;395.067;384.413;376.105;373.758;399.575;399.463
5445499.345;410.415;336.841;365.973;352.040;351.220;355.504;380.836;383.668
5445499.353;411.980;339.411;364.222;359.267;354.424;359.677;387.281;387.132
5445499.361;412.464;338.741;361.539;356.026;355.765;364.073;390.224;392.571
5445499.369;403.561;328.757;351.891;341.944;350.997;366.904;389.107;391.155
5445499.377;411.049;340.007;357.218;358.038;359.528;377.819;397.488;400.953
5445499.385;390.485;321.791;334.568;341.237;341.684;368.208;386.909;392.050
5445499.393;381.023;313.036;321.679;337.139;331.253;358.112;381.544;375.472
5445499.401;397.898;328.757;338.927;355.616;352.897;385.642;405.051;405.014
5445499.409;403.486;332.445;345.111;355.914;369.623;399.686;415.966;421.554
5445499.417;398.308;332.817;335.835;362.843;361.279;400.059;419.840;411.123
5445499.425;446.029;382.774;381.358;415.891;409.707;458.770;477.098;469.126
5445499.433;451.319;387.169;384.636;421.070;415.184;462.010;481.568;469.238
5445499.441;411.607;347.421;342.019;381.172;375.733;425.279;446.513;427.663
5445499.449;410.005;346.079;339.560;379.980;377.670;425.689;445.805;431.165
5445499.457;399.649;335.127;328.496;366.680;368.170;411.384;429.302;423.230
5445499.465;423.789;359.230;351.556;392.459;392.497;434.108;448.525;445.060
5445499.473;403.225;338.070;329.129;368.357;372.007;421.740;436.977;428.706
5445499.481;398.308;332.557;325.106;361.875;367.388;415.668;432.022;423.938
5445499.489;410.788;344.366;340.380;373.349;382.811;420.958;439.174;429.824
5445499.497;392.646;326.522;323.318;354.350;367.202;397.749;418.909;406.131
5445499.505;407.770;343.435;339.225;369.288;382.364;413.731;434.518;424.273
5445499.513;437.126;372.306;367.127;395.812;408.627;440.367;460.073;453.927
5445499.548;418.499;352.152;346.825;372.082;386.387;418.685;438.467;426.471
5445499.556;414.252;345.781;344.552;361.837;383.519;414.066;434.034;421.181
5445499.564;434.071;366.010;362.992;383.146;402.480;430.010;449.680;439.473
5445499.572;422.895;355.467;352.561;368.692;392.124;420.101;440.478;431.724
5445499.580;416.450;346.228;347.644;354.946;389.107;409.968;432.916;424.981
5445499.588;458.397;388.399;387.914;397.563;428.073;437.610;463.128;455.305
5445499.596;460.446;389.442;391.416;397.451;428.632;428.371;453.554;447.296
5445499.604;442.304;370.666;375.733;374.876;412.613;406.317;430.234;426.695
5445499.612;437.349;365.898;372.864;367.537;413.917;404.380;426.993;423.230
5445499.620;428.706;356.697;363.514;355.840;407.659;394.210;420.697;412.762
5445499.628;417.903;348.166;354.275;345.856;395.812;387.877;415.631;408.739
5445499.636;413.358;345.446;350.624;339.709;387.505;383.221;412.129;403.970
5445499.644;407.286;339.113;342.987;330.396;380.874;374.019;403.598;397.190
5445499.652;404.902;338.182;338.741;327.565;378.080;370.704;399.835;394.247
5445499.660;405.498;338.666;339.001;326.037;378.527;370.666;399.165;394.173
5445499.668;403.337;336.021;337.772;321.195;373.237;365.935;393.391;388.101
5445499.676;389.032;319.406;324.696;297.315;359.602;355.579;381.805;379.980
5445499.684;388.846;321.604;323.988;298.955;357.181;361.800;389.591;383.332
5445499.692;402.257;337.884;337.027;315.085;371.858;377.707;406.429;397.265
5445499.700;378.899;314.899;315.905;287.890;351.109;351.183;384.003;374.466
5445499.708;367.090;301.674;306.033;273.064;341.758;333.078;367.649;362.545
5445499.716;364.073;297.576;303.276;265.427;334.457;322.908;358.187;355.914
5445499.724;374.243;307.746;314.079;271.387;342.838;325.888;361.390;353.344
5445499.732;374.876;309.721;318.065;270.419;347.234;326.931;362.620;354.312
5445499.699;355.132;289.865;299.327;248.998;325.777;302.084;340.864;331.141
5445499.707;366.345;301.525;312.030;256.039;335.500;309.311;348.724;337.549
5445499.715;353.344;288.785;300.631;240.467;321.977;296.757;334.866;327.714
5445499.723;339.486;273.325;287.965;223.480;306.554;282.191;320.449;314.377
5445499.731;341.572;275.187;291.057;223.108;306.293;280.887;322.573;312.142
5445499.739;334.345;268.631;284.426;216.886;301.339;272.244;315.718;299.960
5445499.747;318.624;254.586;269.078;202.097;285.543;259.243;301.003;285.879
5445499.755;321.902;253.618;274.293;193.454;290.647;261.627;302.494;292.137
5445499.763;320.747;251.085;273.250;191.554;284.277;252.761;292.063;282.638
5445499.771;330.359;261.739;281.818;202.172;289.418;261.515;297.986;293.180
5445499.779;314.638;244.528;265.241;182.986;272.952;245.497;283.681;280.961
5445499.787;314.005;244.118;265.688;182.949;272.281;249.296;286.438;287.220
5445499.795;316.463;250.153;265.688;192.896;269.487;251.569;287.965;285.618
5445499.803;323.467;254.996;273.176;187.419;277.050;256.002;294.894;285.506
5445499.811;327.379;259.727;277.981;189.655;281.371;257.529;297.837;282.191
5445499.819;306.815;241.771;252.426;174.455;250.302;230.893;270.046;259.206
5445499.827;308.268;243.336;252.798;173.710;251.159;237.599;272.281;267.103
5445499.835;291.206;226.907;237.487;155.605;238.493;213.645;249.520;242.591
5445499.843;276.305;209.138;225.157;136.048;228.584;187.755;223.517;215.247
5445499.851;291.057;224.933;240.467;151.880;242.703;210.218;246.018;232.346
5445499.859;318.587;250.824;265.799;176.728;266.992;243.671;281.408;261.106
5445499.867;307.709;240.393;253.357;165.887;255.294;233.389;271.350;247.732
5445499.875;303.537;236.370;248.365;160.821;251.010;224.262;259.876;243.187
5445499.883;289.865;222.698;235.029;146.292;239.722;213.161;247.508;234.358
5445499.863;312.254;246.242;254.065;171.810;258.982;237.674;271.015;257.269
5445499.871;352.487;285.022;293.031;210.814;298.433;272.095;306.554;294.298
5445499.879;334.233;264.943;274.517;189.207;282.489;239.760;272.952;267.588
5445499.887;314.713;246.391;258.721;169.352;266.954;207.424;243.708;231.117
5445499.895;319.630;250.265;262.558;174.306;273.585;210.069;243.299;233.389
5445499.903;315.830;244.677;256.263;168.048;272.319;208.169;240.579;229.441
5445499.911;292.733;224.076;232.197;148.863;248.998;191.778;222.623;213.906
5445499.919;342.131;276.268;280.254;205.450;295.155;257.008;282.153;283.495
5445499.927;390.075;324.883;329.763;256.337;347.793;315.420;340.641;331.067
5445499.935;403.225;340.343;342.615;273.697;364.818;340.566;370.219;349.134
5445499.943;374.727;312.515;314.824;248.477;341.758;323.877;346.750;341.050
5445499.951;393.391;331.253;332.594;266.917;363.961;345.036;369.810;364.818
5445499.959;412.241;353.120;350.922;289.977;383.332;367.649;391.305;386.685
5445499.967;394.285;335.947;329.651;275.895;364.818;339.672;358.224;366.010
5445499.975;399.239;340.417;333.935;283.495;374.354;355.169;373.125;387.058
5445499.983;407.286;348.911;342.242;298.731;391.342;369.512;386.275;399.873
5445499.991;410.266;354.350;342.317;309.311;395.328;369.251;384.971;399.351
5445499.999;400.878;346.526;329.167;300.780;389.069;375.621;389.516;399.724
5445500.007;376.143;324.063;298.358;280.328;364.408;349.507;360.832;373.200
5445500.015;358.894;307.448;276.193;264.235;342.093;334.904;346.228;365.004
5445500.023;403.263;353.158;318.885;311.583;393.912;380.576;392.273;405.274
5445500.031;400.394;352.114;309.758;310.801;394.881;377.409;387.914;405.125
5445500.039;395.514;348.687;297.427;308.119;390.559;374.429;385.009;405.535
5445500.047;389.405;343.360;284.538;304.505;385.195;376.590;384.971;410.117
5445500.072;368.059;323.057;257.641;286.587;364.631;361.018;365.339;395.514
5445500.080;364.520;320.040;252.314;285.469;365.265;359.863;358.932;395.812
5445500.088;348.315;302.233;233.389;264.458;350.848;343.174;338.145;376.850
5445500.096;378.639;335.090;262.372;296.459;384.748;376.739;369.251;402.965
5445500.104;358.634;318.885;239.871;282.861;365.637;360.012;350.513;383.183
5445500.112;351.071;313.148;231.564;277.497;358.187;351.332;339.560;375.509
5445500.120;387.505;350.028;265.427;312.179;392.981;382.289;368.245;410.415
5445500.128;387.691;348.538;263.639;307.038;394.583;364.147;350.811;398.867
5445500.136;386.238;349.134;260.361;309.050;393.577;352.450;338.666;393.167
5445500.144;385.791;348.575;258.833;306.331;395.328;342.280;330.657;386.313
5445500.152;378.080;345.148;249.855;305.921;385.791;331.141;319.928;374.131
5445500.160;402.145;374.243;272.654;332.035;402.369;332.072;318.177;371.262
5445500.168;416.636;392.012;288.002;342.242;409.670;319.816;305.474;355.914
5445500.176;439.286;420.548;308.082;365.376;423.081;320.002;304.021;349.693
5445500.184;482.649;467.710;352.785;402.369;459.328;335.611;317.544;362.247
5445500.192;506.416;492.781;376.292;420.362;473.075;331.774;317.730;352.152
5445500.200;493.489;480.786;363.626;405.163;455.342;306.293;292.733;321.455
5445500.208;478.141;464.059;348.501;384.748;437.498;281.893;269.637;294.447
5445500.216;469.908;455.976;341.758;377.521;425.577;279.881;267.960;291.169
5445500.224;452.921;436.306;325.888;359.528;414.029;284.947;272.766;294.112
5445500.232;409.335;389.963;285.618;314.340;380.725;265.427;251.904;271.164
5445500.240;405.572;385.530;289.306;316.016;381.880;280.887;265.948;281.744
5445500.248;369.847;349.134;254.661;285.134;346.415;257.008;243.634;254.028
5445500.256;335.723;313.632;221.580;250.936;311.546;242.256;228.919;240.505
5445500.224;318.885;291.653;208.765;227.354;301.637;242.330;230.186;237.823
5445500.232;306.368;276.342;198.707;215.396;290.424;236.183;225.082;230.670
5445500.240;272.617;242.293;170.432;183.769;258.386;217.892;205.599;213.161
5445500.248;266.433;234.805;170.916;176.728;254.996;217.445;207.610;213.832
5445500.256;246.093;214.577;155.158;158.362;235.252;210.516;198.334;202.395
5445500.264;236.742;205.562;151.061;151.731;224.486;212.118;196.099;197.254
5445500.272;223.592;191.852;142.194;139.251;212.006;202.470;187.606;188.053
5445500.280;231.341;198.260;155.419;145.808;221.804;215.657;203.401;201.613
5445500.288;206.828;170.432;137.612;115.484;198.260;194.348;185.631;180.826
5445500.296;194.125;159.256;130.087;108.406;184.476;195.205;183.918;184.402
5445500.304;176.169;141.077;114.366;92.760;162.274;179.932;175.573;166.148
5445500.312;186.749;149.757;128.224;101.961;174.046;183.769;183.657;171.475
5445500.320;184.961;146.590;129.789;98.683;173.599;163.205;160.597;155.866
5445500.328;180.714;140.294;129.081;92.238;167.787;156.797;155.978;149.049
5445500.336;155.568;116.602;105.575;69.402;139.438;131.465;130.273;123.233
5445500.344;173.301;134.520;125.989;88.885;159.554;155.270;153.482;147.112
5445500.352;202.768;163.056;154.600;118.613;186.861;190.884;189.207;183.657
5445500.360;213.385;171.289;167.154;122.637;195.950;212.081;210.516;203.475
5445500.368;213.645;172.555;170.171;125.393;196.956;208.169;210.069;199.303
5445500.376;231.527;191.443;188.723;145.920;213.571;217.073;218.898;210.181
5445500.384;243.708;202.879;200.011;157.692;221.021;227.243;227.317;221.133
5445500.392;238.456;197.254;194.460;155.307;216.588;214.241;212.193;208.020
5445500.400;239.797;197.925;197.031;158.362;219.829;217.706;212.863;210.255
5445500.408;259.317;215.732;218.004;175.610;240.952;226.796;221.916;221.580
5445500.449;250.526;206.903;207.908;169.575;227.727;223.145;217.296;218.488
5445500.457;264.198;220.463;221.580;187.457;242.144;240.766;234.097;236.928
5445500.465;262.484;217.259;216.216;185.743;237.264;239.238;230.856;237.077
5445500.473;253.655;206.083;205.748;175.759;231.154;236.556;227.503;233.985
5445500.481;314.154;266.880;264.458;239.313;291.467;297.725;291.280;290.461
5445500.489;370.182;325.628;314.675;303.760;342.242;358.745;349.432;349.134
5445500.497;332.519;288.226;274.442;269.413;304.282;322.536;309.981;310.838
5445500.505;332.631;286.698;272.579;270.382;305.027;319.667;306.591;305.399
5445500.513;315.309;269.860;254.735;255.927;290.312;306.442;293.180;290.200
5445500.521;338.294;291.690;276.938;279.099;316.203;323.467;309.795;306.703
5445500.529;325.963;278.577;261.143;265.762;302.419;307.076;290.088;291.541
5445500.537;334.233;289.194;263.900;276.864;304.431;321.604;301.339;308.715
5445500.545;354.312;312.328;283.159;304.207;326.075;339.523;318.773;325.851
5445500.553;313.260;272.766;238.717;266.284;285.842;291.429;269.860;275.970
5445500.561;269.264;227.988;190.139;220.835;241.920;249.818;228.770;236.668
5445500.569;314.303;276.491;229.515;277.385;286.363;297.502;278.465;276.528
5445500.577;324.473;284.500;241.138;289.567;307.709;319.555;297.353;296.533
5445500.585;339.933;297.464;255.294;303.723;332.668;340.007;319.220;311.844
5445500.593;317.395;271.983;230.037;276.789;319.444;326.596;303.686;298.731
5445500.601;296.347;245.757;210.665;248.440;315.495;308.864;283.532;287.108
5445500.609;260.025;204.518;177.324;205.450;295.267;275.150;246.502;259.094
5445500.617;294.186;235.923;211.410;232.123;338.964;307.262;278.614;290.722
5445500.625;280.887;221.245;194.758;213.720;326.484;298.917;271.574;276.826
5445500.633;245.012;185.296;155.866;177.063;293.143;277.571;248.626;259.317
5445500.614;241.958;183.955;149.719;174.865;289.343;276.640;248.253;258.908
5445500.622;245.348;190.027;150.539;177.659;290.647;284.500;252.128;266.135
5445500.630;247.657;196.993;148.974;183.433;286.214;292.584;258.349;274.107
5445500.638;267.141;216.700;167.564;200.123;303.909;313.893;275.970;295.341
5445500.646;257.790;207.648;156.686;190.586;294.670;306.554;260.919;281.706
5445500.654;278.503;227.615;175.759;206.754;314.936;316.054;270.531;288.971
5445500.662;286.661;236.556;182.241;214.614;323.690;313.483;267.886;285.469
5445500.670;277.646;226.758;174.157;204.146;317.059;296.123;249.147;273.362
5445500.678;261.590;210.553;156.388;187.643;297.017;275.932;226.796;255.592
5445500.686;249.781;199.825;146.143;176.355;284.761;272.021;224.523;252.202
5445500.694;245.012;196.621;141.747;172.816;279.322;270.978;227.466;253.506
5445500.702;234.023;187.531;132.471;161.678;271.909;262.149;221.394;243.001
5445500.710;218.526;173.226;121.370;147.559;260.547;247.657;209.734;231.080
5445500.718;224.523;180.379;128.672;153.407;265.129;250.116;212.044;235.401
5445500.726;189.096;146.851;90.897;118.352;222.027;215.136;175.498;195.168
5445500.734;180.602;140.667;82.664;109.188;210.777;198.856;161.566;181.235
5445500.742;190.549;152.029;94.734;117.719;221.320;213.794;177.771;194.684
5445500.750;174.418;135.526;80.429;96.411;205.003;205.673;170.581;183.955
5445500.758;162.758;125.617;71.079;86.986;190.623;193.529;160.187;174.530
5445500.766;163.205;128.001;72.271;89.519;191.219;193.827;160.709;175.796
5445500.774;150.427;116.229;60.014;76.257;176.616;180.714;150.912;162.199
5445500.782;139.065;105.314;51.036;64.149;162.348;171.810;144.877;153.221
5445500.790;159.666;125.095;77.151;81.360;183.731;182.055;157.207;166.669
5445500.798;151.917;117.347;72.867;70.557;172.928;164.509;140.704;153.556
5445500.809;170.730;138.208;90.525;90.785;184.290;179.447;157.803;168.793
5445500.817;157.952;126.846;77.970;78.455;167.303;159.964;144.467;149.123
5445500.825;152.625;120.960;76.890;70.222;164.062;152.551;139.773;136.346
5445500.833;152.551;120.141;80.876;68.955;162.236;153.072;139.996;140.183
5445500.841;144.653;112.243;77.784;58.077;151.768;144.057;131.950;132.918
5445500.849;137.947;106.879;76.294;54.017;143.610;140.034;126.846;131.652
5445500.857;150.166;117.868;92.834;61.207;154.786;151.023;140.890;146.069
5445500.865;164.881;132.844;110.194;74.878;167.079;169.054;158.101;159.182
5445500.873;133.701;101.514;83.186;44.219;135.526;129.640;119.098;117.831
5445500.881;123.270;90.376;78.864;32.671;128.523;108.145;99.428;100.248
5445500.889;126.027;92.834;85.980;33.714;130.571;105.500;98.906;97.677
5445500.897;112.653;80.764;73.947;17.583;111.535;91.791;86.054;87.284
5445500.905;102.185;70.035;63.516;4.210;96.522;75.996;65.640;72.867
5445500.913;144.206;112.616;105.649;45.672;137.724;111.610;101.253;107.288
5445500.921;163.876;134.483;125.729;64.895;154.003;131.316;125.542;125.729
5445500.929;189.058;162.087;149.496;91.493;171.810;156.835;156.723;148.565
5445500.937;181.869;156.537;143.424;84.788;163.577;135.005;126.250;136.048
5445500.945;164.695;141.673;129.975;68.620;147.708;107.251;95.926;102.147
5445500.953;190.809;173.971;157.282;102.036;170.395;125.617;113.882;119.433
5445500.961;214.092;202.432;182.539;126.325;191.182;136.569;126.325;134.520
5445500.969;275.485;266.321;250.265;178.479;254.661;158.995;149.012;153.705
5445500.977;300.817;293.702;277.236;195.168;275.075;158.288;147.112;153.035
5445500.985;322.945;317.097;302.568;210.628;294.149;154.711;146.106;150.390
5445500.993;348.613;340.194;334.568;225.641;324.734;152.476;144.728;149.272
5445501.003;349.097;337.809;338.405;219.531;328.571;140.220;133.403;137.836
5445501.011;388.846;372.939;377.670;252.761;370.033;184.700;176.355;181.720
5445501.019;374.429;353.828;359.416;232.831;359.602;177.883;168.495;178.851
5445501.027;329.278;307.783;314.638;192.747;315.681;152.327;141.151;149.161
5445501.035;350.103;327.118;333.823;216.439;335.537;186.078;176.169;178.441
5445501.043;352.748;328.682;330.806;224.225;343.360;209.287;201.091;198.819
5445501.051;360.943;338.703;333.525;242.442;357.293;242.703;232.533;231.117
5445501.059;313.707;289.157;285.618;194.013;316.687;219.531;207.722;207.536
5445501.067;277.758;256.076;243.559;169.948;281.036;204.705;191.033;192.672
5445501.075;280.105;258.163;241.287;173.710;286.512;233.091;220.276;220.537
5445501.083;239.499;218.377;196.658;140.108;246.875;204.854;188.202;197.142
5445501.091;223.704;200.048;181.347;128.448;240.169;195.689;181.124;188.276
5445501.099;227.727;205.487;185.259;144.206;248.253;204.556;191.852;198.744
5445501.107;164.397;139.810;123.829;76.294;190.549;147.857;131.764;139.363
5445501.115;181.161;158.511;138.655;98.720;211.038;182.167;160.523;167.564
5445501.123;193.156;174.344;148.714;124.425;224.113;207.610;185.035;180.528
5445501.131;166.483;147.410;120.252;102.557;195.876;188.239;165.589;157.654
5445501.139;191.107;171.885;142.604;130.460;225.864;218.675;196.472;188.053
5445501.147;183.694;164.844;134.334;129.566;221.580;221.469;200.309;194.199
5445501.155;166.222;147.372;114.776;117.309;206.493;213.198;191.703;193.007
5445501.163;142.083;125.356;87.246;97.789;183.955;198.446;177.622;181.422
5445501.171;133.961;118.427;78.231;89.183;179.857;202.246;182.353;184.141
5445501.179;126.921;111.200;67.763;81.323;172.108;181.980;164.732;162.646
5445501.187;114.702;98.534;51.074;71.079;153.892;161.193;141.226;141.114
5445501.228;120.252;104.383;53.681;76.666;156.127;168.383;147.931;154.264
5445501.236;143.349;131.652;75.400;108.592;179.671;196.695;176.020;182.018
5445501.244;153.631;144.802;85.123;126.921;189.506;223.741;198.930;206.791
5445501.252;126.772;119.284;56.438;102.594;161.901;203.438;173.301;190.586
5445501.260;136.420;129.677;65.565;112.876;173.822;211.336;174.791;204.369
5445501.268;123.642;115.819;51.297;97.714;160.597;191.107;153.035;187.531
5445501.276;95.181;84.899;23.656;68.322;134.818;156.499;118.650;150.576
5445501.284;92.313;80.876;22.091;65.565;132.173;155.009;115.596;144.839
5445501.292;110.306;98.608;39.600;83.447;149.384;171.736;133.738;160.038
5445501.300;118.650;106.245;49.621;95.926;159.219;175.536;142.530;158.623
5445501.308;122.041;108.890;55.991;100.955;164.770;175.200;146.292;154.972
5445501.316;105.575;90.972;40.047;81.845;150.315;161.640;133.701;141.002
5445501.324;98.124;84.601;31.888;78.268;142.716;160.336;130.087;141.859
5445501.332;82.962;71.041;14.752;68.285;125.766;146.776;113.808;131.950
5445501.340;77.561;66.012;8.941;65.416;118.762;140.294;104.569;131.913
5445501.348;80.019;69.402;10.803;69.812;119.284;135.154;102.334;129.789
5445501.356;84.080;75.474;14.119;78.082;122.376;131.093;100.508;124.015
5445501.364;73.612;67.055;1.565;72.569;109.486;118.315;90.338;106.692
5445501.372;73.202;69.328;0.075;77.300;104.718;113.100;84.303;99.428
5445501.380;69.775;67.800;-6.370;77.747;94.213;107.102;74.320;90.525
5445501.388;66.757;61.803;-6.966;68.024;93.244;111.982;77.970;92.685
5445501.396;55.544;45.821;-9.760;49.509;95.144;92.797;61.244;70.632
5445501.404;67.726;57.369;7.264;60.201;116.676;108.369;77.449;80.280
5445501.412;87.582;74.618;32.708;75.884;146.478;133.738;102.855;106.469
5445501.458;77.486;61.207;28.983;61.169;146.255;127.517;94.771;108.555
5445501.466;52.601;34.384;10.692;31.479;130.646;103.936;72.829;82.627
5445501.474;29.877;8.270;-5.625;2.757;116.639;80.764;49.658;60.834
5445501.482;21.346;-2.123;-8.829;-7.898;114.255;77.970;45.747;55.209
5445501.490;9.499;-14.491;-17.285;-19.036;106.283;70.073;37.663;46.156
5445501.498;5.700;-20.638;-16.429;-29.244;107.400;74.469;40.568;50.254
5445501.506;12.405;-15.795;-3.316;-26.450;118.911;82.888;51.670;58.524
5445501.514;-9.611;-38.184;-23.469;-48.503;96.224;66.273;37.774;38.520
5445501.522;-7.637;-34.086;-21.867;-44.778;94.064;72.941;46.268;44.852
5445501.530;-29.989;-54.836;-41.276;-63.553;69.626;51.968;23.618;25.965
5445501.538;-73.090;-100.508;-78.604;-107.214;28.312;9.872;-23.060;-10.915
5445501.546;-89.258;-117.049;-92.722;-121.370;8.829;-8.456;-36.471;-30.212
5445501.554;1.453;-23.209;-2.868;-25.481;89.593;81.547;62.063;51.297
5445501.562;64.634;43.586;59.865;43.809;144.169;147.708;129.044;108.778
5445501.570;11.064;-10.803;10.841;-11.548;88.923;92.611;68.508;54.166
5445501.578;28.796;5.886;32.671;5.290;102.893;106.953;84.601;70.222
5445501.586;8.419;-17.360;15.721;-21.346;78.417;80.131;62.287;48.093
5445501.594;-10.431;-37.961;-1.192;-43.325;58.226;55.283;37.514;27.046
5445501.602;8.643;-17.285;18.626;-20.601;74.133;80.578;63.442;52.229
5445501.610;13.299;-13.225;26.003;-15.236;77.039;79.572;59.009;57.034
5445501.618;7.972;-18.403;20.415;-18.030;64.634;62.138;45.262;38.631
5445501.626;-36.731;-64.559;-24.438;-62.957;15.236;23.544;11.586;-0.224
5445501.634;-26.301;-56.028;-11.474;-53.383;26.599;33.565;21.905;10.543
5445501.642;-1.267;-31.181;18.068;-28.163;55.172;50.664;42.208;26.599
5445501.722;-11.325;-40.419;10.133;-35.800;44.033;46.343;34.235;22.240
5445501.730;0.037;-27.120;18.887;-18.477;50.701;56.699;38.482;35.241
5445501.738;61.728;36.545;76.294;47.758;106.506;115.596;100.546;86.837
5445501.746;81.994;60.350;94.548;74.208;119.321;139.065;125.729;106.916
5445501.754;53.719;34.235;65.677;50.478;87.582;116.751;104.085;83.037
5445501.762;36.396;17.099;49.397;34.049;71.861;98.348;85.793;67.204
5445501.770;39.600;21.495;51.893;41.127;73.910;97.603;84.341;69.402
5445501.778;49.733;32.261;59.195;53.197;80.317;109.114;93.393;80.690
5445501.786;21.383;4.955;28.051;26.785;46.082;78.306;59.642;52.899
5445501.794;16.168;1.676;21.905;26.412;38.631;73.835;51.595;47.609
5445501.802;9.723;-0.820;11.697;26.934;29.765;77.188;56.103;48.578
5445501.810;48.541;32.336;56.885;56.401;81.733;119.805;98.497;93.691
5445501.818;79.125;57.109;91.754;82.813;122.115;135.936;118.911;105.090
5445501.826;53.607;30.249;69.328;56.140;106.879;113.882;97.454;84.415
5445501.834;3.688;-21.979;20.936;0.671;67.353;71.675;53.681;47.609
5445501.842;24.438;-3.092;42.245;18.142;94.585;88.364;70.035;67.763
5445501.850;67.540;35.614;87.321;54.426;145.920;133.254;113.659;113.994
5445501.858;33.155;-1.676;52.303;16.913;116.043;100.918;81.100;77.374
5445501.866;20.452;-14.417;39.078;6.855;105.314;91.419;67.949;65.379
5445501.874;2.161;-32.671;23.767;-12.964;94.697;91.158;62.175;60.722
5445501.882;-42.580;-76.965;-20.228;-59.903;56.587;51.372;14.454;18.850
5445501.890;-65.640;-100.657;-43.809;-85.905;39.302;12.666;-21.979;-21.495
5445501.898;-24.997;-57.630;-10.170;-42.878;72.010;65.193;33.714;26.934
5445501.906;40.308;12.070;48.131;32.261;130.758;134.073;105.388;94.697
5445501.932;21.495;-5.253;26.673;16.168;112.914;115.931;85.197;74.543
5445501.940;-24.550;-49.062;-22.762;-26.152;67.875;68.769;32.932;27.977
5445501.948;-13.560;-33.602;-15.944;-9.164;77.412;83.707;44.107;41.910
5445501.956;39.265;23.618;31.292;48.615;122.748;153.780;112.914;105.649
5445501.964;21.644;9.015;9.760;34.608;102.445;147.782;102.706;99.763
5445501.972;15.870;4.619;0.782;29.877;96.671;140.704;90.599;96.820
5445501.980;2.421;-8.494;-15.721;11.474;81.509;115.037;63.293;74.469
5445501.988;18.105;5.886;-0.037;23.469;96.783;113.808;62.548;81.062
5445501.996;-5.849;-16.727;-23.320;-0.447;75.214;86.948;34.906;59.754
5445502.004;6.743;-0.820;-13.672;15.087;82.739;99.838;49.211;70.296
5445502.012;-21.681;-25.369;-43.809;-10.729;49.397;73.798;26.822;39.786
5445502.020;-13.076;-14.715;-35.949;-3.017;56.587;77.710;32.149;45.039
5445502.028;-26.114;-24.661;-47.572;-12.033;42.729;58.897;17.583;30.994
5445502.036;-37.812;-32.745;-60.275;-24.624;26.114;46.976;10.729;18.962
5445502.044;-16.093;-7.041;-39.488;-1.080;43.437;68.508;35.465;42.357
5445502.052;-10.245;-3.763;-25.928;-2.831;59.344;69.179;36.694;46.417
5445502.060;-18.440;-13.188;-26.487;-16.019;60.238;60.983;29.318;37.663
5445502.068;-41.872;-37.327;-42.357;-44.405;44.070;42.059;10.803;18.887
5445502.076;-11.846;-6.445;-10.133;-18.068;74.506;66.720;39.302;43.176
5445502.084;-11.325;-5.104;-7.637;-22.426;74.729;55.395;32.671;35.837
5445502.092;-6.817;0.000;1.825;-21.048;81.621;64.410;40.978;48.652
5445502.100;-22.985;-17.472;-10.505;-42.990;66.310;49.919;27.120;34.608
5445502.108;-32.708;-26.859;-17.472;-55.581;56.699;42.766;18.068;27.716
5445502.116;-28.349;-24.177;-7.674;-55.693;65.044;42.133;16.876;29.653
5445502.158;-33.900;-31.702;-8.084;-67.651;60.350;41.984;14.901;28.387
5445502.166;-38.669;-36.433;-10.803;-73.910;54.799;36.508;9.947;23.693
5445502.174;-51.521;-48.690;-21.867;-88.736;41.761;22.054;-5.141;14.678
5445502.182;-28.685;-23.432;0.820;-62.659;58.562;41.649;13.262;35.353
5445502.190;8.270;15.609;37.327;-24.699;91.717;72.680;46.566;64.448
5445502.198;-64.857;-56.550;-36.508;-96.634;13.933;3.278;-26.524;-5.774
5445502.206;-41.090;-30.324;-16.466;-66.124;26.189;26.077;-0.782;9.984
5445502.214;3.576;13.933;27.232;-25.220;65.602;76.741;52.452;63.740
5445502.222;5.662;18.701;27.716;-22.240;61.952;83.074;58.934;74.245
5445502.230;-17.844;-1.825;2.757;-41.276;31.292;50.031;26.487;37.774
5445502.238;10.505;29.095;30.734;-9.537;58.524;73.984;49.882;61.020
5445502.246;10.133;29.765;29.318;-8.121;56.066;70.594;44.554;60.312
5445502.254;22.948;41.910;41.202;3.874;63.777;79.013;51.968;76.033
5445502.262;-5.476;14.417;14.119;-23.432;33.751;46.156;18.924;49.993
5445502.270;-11.586;9.052;8.047;-28.946;23.320;42.170;17.621;46.939
5445502.278;-34.049;-13.523;-16.019;-54.464;-4.880;19.409;-1.639;23.656
5445502.286;-36.322;-14.231;-16.093;-55.917;-7.786;17.472;-3.465;24.550
5445502.294;2.310;24.475;24.512;-17.770;28.163;40.010;21.793;46.492
5445502.302;-6.594;15.087;16.689;-30.324;14.789;25.332;8.568;31.851
5445502.310;4.768;27.642;29.206;-19.222;25.406;41.276;24.289;49.099
5445502.318;22.203;48.876;45.113;5.551;36.210;74.208;57.593;74.618
5445502.326;21.197;45.858;53.272;2.868;48.093;61.877;47.050;57.407
5445502.334;46.641;66.012;87.917;14.231;85.868;78.268;63.367;77.970
5445502.342;43.027;60.610;90.040;5.998;90.338;73.165;58.077;74.469
5445502.352;23.730;41.090;78.306;-17.099;80.355;45.970;29.095;52.042
5445502.360;20.638;37.253;80.466;-23.954;81.621;39.972;25.332;47.088
5445502.368;12.629;27.269;77.002;-35.129;79.013;36.210;20.750;45.151
5445502.376;14.976;29.281;82.292;-35.092;83.819;35.614;17.844;44.964
5445502.384;34.459;49.174;102.408;-18.664;103.638;57.742;40.829;63.106
5445502.392;29.430;44.703;97.603;-22.836;96.373;55.321;38.967;56.811
5445502.400;22.128;36.769;93.095;-32.410;91.158;54.948;37.663;53.607
5445502.408;57.928;72.159;132.360;3.241;132.062;94.399;76.480;89.295
5445502.416;25.257;39.190;98.050;-28.908;97.938;45.076;29.020;40.866
5445502.424;8.941;24.699;78.566;-40.047;78.306;22.799;11.288;22.314
5445502.432;61.132;78.715;129.044;18.030;125.244;77.970;66.683;78.715
5445502.440;46.864;66.683;112.839;9.798;115.745;75.772;62.697;80.168
5445502.448;16.317;37.141;82.180;-18.403;88.401;53.644;38.408;57.146
5445502.456;30.771;52.340;95.889;0.224;95.479;68.881;50.627;66.608
5445502.464;81.100;103.265;142.828;55.209;144.057;123.344;104.159;116.974
5445502.472;45.002;67.465;103.749;21.271;107.177;90.413;71.526;82.627
5445502.480;12.629;33.006;67.279;-14.193;72.829;55.283;35.018;48.578
5445502.488;57.667;82.254;106.692;38.296;111.200;81.360;61.616;71.973
5445502.496;16.801;44.070;66.347;0.112;74.282;40.643;22.054;36.955
5445502.504;13.709;41.537;62.697;-6.817;72.047;31.069;11.772;32.708
5445502.512;48.578;80.094;93.803;24.289;102.334;48.764;28.014;49.397
5445502.520;36.955;74.245;79.498;7.972;88.066;15.199;-5.625;19.670
5445502.528;106.320;144.988;146.180;69.141;155.009;55.507;34.310;63.553
5445502.536;178.367;218.935;218.116;138.618;230.484;123.270;99.391;132.322
5445502.490;136.048;175.163;176.914;92.536;198.446;87.209;55.023;98.944
5445502.498;100.434;139.885;138.506;57.966;167.452;64.187;25.928;80.988
5445502.506;73.276;109.635;107.661;27.567;143.237;37.551;-1.825;57.966
5445502.514;68.583;100.806;101.328;18.813;141.710;31.628;-6.445;51.111
5445502.522;45.858;76.182;84.043;-7.041;129.268;18.999;-20.824;32.671
5445502.530;28.089;54.389;58.301;-27.195;112.094;10.096;-30.063;24.773
5445502.538;28.312;54.911;58.189;-24.289;113.174;19.632;-17.732;35.204
5445502.546;16.093;43.772;36.582;-31.702;102.296;16.317;-19.744;27.940
5445502.554;-0.969;23.954;10.356;-49.733;75.139;9.015;-28.610;15.497
5445502.562;-0.894;28.424;11.735;-42.953;73.351;19.036;-17.472;15.572
5445502.570;3.092;32.336;13.746;-37.365;75.735;22.165;-12.331;17.472
5445502.578;-1.118;29.542;4.545;-39.265;67.092;21.867;-8.978;16.764
5445502.586;12.517;45.970;15.981;-20.042;80.876;44.033;14.529;39.227
5445502.594;1.267;39.265;0.857;-23.842;67.204;35.726;3.874;33.639
5445502.602;-24.810;16.093;-31.255;-45.486;34.906;12.666;-22.277;8.680
5445502.610;-8.568;34.980;-15.832;-24.252;46.231;36.955;-3.241;28.089
5445502.618;-6.706;37.737;-17.025;-17.360;40.717;50.589;7.823;33.714
5445502.626;-22.985;25.108;-35.763;-24.773;18.477;44.741;5.066;18.701
5445502.634;-18.813;32.745;-30.510;-14.529;20.042;59.269;21.607;29.840
5445502.642;-23.581;29.057;-33.565;-17.062;11.213;55.544;19.073;26.673
5445502.650;-3.129;50.366;-9.201;7.749;27.381;66.012;32.559;35.465
5445502.658;-6.221;47.274;-6.296;7.115;22.799;63.628;31.814;31.106
5445502.666;-13.039;39.153;-9.201;-0.186;12.629;63.330;31.926;35.316
5445502.674;-24.028;27.940;-18.030;-8.456;-2.757;50.142;18.403;27.381
5445502.683;-26.934;26.338;-19.670;-7.451;-11.846;42.729;12.740;20.079
5445502.691;-22.426;32.000;-12.964;3.539;-11.846;49.807;22.873;24.699
5445502.699;-39.414;16.019;-24.997;-8.270;-29.653;32.112;9.388;4.992
5445502.707;-17.546;38.184;0.447;16.615;-8.494;47.833;30.883;17.248
5445502.715;-19.707;37.886;2.272;20.862;-12.070;47.460;32.671;13.486
5445502.723;-31.106;26.114;-5.588;12.368;-25.071;37.737;18.589;4.508
5445502.731;-37.029;19.409;-8.196;4.657;-31.777;38.147;20.415;6.929
5445502.739;-59.344;-2.831;-31.106;-16.801;-59.344;15.423;-2.310;-14.715
5445502.747;-83.372;-27.977;-53.197;-39.041;-83.447;-9.425;-29.095;-37.812
5445502.755;-63.479;-5.960;-33.490;-9.872;-66.534;7.153;-11.586;-23.544
5445502.763;-15.162;42.245;13.523;41.313;-22.426;54.762;40.308;20.191
5445502.771;-56.848;0.633;-27.418;-0.633;-67.018;17.323;1.602;-19.968
5445502.779;-60.424;-2.235;-30.473;-2.645;-72.569;19.744;3.390;-19.185
5445502.787;-13.374;46.417;14.827;52.787;-27.455;55.358;38.855;17.583
5445502.795;-35.800;23.097;-7.786;31.106;-53.160;25.295;9.201;-13.411
5445502.803;-50.105;7.674;-22.799;16.503;-70.855;16.578;-1.043;-19.222
5445502.811;-57.332;0.931;-29.802;12.517;-79.647;-2.831;-22.091;-30.771
5445502.819;-51.595;5.513;-24.550;19.334;-76.331;-19.781;-29.989;-52.117
5445502.827;-41.239;16.242;-15.683;31.367;-70.296;-5.737;-15.683;-43.474
5445502.835;-10.170;45.560;13.411;63.144;-42.208;27.828;19.521;-14.529
5445502.843;-12.182;41.984;11.809;59.977;-43.400;29.579;18.552;-10.319
5445502.851;3.837;57.407;27.232;75.921;-28.089;55.730;43.772;17.174
5445502.859;10.766;63.889;31.739;87.768;-23.879;64.820;54.650;23.581
5445502.867;-14.082;36.843;5.998;59.456;-48.764;30.026;16.056;-3.651
5445502.892;21.122;72.457;40.010;97.565;-15.013;49.509;32.037;21.122
5445502.900;36.061;88.252;52.117;117.533;-5.439;56.811;42.133;26.226
5445502.908;13.076;66.496;26.636;100.881;-32.820;34.496;20.675;4.508
5445502.916;33.900;87.768;42.990;124.127;-17.062;53.346;41.723;23.283
5445502.924;36.061;89.519;43.809;126.101;-16.950;56.922;50.180;26.524
5445502.932;36.918;91.419;43.549;131.279;-18.403;54.389;44.182;24.140
5445502.940;48.056;103.004;49.323;145.659;-12.591;63.591;53.719;28.685
5445502.948;50.068;101.030;55.954;144.914;-0.335;62.883;50.515;25.705
5445502.956;82.292;129.081;92.275;174.046;41.351;98.757;83.745;61.467
5445502.964;75.549;116.937;87.656;162.274;41.649;91.419;78.119;58.934
5445502.972;55.693;92.052;69.328;140.145;28.461;75.549;62.101;45.858
5445502.980;49.248;86.129;60.312;140.555;21.309;70.110;56.550;41.537
5445502.988;58.152;95.367;67.465;153.854;26.375;74.245;58.673;46.752
5445502.996;39.078;74.320;48.392;134.520;9.015;53.607;35.167;27.046
5445503.004;29.467;62.399;38.333;124.164;1.490;50.776;31.255;26.338
5445503.012;12.591;45.449;19.595;112.541;-17.770;39.004;22.091;9.760
5445503.020;43.437;74.506;47.199;143.126;9.015;66.422;53.048;28.871
5445503.028;75.959;108.108;76.890;179.224;40.606;103.228;89.295;66.496
5445503.036;89.034;120.997;85.570;194.386;50.142;108.257;97.416;63.740
5445503.044;69.737;99.540;63.926;174.232;28.871;91.717;79.274;45.821
5445503.052;33.602;62.473;28.275;142.306;-3.390;55.395;41.425;10.096
5445503.060;17.732;46.901;11.362;132.360;-15.795;43.549;26.673;1.043
5445503.068;-1.080;30.510;-10.319;122.264;-31.851;37.588;18.217;-0.298
5445503.076;26.077;58.338;12.480;151.545;-5.327;76.182;57.332;43.362
5445503.058;17.509;50.887;-2.012;146.143;-21.979;70.184;53.942;37.439
5445503.066;36.694;69.924;13.933;163.987;-6.296;86.091;69.663;51.856
5445503.074;29.244;61.803;2.235;156.015;-17.509;70.110;50.515;39.414
5445503.082;24.661;57.817;-4.508;149.235;-22.426;72.196;49.733;42.543
5445503.090;50.031;85.831;16.801;177.473;-3.949;111.349;86.278;75.996
5445503.098;63.255;98.683;29.765;192.039;9.313;131.875;104.606;90.823
5445503.106;56.960;91.754;20.750;186.153;1.378;128.672;98.199;88.029
5445503.114;51.111;82.925;13.635;175.089;-3.688;107.177;76.108;68.285
5445503.122;37.923;68.285;-0.782;158.139;-12.778;77.598;48.131;42.282
5445503.130;58.226;87.470;15.870;174.940;6.445;90.748;62.808;58.040
5445503.138;57.407;85.309;11.958;172.406;-1.118;88.066;60.908;53.085
5445503.146;44.070;71.786;-1.304;158.660;-12.890;83.856;57.593;47.833
5445503.154;39.563;69.067;-7.264;154.302;-19.185;78.678;51.819;46.119
5445503.162;47.609;80.578;-1.378;164.211;-14.156;85.086;57.183;54.017
5445503.170;43.735;77.970;-5.923;160.336;-18.068;82.515;56.066;49.621
5445503.178;22.501;57.667;-26.673;137.724;-38.780;63.851;38.594;33.714
5445503.186;37.439;74.282;-10.207;154.227;-24.512;81.249;58.562;48.093
5445503.194;45.374;83.670;-1.378;160.374;-17.211;85.197;65.789;51.782
5445503.202;23.283;64.336;-23.693;138.991;-39.451;59.903;41.127;28.536
5445503.210;-5.811;37.663;-52.825;110.790;-70.073;29.877;12.331;1.304
5445503.218;30.212;76.592;-17.360;146.590;-39.302;62.771;47.795;32.224
5445503.226;23.916;73.202;-23.767;143.312;-50.552;51.074;38.669;23.097
5445503.234;26.822;74.655;-19.334;139.549;-48.541;39.563;27.977;14.566
5445503.242;3.017;51.856;-42.170;114.627;-75.102;10.580;1.639;-15.236
5445503.282;-8.494;41.164;-51.670;101.142;-87.544;-1.490;-7.600;-23.507
5445503.290;-23.507;25.854;-62.957;83.670;-100.024;-14.864;-17.770;-34.571
5445503.298;-40.010;9.872;-76.815;65.155;-117.831;-29.281;-32.187;-46.194
5445503.306;-31.292;18.813;-67.316;68.694;-113.100;-31.777;-32.298;-49.248
5445503.314;-16.317;36.396;-49.695;81.994;-99.167;-26.748;-26.785;-43.772
5445503.322;-14.305;37.625;-45.262;77.970;-98.534;-36.880;-35.651;-47.795
5445503.330;-7.190;44.070;-37.067;82.441;-92.387;-32.969;-27.977;-43.064
5445503.338;-21.793;32.485;-49.956;70.632;-108.369;-51.670;-44.778;-63.591
5445503.346;-11.921;42.357;-35.763;76.853;-96.485;-53.048;-45.300;-63.479
5445503.354;4.917;60.722;-16.019;89.705;-80.504;-54.128;-46.864;-62.436
5445503.362;17.844;76.145;-1.267;98.869;-71.600;-66.198;-58.934;-72.345
5445503.370;21.011;84.750;1.080;102.334;-75.549;-76.741;-68.769;-80.466
5445503.378;87.656;155.047;66.422;165.477;-20.787;-38.520;-29.840;-40.196
5445503.386;131.801;200.421;106.841;200.607;7.935;-30.994;-17.025;-31.292
5445503.394;123.829;193.790;97.826;188.872;-9.164;-59.642;-38.743;-62.510
5445503.402;122.823;187.159;98.124;177.249;-10.170;-89.556;-71.898;-88.997
5445503.410;120.886;183.322;92.946;175.349;-13.895;-94.660;-79.237;-88.215
5445503.418;140.406;204.332;106.841;199.042;1.602;-55.581;-40.606;-52.080
5445503.426;169.799;233.762;129.938;232.048;27.642;-9.574;6.035;-10.319
5445503.434;144.839;208.840;100.285;211.559;3.986;-21.271;-3.055;-20.713
5445503.442;107.773;167.489;64.112;170.171;-26.859;-41.239;-22.799;-34.571
5445503.450;97.826;154.190;52.378;159.703;-34.161;-34.682;-15.609;-24.773
5445503.458;91.121;146.776;41.984;157.543;-39.898;-15.870;4.470;-11.288
5445503.466;82.515;132.881;33.565;143.833;-42.506;-13.188;5.737;-3.986
5445503.463;63.814;110.455;15.646;123.978;-56.848;-17.993;1.602;-12.442
5445503.471;63.218;107.735;14.938;123.307;-54.128;-2.086;18.328;0.000
5445503.479;48.615;92.424;0.447;108.406;-63.628;-15.162;3.241;-10.207
5445503.487;60.238;104.867;9.984;122.935;-51.074;-1.900;10.505;6.258
5445503.495;76.815;119.470;25.816;141.636;-33.006;35.800;49.435;35.837
5445503.503;58.338;99.763;7.413;124.983;-47.572;34.608;45.970;27.828
5445503.511;69.067;107.437;19.558;130.050;-32.149;52.303;62.659;46.976
5445503.519;69.328;107.363;20.154;131.391;-29.802;58.599;66.124;52.638
5445503.527;50.478;86.725;3.800;113.845;-43.884;52.005;57.369;49.211
5445503.535;29.430;64.000;-16.764;90.152;-61.393;21.309;29.914;21.346
5445503.543;66.720;103.153;17.956;132.583;-26.152;52.825;63.144;49.546
5445503.551;78.157;113.547;27.195;142.790;-13.933;64.485;73.351;62.361
5445503.559;91.046;125.207;41.611;154.637;4.098;87.246;96.448;83.670
5445503.567;74.133;109.337;23.432;142.790;-12.890;74.245;86.427;65.453
5445503.575;57.966;93.915;6.892;130.199;-27.567;56.736;70.855;49.137
5445503.583;47.684;83.819;-3.055;122.227;-33.304;60.461;74.022;50.552
5445503.591;54.911;90.003;5.364;134.148;-17.397;77.970;93.021;63.442
5445503.599;39.153;73.276;-10.952;121.780;-30.547;65.751;75.251;57.779
5445503.607;13.635;48.392;-40.233;99.652;-56.103;49.621;55.134;38.706
5445503.615;-7.041;27.455;-63.553;77.486;-75.214;32.037;37.551;18.515
5445503.623;-12.666;22.687;-70.408;74.394;-78.939;35.353;41.053;22.613
5445503.631;-1.341;34.645;-60.573;87.172;-64.448;51.856;60.014;37.327
5445503.639;-5.066;29.542;-65.304;80.727;-65.193;48.205;57.034;34.384
5445503.647;-26.301;6.855;-86.762;57.407;-82.627;27.716;35.278;12.740
5445503.598;-33.230;-1.863;-94.213;47.237;-87.209;21.011;27.753;8.866
5445503.606;-11.437;21.495;-74.767;70.669;-67.614;49.844;55.321;36.396
5445503.614;-19.334;13.672;-83.558;60.946;-75.474;37.178;41.686;27.642
5445503.622;-26.412;6.482;-90.376;52.080;-81.770;16.131;17.025;11.548
5445503.630;2.310;37.402;-62.101;83.372;-53.234;44.405;45.374;36.433
5445503.638;-8.717;25.630;-73.910;72.569;-64.969;24.550;25.183;21.867
5445503.646;-10.021;23.693;-74.804;69.067;-64.485;13.709;16.764;8.643
5445503.654;-17.397;13.746;-79.907;58.264;-64.932;1.080;3.390;-6.072
5445503.662;22.762;52.415;-39.414;98.422;-20.526;42.766;42.841;33.751
5445503.670;-21.197;8.121;-83.372;55.917;-58.673;3.651;4.582;-10.692
5445503.678;-47.237;-18.626;-108.927;28.946;-78.715;-30.585;-29.467;-42.357
5445503.686;-57.183;-27.567;-119.023;21.495;-83.670;-33.081;-31.516;-46.492
5445503.694;-54.799;-24.661;-117.831;24.922;-77.970;-26.450;-25.332;-41.723
5445503.702;-54.613;-21.830;-119.992;28.647;-77.076;-25.518;-23.954;-38.520
5445503.710;-48.578;-15.013;-116.974;35.018;-71.563;-18.924;-16.503;-34.235
5445503.718;-68.881;-37.439;-139.773;12.182;-92.015;-43.251;-40.308;-62.771
5445503.726;-90.711;-59.009;-162.050;-7.711;-111.274;-58.077;-56.438;-78.753
5445503.734;-88.401;-56.177;-159.554;-3.502;-105.165;-53.905;-53.495;-73.537
5445503.742;-94.064;-61.542;-166.446;-7.525;-112.206;-59.083;-56.215;-81.249
5445503.750;-100.061;-65.267;-172.630;-11.101;-119.396;-62.659;-58.077;-87.097
5445503.758;-93.356;-60.610;-165.813;-8.829;-111.088;-62.101;-60.201;-86.799
5445503.766;-100.434;-67.241;-172.034;-16.168;-117.533;-63.032;-62.659;-89.034
5445503.774;-112.802;-78.455;-183.769;-29.653;-132.471;-74.133;-74.729;-100.471
5445503.782;-127.628;-93.989;-197.515;-47.982;-149.384;-88.885;-89.109;-112.541
5445503.808;-129.119;-95.069;-197.627;-49.658;-152.551;-80.727;-78.715;-106.283
5445503.816;-99.838;-68.061;-165.626;-24.214;-121.072;-54.203;-52.825;-79.200
5445503.824;-94.362;-63.926;-155.531;-20.117;-115.223;-48.578;-50.142;-74.655
5445503.832;-135.154;-105.053;-193.231;-60.312;-157.692;-90.674;-92.313;-113.025
5445503.840;-149.347;-120.215;-206.195;-74.506;-174.716;-108.145;-105.724;-127.442
5445503.848;-159.256;-129.864;-212.863;-85.533;-184.178;-113.621;-108.294;-135.824
5445503.856;-156.872;-128.150;-205.934;-87.470;-182.949;-120.178;-114.627;-137.798
5445503.864;-139.736;-110.716;-182.800;-71.265;-161.901;-101.030;-95.107;-119.172
5445503.872;-165.440;-138.804;-202.879;-101.626;-183.471;-128.634;-121.929;-147.037
5445503.880;-176.355;-151.433;-209.771;-115.037;-194.088;-136.197;-129.901;-151.098
5445503.888;-171.848;-145.361;-200.495;-107.922;-189.878;-122.041;-112.616;-139.996
5445503.896;-184.029;-160.076;-211.895;-123.791;-206.195;-142.865;-133.738;-162.274
5445503.904;-200.607;-176.653;-228.062;-140.630;-227.690;-147.894;-139.326;-164.472
5445503.912;-187.755;-166.856;-209.883;-135.265;-213.236;-156.984;-148.863;-173.748
5445503.920;-150.390;-133.552;-170.432;-108.853;-179.298;-143.386;-132.062;-165.515
5445503.928;-120.774;-105.426;-141.151;-83.819;-157.095;-122.190;-107.363;-145.249
5445503.936;-95.591;-81.658;-112.876;-61.579;-131.801;-107.810;-92.350;-128.858
5445503.944;-96.411;-83.521;-111.610;-67.763;-135.787;-103.563;-89.742;-126.883
5445503.952;-97.416;-86.948;-113.770;-72.680;-144.690;-111.870;-101.291;-130.758
5445503.960;-122.301;-112.988;-140.257;-97.081;-173.151;-134.744;-125.468;-149.719
5445503.968;-117.719;-106.543;-135.712;-87.917;-169.724;-126.846;-116.862;-147.745
5445503.976;-103.153;-93.542;-120.960;-75.102;-155.047;-122.972;-109.039;-148.937
5445503.984;-86.837;-77.710;-102.967;-56.662;-136.606;-99.428;-88.848;-125.505
5445503.992;-79.870;-71.526;-94.250;-51.074;-127.479;-88.550;-82.031;-115.372
5445503.989;-67.204;-59.716;-82.031;-39.041;-113.808;-76.033;-71.600;-102.744
5445503.997;-52.303;-44.219;-69.663;-18.552;-100.955;-54.948;-50.142;-81.956
5445504.005;-30.585;-23.581;-50.627;3.129;-78.417;-32.298;-29.355;-55.023
5445504.013;-59.083;-51.334;-80.653;-19.073;-106.655;-50.515;-49.658;-76.555
5445504.021;-33.081;-27.977;-52.713;5.811;-73.873;-19.856;-18.887;-44.629
5445504.029;4.470;8.419;-17.919;44.666;-37.439;20.787;21.420;-8.233
5445504.037;7.078;10.617;-17.174;48.801;-33.565;28.200;28.536;-5.513
5445504.045;6.370;9.686;-22.687;48.466;-34.086;17.881;20.303;-10.431
5445504.053;11.213;15.646;-24.512;56.587;-35.651;26.375;29.467;-2.161
5445504.061;-52.042;-50.217;-91.344;-9.276;-97.230;-37.327;-37.774;-66.124
5445504.069;-53.979;-53.458;-95.218;-12.591;-94.622;-43.251;-42.766;-71.935
5445504.077;-54.613;-52.601;-97.826;-9.947;-94.995;-32.522;-29.504;-64.224
5445504.085;-18.664;-17.546;-64.299;23.507;-57.258;5.513;7.115;-21.271
5445504.093;-8.009;-5.253;-58.115;40.121;-47.982;20.154;20.862;-10.133
5445504.101;-17.770;-15.199;-70.073;34.049;-55.432;-9.909;-4.992;-44.480
5445504.109;8.680;11.176;-43.139;63.926;-26.226;17.248;20.079;-22.016
5445504.117;-18.142;-13.448;-70.408;42.059;-51.074;7.637;6.594;-30.510
5445504.125;-16.019;-11.921;-69.737;42.580;-45.635;8.754;4.955;-22.203
5445504.133;-17.956;-11.623;-73.984;44.964;-47.088;19.148;12.144;-12.144
5445504.141;-34.198;-28.126;-90.860;25.369;-60.126;4.768;-1.006;-25.034
5445504.149;-28.796;-21.085;-85.793;32.447;-54.054;4.508;0.633;-26.561
5445504.157;-28.275;-19.968;-85.421;33.528;-52.713;10.058;5.513;-21.234
5445504.165;-22.724;-16.391;-80.690;33.528;-47.050;11.772;6.221;-16.391
5445504.173;-32.261;-23.246;-89.705;25.518;-56.885;14.156;7.562;-15.944
5445504.200;-43.549;-33.937;-100.322;11.921;-69.588;8.307;-0.708;-20.936
5445504.208;-34.049;-23.358;-91.977;20.489;-64.708;15.572;4.694;-19.260
5445504.216;-33.751;-21.867;-90.599;22.054;-63.032;18.664;6.594;-21.048
5445504.224;-20.415;-11.139;-75.288;27.679;-47.274;25.705;9.425;-8.233
5445504.232;-14.007;-5.141;-67.949;31.218;-39.488;34.608;16.280;0.335
5445504.240;-21.048;-11.809;-75.214;24.922;-46.343;21.346;1.900;-14.305
5445504.248;-33.006;-23.507;-83.633;14.380;-55.172;9.760;-9.015;-21.979
5445504.256;-37.663;-25.071;-86.799;13.188;-60.387;15.162;-3.912;-20.377
5445504.264;-36.433;-22.836;-83.297;13.746;-57.146;13.672;-2.012;-25.854
5445504.272;-48.093;-38.370;-86.501;-4.880;-55.842;3.465;-11.735;-35.316
5445504.280;-54.948;-45.002;-89.817;-14.529;-55.954;2.049;-14.827;-33.937
5445504.288;-78.864;-69.365;-110.716;-40.419;-73.276;-14.156;-30.734;-49.174
5445504.296;-75.325;-63.442;-104.457;-33.900;-66.012;4.172;-11.995;-29.951
5445504.304;-71.488;-60.610;-97.379;-33.751;-61.393;-2.384;-15.460;-32.000
5445504.312;-86.837;-73.463;-111.312;-48.466;-77.635;-17.025;-27.344;-55.619
5445504.320;-96.075;-79.274;-120.290;-56.736;-87.246;-28.275;-38.706;-64.932
5445504.328;-112.951;-95.144;-136.122;-76.257;-104.494;-46.454;-56.848;-79.274
5445504.336;-149.049;-129.454;-170.097;-112.839;-141.934;-68.992;-81.882;-100.769
5445504.344;-108.890;-88.699;-125.207;-74.692;-98.906;-26.934;-38.445;-58.375
5445504.352;-114.553;-93.877;-126.660;-81.137;-103.004;-27.083;-34.980;-61.430
5445504.360;-128.262;-108.406;-138.693;-99.167;-117.347;-51.148;-56.624;-84.937
5445504.368;-111.274;-90.674;-120.364;-84.937;-104.122;-44.741;-46.939;-72.122
5445504.376;-111.014;-90.487;-117.645;-86.203;-104.606;-37.625;-36.731;-64.000
5445504.384;-158.362;-140.592;-158.064;-140.034;-145.994;-90.972;-90.823;-108.965
5445504.362;-162.274;-143.871;-157.207;-142.269;-148.863;-85.160;-85.346;-100.061
5445504.370;-180.602;-161.752;-173.599;-160.895;-169.761;-95.516;-92.797;-114.776
5445504.378;-184.067;-164.695;-172.369;-163.503;-170.544;-98.944;-93.617;-118.166
5445504.386;-179.522;-161.082;-164.993;-160.895;-164.472;-88.997;-83.782;-103.153
5445504.394;-190.809;-172.146;-173.226;-171.810;-173.897;-109.337;-102.855;-117.496
5445504.402;-207.946;-189.580;-186.786;-192.076;-190.362;-125.356;-115.968;-135.079
5445504.410;-215.769;-197.291;-192.858;-200.421;-199.303;-139.177;-127.219;-144.616
5445504.418;-200.830;-184.067;-176.951;-188.313;-186.786;-129.454;-113.733;-136.867
5445504.426;-213.087;-197.217;-186.265;-202.432;-198.297;-133.328;-119.954;-141.673
5445504.434;-210.814;-193.603;-183.918;-197.627;-198.334;-134.893;-120.886;-138.655
5445504.442;-225.753;-206.605;-197.142;-209.734;-214.986;-145.957;-128.299;-150.576
5445504.450;-206.940;-187.121;-176.094;-190.288;-197.068;-133.850;-110.231;-144.988
5445504.458;-220.686;-202.954;-187.159;-209.436;-210.218;-144.839;-118.800;-159.703
5445504.466;-221.543;-207.163;-183.322;-213.794;-208.765;-141.971;-113.696;-156.313
5445504.474;-229.403;-216.886;-187.866;-224.411;-215.694;-155.680;-126.697;-164.770
5445504.482;-228.845;-214.986;-183.061;-222.214;-213.236;-155.829;-128.634;-163.391
5445504.490;-239.834;-225.976;-189.207;-233.427;-223.406;-168.793;-144.057;-167.936
5445504.498;-236.519;-221.916;-184.774;-228.435;-221.543;-161.678;-135.750;-157.021
5445504.506;-201.352;-186.153;-149.496;-187.419;-188.351;-129.417;-103.079;-129.752
5445504.514;-138.357;-127.181;-83.335;-133.961;-124.648;-71.265;-42.543;-77.561
5445504.522;-150.092;-139.140;-93.244;-143.498;-135.973;-80.205;-50.180;-88.587
5445504.530;-154.451;-142.567;-96.522;-142.455;-140.108;-82.217;-52.750;-88.736
5445504.538;-165.105;-154.264;-105.537;-153.445;-147.745;-97.938;-71.228;-103.116
5445504.546;-166.744;-156.090;-108.667;-154.749;-150.800;-87.880;-64.559;-87.358
5445504.497;-144.914;-135.414;-84.601;-134.073;-126.734;-65.230;-44.294;-61.691
5445504.505;-144.728;-135.601;-82.888;-134.632;-125.132;-64.187;-42.580;-63.702
5445504.513;-141.785;-131.428;-82.515;-128.597;-121.742;-63.181;-37.923;-68.098
5445504.521;-119.582;-111.386;-59.158;-108.778;-95.516;-53.719;-31.255;-56.736
5445504.529;-101.663;-96.448;-42.915;-97.305;-82.999;-42.915;-27.493;-41.798
5445504.537;-74.878;-71.451;-19.595;-76.108;-63.069;-45.858;-28.200;-40.233
5445504.545;-22.613;-19.185;27.008;-25.257;-19.073;-11.399;13.672;-13.039
5445504.553;-15.721;-12.480;30.994;-20.787;-13.188;-13.039;13.821;-16.429
5445504.561;-24.624;-20.042;19.222;-28.089;-22.352;-30.808;-6.258;-32.224
5445504.569;-46.194;-39.116;-5.737;-44.741;-47.125;-48.205;-26.077;-49.882
5445504.577;-37.178;-32.485;2.980;-38.296;-32.298;-40.084;-20.079;-32.820
5445504.585;-35.614;-31.926;6.445;-38.408;-21.048;-22.054;-1.825;-20.154
5445504.593;-16.913;-12.070;23.432;-15.385;1.639;3.651;18.105;3.837
5445504.601;-31.888;-26.301;2.794;-24.922;-17.323;-5.141;11.884;-8.754
5445504.609;-22.091;-15.274;11.772;-8.196;-2.757;16.168;37.588;6.333
5445504.617;-70.147;-64.149;-35.465;-58.450;-45.076;-46.305;-26.040;-56.736
5445504.625;-99.130;-91.828;-65.975;-79.945;-72.159;-61.728;-45.113;-68.769
5445504.633;-122.376;-112.467;-91.977;-94.399;-92.275;-86.464;-73.053;-85.868
5445504.641;-111.535;-102.706;-83.111;-84.527;-79.386;-73.686;-58.934;-80.243
5445504.649;-116.602;-107.661;-93.654;-89.034;-88.699;-64.112;-48.280;-79.386
5445504.657;-119.954;-110.678;-100.248;-91.456;-90.152;-64.187;-51.223;-70.520
5445504.665;-123.046;-110.604;-106.841;-88.215;-92.275;-61.654;-49.807;-62.548
5445504.673;-110.269;-96.262;-96.746;-71.563;-77.486;-48.652;-33.863;-47.497
5445504.681;-109.002;-93.691;-98.757;-68.173;-78.082;-42.543;-27.455;-40.494
5445504.647;-129.156;-114.515;-120.439;-93.468;-95.032;-49.844;-42.394;-42.729
5445504.655;-123.680;-107.139;-118.241;-81.733;-88.029;-53.719;-47.311;-47.460
5445504.663;-134.520;-117.645;-129.156;-91.344;-97.454;-65.416;-60.126;-54.501
5445504.671;-147.894;-133.440;-140.592;-108.406;-107.214;-92.573;-89.854;-81.621
5445504.679;-174.455;-160.486;-164.919;-133.887;-128.336;-127.330;-125.319;-116.304
5445504.687;-182.427;-166.968;-172.928;-135.973;-137.240;-129.826;-127.144;-123.940
5445504.695;-148.900;-135.191;-139.251;-107.214;-102.855;-92.536;-87.880;-93.840
5445504.703;-145.696;-131.540;-135.973;-101.030;-97.491;-77.561;-72.941;-84.341
5445504.711;-156.537;-141.598;-146.218;-107.996;-107.400;-84.266;-77.896;-87.768
5445504.719;-154.227;-139.922;-142.530;-106.432;-102.147;-102.147;-95.516;-104.234
5445504.727;-154.898;-138.581;-146.143;-109.263;-110.269;-124.238;-115.298;-131.205
5445504.735;-170.358;-154.637;-161.268;-131.316;-124.983;-160.597;-150.986;-163.652
5445504.743;-149.831;-136.159;-141.971;-117.980;-104.569;-149.868;-140.741;-145.361
5445504.751;-76.890;-65.379;-71.228;-51.334;-32.671;-88.662;-77.747;-88.662
5445504.759;-77.561;-67.651;-73.761;-58.673;-33.155;-99.391;-90.562;-104.979
5445504.767;-117.160;-108.145;-115.074;-102.594;-73.649;-140.332;-135.787;-146.739
5445504.775;-105.761;-96.634;-103.526;-94.250;-59.530;-128.858;-127.889;-134.036
5445504.783;-84.788;-71.600;-84.825;-70.147;-41.127;-101.067;-102.259;-110.678
5445504.791;-118.539;-100.844;-123.940;-96.075;-80.727;-126.213;-127.926;-143.275
5445504.799;-144.057;-125.356;-149.570;-118.390;-105.277;-137.836;-140.294;-158.884
5445504.807;-149.049;-130.422;-153.743;-124.387;-109.561;-129.305;-132.844;-152.588
5445504.815;-148.900;-128.485;-154.227;-119.172;-110.492;-129.938;-131.726;-151.619
5445504.823;-153.221;-130.348;-159.331;-117.011;-116.974;-128.187;-129.715;-149.794
5445504.831;-173.561;-147.745;-181.384;-131.689;-144.169;-144.616;-146.255;-168.420
5445504.828;-143.237;-119.619;-147.596;-106.506;-111.349;-110.678;-113.770;-138.059
5445504.836;-148.155;-126.958;-149.868;-114.329;-116.415;-105.649;-113.659;-134.483
5445504.844;-182.763;-162.870;-181.049;-148.825;-150.017;-135.601;-144.951;-160.150
5445504.852;-189.692;-168.085;-184.812;-153.221;-158.064;-138.767;-143.424;-168.905
5445504.860;-181.235;-155.307;-174.716;-135.899;-152.066;-128.932;-131.465;-158.995
5445504.868;-193.268;-166.409;-185.184;-145.845;-165.664;-149.012;-150.464;-178.032
5445504.876;-225.753;-197.962;-216.402;-177.175;-199.899;-179.894;-180.006;-205.971
5445504.884;-231.005;-203.662;-218.973;-185.110;-204.854;-189.543;-189.580;-209.473
5445504.892;-225.045;-196.360;-212.677;-176.132;-204.407;-184.178;-180.602;-209.548
5445504.900;-182.465;-151.955;-170.246;-128.672;-167.713;-143.945;-137.910;-171.810
5445504.908;-189.506;-157.841;-174.940;-133.626;-175.573;-144.877;-139.251;-175.163
5445504.916;-231.452;-198.893;-213.571;-173.040;-218.451;-170.060;-164.956;-200.160
5445504.924;-220.574;-187.010;-203.066;-158.176;-211.373;-160.523;-154.525;-187.941
5445504.932;-201.724;-167.154;-185.780;-136.532;-199.378;-136.383;-129.379;-165.477
5445504.940;-201.799;-170.879;-179.969;-144.020;-193.231;-146.441;-138.432;-179.745
5445504.948;-166.446;-135.638;-141.077;-112.355;-158.064;-146.888;-133.365;-179.373
5445504.956;-155.754;-126.585;-125.654;-105.053;-145.473;-142.045;-126.883;-173.002
5445504.964;-158.958;-136.867;-122.488;-134.669;-144.057;-155.158;-140.294;-188.015
5445504.972;-163.205;-142.455;-124.723;-145.435;-149.794;-171.848;-159.666;-200.868
5445504.980;-130.609;-113.249;-90.115;-118.911;-116.602;-143.163;-131.205;-172.630
5445504.988;-97.528;-83.894;-54.538;-94.622;-80.392;-117.645;-106.208;-148.155
5445504.996;-131.279;-118.986;-85.868;-133.328;-110.604;-156.462;-145.659;-184.663
5445505.004;-133.738;-121.370;-85.682;-133.887;-109.710;-165.105;-153.333;-189.804
5445505.012;-161.640;-154.041;-108.480;-170.171;-128.411;-177.547;-169.352;-193.305
5445505.054;-155.754;-148.900;-103.973;-161.454;-122.748;-164.360;-153.743;-185.296
5445505.062;-97.230;-86.538;-49.323;-89.556;-69.179;-106.804;-91.903;-140.257
5445505.070;-86.389;-72.196;-41.351;-66.385;-63.181;-89.109;-75.325;-122.562
5445505.078;-133.961;-121.482;-87.880;-118.650;-108.257;-133.812;-117.980;-166.744
5445505.086;-144.579;-132.918;-99.540;-128.075;-122.637;-136.606;-121.333;-174.120
5445505.094;-136.048;-125.393;-91.828;-116.453;-113.174;-116.788;-100.620;-155.643
5445505.102;-155.717;-142.343;-114.404;-127.330;-140.667;-135.601;-123.456;-169.091
5445505.110;-175.163;-159.517;-133.440;-140.183;-160.001;-154.413;-142.753;-184.067
5445505.118;-141.673;-124.052;-100.024;-100.471;-124.872;-115.596;-103.675;-147.261
5445505.126;-120.327;-100.620;-82.590;-72.196;-112.392;-104.234;-95.852;-142.530
5445505.134;-85.123;-61.393;-49.211;-27.977;-78.976;-74.320;-64.075;-110.976
5445505.142;-77.002;-49.733;-41.574;-15.758;-73.388;-69.737;-57.705;-98.497
5445505.150;-69.514;-34.682;-40.531;2.533;-80.466;-76.294;-59.381;-107.661
5445505.158;-54.240;-18.291;-22.054;16.317;-61.095;-75.027;-57.109;-101.104
5445505.166;-38.557;-2.868;-2.719;17.546;-46.343;-100.881;-81.435;-123.717
5445505.174;49.397;82.739;88.550;88.140;38.669;-60.908;-38.482;-86.203
5445505.182;108.927;137.091;153.854;127.777;100.285;-42.357;-20.340;-67.167
5445505.190;99.353;118.464;153.258;93.095;101.142;-63.330;-44.890;-77.263
5445505.198;85.980;97.454;145.584;59.456;93.393;-95.889;-83.223;-104.122
5445505.206;141.189;149.086;201.911;105.277;151.321;-56.438;-39.078;-76.331
5445505.214;177.771;179.969;242.218;137.910;198.707;-5.998;10.692;-21.607
5445505.222;140.220;139.400;212.267;102.669;175.238;-15.870;-2.347;-28.685
5445505.230;117.794;118.725;189.506;91.046;161.603;-9.388;1.974;-28.722
5445505.238;90.674;89.630;159.629;65.118;138.320;-20.005;-8.158;-38.780
5445505.277;42.878;41.984;109.337;17.397;95.032;-55.879;-45.113;-72.010
5445505.285;34.273;33.341;97.640;5.551;86.762;-55.805;-51.819;-64.187
5445505.293;26.077;23.395;88.327;-10.915;82.254;-42.617;-39.563;-42.766
5445505.301;22.426;21.271;86.389;-10.431;83.707;-32.969;-27.828;-32.373
5445505.309;37.849;33.341;102.296;3.092;102.930;-12.591;-10.356;-7.823
5445505.317;0.633;-5.625;68.545;-35.465;71.824;-44.405;-43.698;-40.270
5445505.325;-87.842;-93.095;-18.589;-123.568;-17.993;-121.146;-123.978;-121.929
