Timestamp,AFz,AF3,AF4,AF7,AF8,Pz,P3,P4,2024-05-28 08:58:08.149,fs=125
6471944.490;16.764;6.892;46.417;-12.256;77.039;-9.388;-15.981;-13.858
6471944.498;11.399;5.253;40.866;2.645;60.312;0.633;-8.419;-1.676
6471944.506;5.066;-3.427;28.163;2.347;48.503;13.523;6.333;8.792
6471944.514;-11.660;-32.298;8.047;-23.209;30.510;9.686;4.396;0.596
6471944.522;-25.891;-50.031;-4.694;-42.804;17.770;3.204;-1.676;-9.052
6471944.530;-26.897;-46.790;-5.588;-33.528;11.213;5.811;-0.224;-6.147
6471944.538;-31.367;-51.595;-16.801;-31.441;4.135;2.831;-1.490;-7.376
6471944.546;-40.904;-55.693;-25.854;-43.139;-7.451;-9.462;-13.672;-13.858
6471944.554;-44.517;-76.257;-35.726;-59.791;-18.291;-11.548;-17.472;-12.405
6471944.562;-60.536;-98.906;-49.323;-77.523;-35.577;-8.643;-16.540;-11.027
6471944.570;-65.938;-100.359;-49.025;-75.251;-44.890;-1.341;-9.798;-4.582
6471944.578;-54.501;-82.441;-45.262;-68.806;-38.221;-1.974;-8.233;-7.674
6471944.586;-72.606;-107.922;-59.865;-84.639;-51.148;-8.382;-11.846;-16.466
6471944.594;-83.670;-117.570;-65.863;-94.287;-60.387;-11.176;-14.603;-19.856
6471944.602;-83.223;-116.006;-78.492;-92.052;-73.537;-10.133;-13.486;-16.391
6471944.610;-69.775;-105.798;-66.571;-86.538;-64.224;-3.688;-6.557;-7.041
6471944.618;-71.153;-107.810;-62.808;-92.722;-63.740;-4.582;-7.153;-6.407
6471944.626;-75.735;-114.180;-71.563;-93.021;-72.271;-5.364;-8.792;-7.562
6471944.634;-70.930;-114.888;-72.420;-82.366;-76.853;9.276;5.625;5.104
6471944.642;-73.425;-119.321;-79.051;-87.284;-80.243;6.519;5.364;-1.490
6471944.650;-76.182;-113.808;-83.819;-95.405;-86.911;-2.347;-5.141;-13.150
6471944.658;-79.945;-122.823;-87.954;-100.881;-91.679;-1.490;-5.104;-10.766
6471944.666;-83.707;-130.199;-92.201;-106.953;-90.674;-8.754;-10.431;-16.019
6471944.674;-83.931;-136.271;-93.840;-109.039;-86.501;-10.617;-11.995;-17.695
6471944.653;-90.376;-143.610;-93.356;-109.561;-94.995;-6.258;-9.425;-11.437
6471944.661;-86.837;-146.702;-101.104;-120.886;-115.708;2.906;-3.166;-0.298
6471944.669;-75.102;-126.921;-82.552;-115.708;-95.889;7.786;0.075;4.172
6471944.677;-81.547;-130.273;-80.913;-116.415;-87.917;2.757;-4.880;-1.192
6471944.685;-87.060;-145.510;-94.362;-126.138;-96.932;-1.304;-10.096;-4.992
6471944.693;-84.080;-144.839;-98.981;-124.015;-105.016;-1.788;-7.264;-5.588
6471944.701;-78.119;-133.850;-97.677;-119.507;-95.218;-9.052;-11.139;-12.740
6471944.709;-72.308;-127.964;-85.048;-119.694;-95.889;-5.998;-8.233;-11.586
6471944.717;-65.714;-123.233;-78.864;-115.186;-95.293;6.929;3.427;1.825
6471944.725;-49.807;-100.173;-62.548;-90.152;-83.447;15.944;12.331;8.643
6471944.733;-38.743;-86.352;-60.722;-69.439;-82.813;14.566;11.325;8.047
6471944.741;-23.507;-79.088;-44.815;-61.505;-87.135;9.425;3.427;3.688
6471944.749;-1.229;-55.172;-31.628;-44.405;-81.882;11.958;3.129;6.519
6471944.757;-17.285;-69.216;-48.280;-56.885;-98.981;10.878;5.066;4.806
6471944.765;-23.283;-69.812;-43.772;-56.960;-94.958;13.188;12.554;6.184
6471944.773;-37.365;-88.960;-68.098;-66.087;-105.314;4.619;5.737;-0.373
6471944.781;-57.593;-119.358;-85.831;-89.966;-128.187;-7.451;-9.723;-10.505
6471944.789;-56.513;-124.127;-88.662;-94.064;-134.446;-2.868;-9.090;-6.109
6471944.797;-48.354;-114.664;-86.129;-84.862;-137.053;4.508;-2.794;0.373
6471944.805;-45.523;-102.632;-77.337;-77.263;-126.101;10.505;3.316;6.370
6471944.813;-52.154;-104.085;-84.825;-78.864;-124.536;9.798;3.725;8.345
6471944.821;-64.448;-131.764;-100.471;-91.679;-137.500;11.623;9.052;8.307
6471944.829;-68.061;-128.150;-112.318;-98.720;-150.204;11.586;10.990;5.029
6471944.837;-74.208;-123.456;-105.649;-103.489;-153.296;8.084;6.668;2.570
6471944.862;-80.764;-130.683;-109.076;-103.973;-151.619;7.339;5.104;4.396
6471944.870;-80.876;-139.698;-112.914;-104.047;-144.914;2.794;-0.484;0.559
6471944.878;-75.512;-130.758;-107.363;-101.030;-139.214;3.725;0.335;0.037
6471944.886;-65.863;-118.501;-92.909;-92.983;-133.142;7.711;1.602;3.837
6471944.894;-64.783;-119.023;-89.817;-89.407;-133.477;8.754;2.272;6.072
6471944.902;-66.012;-122.599;-89.966;-83.633;-130.460;12.256;7.935;10.021
6471944.910;-58.264;-104.532;-86.874;-73.053;-128.299;11.399;5.960;9.872
6471944.918;-58.115;-106.581;-92.648;-73.463;-140.518;9.276;5.104;9.090
6471944.926;-59.009;-112.094;-91.866;-79.311;-137.612;10.990;6.184;10.170
6471944.934;-62.957;-119.209;-92.126;-85.905;-139.959;8.307;3.912;6.407
6471944.942;-52.191;-98.199;-76.927;-73.425;-138.283;12.219;9.835;10.319
6471944.950;-54.725;-105.575;-81.211;-73.202;-144.877;7.711;7.376;7.339
6471944.958;-58.450;-108.704;-91.009;-78.343;-151.843;2.608;3.465;1.192
6471944.966;-66.794;-118.874;-95.181;-83.745;-153.780;1.229;1.565;0.149
6471944.974;-64.261;-112.206;-87.507;-72.382;-143.275;6.519;7.413;5.551
6471944.982;-56.662;-104.755;-78.864;-70.706;-147.112;10.096;11.735;8.382
6471944.990;-57.742;-96.969;-87.023;-74.469;-144.988;16.205;16.540;14.491
6471944.998;-56.475;-97.118;-84.341;-68.136;-148.229;19.744;19.707;18.962
6471945.006;-55.395;-98.236;-86.427;-66.161;-151.135;12.591;13.858;12.219
6471945.014;-43.884;-101.030;-70.669;-54.874;-127.815;12.331;15.274;10.021
6471945.022;-37.476;-79.237;-60.424;-45.560;-129.528;16.280;22.203;11.027
6471945.030;-30.957;-71.339;-49.695;-40.941;-130.348;19.483;23.991;13.635
6471945.038;-40.345;-87.097;-64.448;-50.813;-136.234;17.993;20.601;15.758
6471945.046;-47.758;-102.371;-74.208;-68.061;-139.885;6.817;10.245;5.551
6471945.133;-37.998;-94.622;-68.210;-57.034;-133.887;4.955;10.096;5.104
6471945.141;-34.086;-83.037;-63.702;-40.457;-127.926;16.764;21.495;18.142
6471945.149;-48.950;-93.095;-80.280;-54.277;-143.349;8.792;15.199;10.282
6471945.157;-47.162;-103.451;-79.870;-62.697;-150.278;1.676;5.215;3.092
6471945.165;-47.944;-97.230;-78.790;-62.324;-144.616;0.075;0.261;0.149
6471945.173;-46.752;-99.652;-71.116;-62.026;-145.137;2.943;2.980;1.788
6471945.181;-38.967;-98.087;-64.746;-59.195;-144.243;7.004;8.680;6.594
6471945.189;-43.027;-94.958;-76.294;-59.828;-152.402;5.886;6.035;5.960
6471945.197;-49.062;-104.867;-78.343;-59.195;-150.874;9.127;9.798;7.115
6471945.205;-48.093;-101.812;-79.274;-58.487;-148.639;6.855;10.543;4.247
6471945.213;-46.566;-90.785;-77.225;-51.260;-144.020;4.098;9.276;3.316
6471945.221;-50.999;-99.391;-88.513;-56.587;-151.470;0.037;3.502;-0.969
6471945.229;-54.538;-109.412;-89.593;-65.342;-155.196;0.000;1.714;-3.092
6471945.237;-46.715;-104.383;-70.594;-67.577;-148.304;-0.484;2.757;-2.682
6471945.245;-46.641;-97.752;-63.814;-60.312;-143.126;3.614;6.631;2.198
6471945.253;-44.294;-93.095;-70.743;-47.050;-140.183;11.511;11.437;11.101
6471945.261;-40.308;-91.381;-74.133;-44.741;-134.446;19.781;21.644;16.466
6471945.269;-51.633;-108.629;-78.268;-61.281;-147.186;9.276;10.766;5.700
6471945.277;-50.627;-100.695;-75.810;-61.244;-144.653;5.476;6.519;2.161
6471945.285;-50.515;-98.646;-82.366;-54.054;-148.825;10.133;14.864;7.413
6471945.293;-45.225;-101.216;-72.531;-52.415;-140.779;9.760;11.399;8.419
6471945.301;-49.584;-105.090;-77.300;-57.779;-131.577;3.800;4.321;3.912
6471945.309;-42.878;-90.860;-54.128;-54.389;-130.013;10.133;11.511;8.158
6471945.317;-36.135;-91.605;-57.183;-47.348;-136.718;17.583;19.893;12.554
6471945.296;-44.256;-95.926;-77.039;-50.440;-147.298;8.754;11.735;5.178
6471945.304;-41.835;-95.442;-72.233;-46.752;-135.116;2.980;6.482;1.043
6471945.312;-47.460;-103.079;-65.714;-50.478;-139.065;4.470;5.700;1.229
6471945.320;-48.429;-97.752;-68.545;-51.521;-135.303;3.055;4.470;-1.639
6471945.328;-35.688;-84.639;-68.918;-38.408;-132.062;3.837;6.557;-0.894
6471945.336;-34.049;-88.885;-67.800;-39.525;-122.339;5.290;6.109;4.247
6471945.344;-43.362;-101.849;-66.720;-50.105;-125.617;-1.006;0.149;0.000
6471945.352;-38.296;-94.287;-60.275;-43.921;-126.809;-2.086;0.447;-0.261
6471945.360;-33.192;-84.862;-58.673;-39.786;-127.666;1.043;4.359;3.055
6471945.368;-40.270;-101.328;-61.356;-47.646;-135.750;4.619;9.350;4.247
6471945.376;-48.392;-115.111;-71.302;-51.558;-134.110;3.427;8.456;2.645
6471945.384;-34.235;-103.526;-56.885;-45.933;-112.429;9.686;11.735;7.413
6471945.392;-33.341;-85.831;-61.654;-39.600;-110.008;10.058;10.543;8.158
6471945.400;-24.848;-73.761;-59.642;-33.192;-106.692;9.388;11.027;9.090
6471945.408;-20.936;-79.796;-41.686;-35.018;-103.861;9.835;12.666;9.052
6471945.416;-24.885;-91.940;-45.262;-40.010;-112.653;11.437;11.548;9.015
6471945.424;-30.734;-101.440;-52.750;-44.033;-109.039;9.499;7.153;5.551
6471945.432;-42.394;-115.149;-60.350;-53.532;-113.212;6.333;5.215;1.378
6471945.440;-32.932;-97.305;-63.665;-54.762;-113.584;5.327;7.041;1.080
6471945.448;-24.848;-89.854;-62.026;-49.509;-110.604;7.153;10.133;4.135
6471945.456;-20.936;-84.825;-51.893;-41.239;-104.643;3.763;5.774;3.017
6471945.464;-24.848;-87.991;-49.733;-43.884;-109.188;-3.651;-3.390;0.335
6471945.472;-31.814;-101.067;-58.748;-52.042;-101.589;-3.539;-2.347;-0.112
6471945.480;-30.324;-100.024;-61.654;-56.960;-106.767;-3.614;-1.341;-1.751
6471945.488;-28.759;-97.714;-49.509;-55.209;-101.253;-6.184;-3.129;-5.662
6471945.496;-30.436;-97.118;-43.288;-49.211;-93.356;-2.421;-0.596;-2.906
6471945.504;-13.448;-78.604;-42.245;-42.394;-88.140;6.855;9.127;5.551
6471945.512;-17.770;-83.372;-53.719;-49.137;-104.643;4.284;9.127;1.676
6471945.507;-36.173;-101.328;-76.368;-63.442;-119.582;-8.531;-6.184;-8.270
6471945.515;-43.437;-115.000;-72.084;-70.035;-112.988;-10.431;-11.511;-7.339
6471945.523;-29.914;-104.122;-56.475;-62.510;-101.998;-1.155;0.000;0.522
6471945.531;-15.460;-87.693;-35.800;-49.658;-84.341;5.886;11.586;7.935
6471945.539;-19.372;-88.811;-45.598;-44.033;-87.693;2.682;9.201;4.210
6471945.547;-22.091;-85.235;-53.495;-46.045;-90.525;3.204;7.227;2.421
6471945.555;-11.623;-71.749;-39.451;-38.929;-80.578;7.749;10.282;8.196
6471945.563;-10.766;-81.584;-40.121;-50.217;-85.421;-7.972;-3.353;-6.258
6471945.571;-14.305;-90.301;-42.059;-50.999;-84.713;-14.007;-8.307;-12.256
6471945.579;-16.131;-84.266;-47.535;-52.936;-87.507;-10.058;-5.998;-8.941
6471945.587;-17.621;-82.888;-50.552;-49.286;-85.980;-4.508;-0.373;-0.373
6471945.595;-16.168;-86.315;-46.752;-45.039;-79.684;4.359;8.307;10.319
6471945.603;-4.731;-76.741;-38.259;-41.239;-70.967;4.023;8.866;7.786
6471945.611;-7.339;-74.133;-47.237;-46.082;-86.799;0.112;6.668;1.751
6471945.619;-17.583;-90.487;-46.827;-52.787;-87.693;-1.937;5.662;0.298
6471945.627;-33.900;-104.420;-50.329;-65.789;-91.977;-18.738;-14.529;-13.672
6471945.635;-36.061;-100.993;-62.957;-69.141;-94.138;-22.352;-19.856;-17.397
6471945.643;-35.949;-97.714;-73.053;-67.540;-93.877;-20.713;-19.781;-16.429
6471945.651;-23.507;-84.080;-65.230;-54.874;-91.754;-12.256;-11.176;-7.972
6471945.659;-12.442;-77.300;-38.557;-45.039;-81.472;2.868;4.806;5.886
6471945.667;-21.234;-91.642;-48.503;-58.040;-70.594;2.421;4.470;4.433
6471945.675;-40.829;-106.879;-64.783;-75.474;-81.696;-10.096;-9.499;-6.482
6471945.683;-48.019;-101.142;-64.895;-72.718;-94.436;-11.437;-9.760;-8.084
6471945.691;-29.095;-80.727;-53.458;-61.579;-81.621;-5.029;-1.341;-1.900
6471945.777;-29.393;-81.062;-57.817;-63.181;-81.733;-0.708;2.608;2.310
6471945.785;-49.360;-94.809;-71.637;-68.434;-80.988;-1.602;-1.192;2.794
6471945.793;-41.611;-95.293;-60.312;-69.737;-76.219;-2.347;-1.192;1.602
6471945.801;-33.490;-95.777;-54.091;-67.241;-80.243;-3.576;-0.633;0.484
6471945.809;-32.559;-80.541;-56.513;-60.275;-76.853;1.565;3.614;9.239
6471945.817;-33.714;-76.108;-50.440;-60.536;-79.423;3.539;3.725;13.374
6471945.825;-37.253;-78.529;-55.172;-63.740;-81.770;1.378;2.757;9.090
6471945.833;-37.476;-75.921;-56.177;-59.940;-88.438;0.671;2.608;9.239
6471945.841;-39.265;-81.621;-54.985;-61.616;-79.870;-2.868;-0.745;6.557
6471945.849;-41.798;-87.731;-54.538;-62.399;-82.217;-5.476;-1.639;2.980
6471945.857;-32.112;-77.412;-50.962;-53.570;-80.541;2.459;7.786;9.537
6471945.865;-36.024;-85.868;-53.048;-55.581;-85.048;1.490;4.396;8.270
6471945.873;-38.259;-79.423;-57.220;-60.908;-92.648;-8.568;-7.302;-1.937
6471945.881;-38.445;-61.728;-62.920;-52.974;-95.703;-10.468;-7.041;-3.465
6471945.889;-29.653;-60.685;-45.113;-45.300;-86.874;-6.072;-1.118;1.900
6471945.897;-30.547;-64.671;-40.457;-45.598;-91.940;-5.066;-0.224;3.353
6471945.905;-33.714;-69.924;-44.778;-47.050;-92.685;-3.688;-0.782;5.029
6471945.913;-20.824;-50.552;-39.078;-35.018;-78.082;2.421;6.258;9.649
6471945.921;-14.454;-46.417;-31.926;-29.691;-66.906;2.533;8.233;7.972
6471945.929;-16.876;-43.809;-28.610;-29.020;-72.494;1.751;5.737;8.568
6471945.937;-20.862;-47.348;-37.439;-29.467;-74.357;3.427;6.780;10.766
6471945.945;-20.601;-44.517;-35.539;-28.238;-69.141;-1.974;2.645;3.502
6471945.953;-9.760;-22.911;-25.518;-10.543;-65.379;3.427;8.345;7.190
6471945.961;4.880;-3.800;-9.798;11.548;-43.213;9.798;14.007;12.740
6471945.974;34.645;30.622;32.298;39.116;4.955;8.680;15.274;15.050
6471945.982;85.086;89.519;87.842;87.507;68.769;1.006;10.058;9.984
6471945.990;160.336;193.566;165.813;155.158;166.409;2.980;10.915;11.772
6471945.998;260.733;303.239;268.109;222.325;289.008;9.052;14.529;18.366
6471946.006;352.301;397.302;368.208;285.581;404.678;12.405;19.334;22.575
6471946.014;426.583;498.258;448.860;347.830;507.161;17.472;24.922;28.647
6471946.022;459.962;522.509;494.830;363.030;554.882;20.787;25.779;33.118
6471946.030;482.276;545.345;519.939;382.103;575.557;26.710;31.181;37.290
6471946.038;485.592;572.205;516.102;401.400;566.095;28.536;32.708;38.408
6471946.046;452.288;540.018;476.167;381.283;508.949;22.799;27.195;33.453
6471946.054;420.064;493.452;434.667;350.252;459.552;14.305;18.813;25.108
6471946.062;381.097;446.960;394.061;318.624;407.994;11.511;16.317;21.607
6471946.070;339.560;387.840;348.873;276.268;358.857;7.600;13.933;16.987
6471946.078;298.806;329.390;304.915;233.017;316.091;6.482;13.635;15.907
6471946.086;267.252;291.765;276.566;210.702;277.534;10.282;17.956;20.638
6471946.094;241.064;251.569;248.738;178.963;237.450;12.442;18.179;22.426
6471946.102;219.196;236.034;224.374;165.328;218.786;12.219;17.360;21.420
6471946.110;192.709;210.665;191.852;144.877;180.565;-1.565;0.857;9.425
6471946.118;178.516;186.898;184.365;126.027;158.250;-5.215;-5.104;7.823
6471946.126;158.139;159.703;160.784;110.529;141.896;-9.127;-7.451;3.576
6471946.134;133.142;127.256;141.114;96.001;117.309;-10.766;-5.066;2.831
6471946.142;121.556;113.472;125.356;87.321;105.873;-1.639;5.886;9.127
6471946.150;109.002;110.641;107.512;75.474;87.284;0.224;6.109;8.084
6471946.158;88.066;84.899;86.240;61.020;64.634;1.900;5.253;8.941
6471946.244;72.606;72.159;73.165;53.048;49.323;4.396;8.792;11.660
6471946.252;62.473;54.054;61.132;46.790;36.024;8.941;13.113;17.136
6471946.260;48.317;37.476;49.807;35.837;24.065;2.086;5.215;9.462
6471946.268;33.341;25.891;35.651;19.558;9.201;-7.525;-4.992;0.335
6471946.276;30.212;25.816;22.724;17.472;8.494;-12.927;-9.313;-0.261
6471946.284;19.595;10.878;18.999;8.605;-4.880;-15.460;-11.064;-0.559
6471946.292;11.213;2.123;12.331;7.823;-10.692;-5.923;-1.080;8.680
6471946.300;8.307;3.614;1.527;6.407;-16.280;-8.494;-0.596;4.396
6471946.308;2.161;-18.105;-4.657;-3.539;-25.183;-7.488;2.123;2.272
6471946.316;-13.523;-40.494;-13.523;-18.626;-40.680;-5.849;0.820;0.522
6471946.324;-17.807;-31.665;-18.962;-24.773;-40.270;-4.172;-1.639;2.757
6471946.332;-6.929;-17.583;-9.649;-20.005;-23.358;2.645;2.757;13.262
6471946.340;-21.271;-33.900;-30.212;-24.289;-48.280;-2.272;0.075;10.468
6471946.348;-45.486;-67.279;-61.430;-44.517;-77.263;-12.182;-7.935;-1.378
6471946.356;-49.323;-74.729;-51.595;-47.758;-79.386;-7.711;-1.937;0.000
6471946.364;-39.935;-55.283;-34.757;-43.437;-58.450;-6.519;-0.522;0.410
6471946.372;-27.902;-34.198;-29.616;-37.514;-48.392;-6.445;1.825;2.049
6471946.380;-32.559;-50.701;-39.302;-37.849;-62.436;-9.052;-0.522;-0.224
6471946.388;-38.557;-77.039;-56.513;-49.919;-77.225;-8.307;-0.633;-0.745
6471946.396;-37.663;-72.829;-49.211;-41.761;-60.275;2.906;11.921;10.692
6471946.404;-39.414;-57.332;-53.085;-43.325;-70.035;-1.714;7.749;5.141
6471946.412;-42.655;-53.011;-54.799;-45.300;-77.449;-9.052;-2.608;1.751
6471946.420;-61.430;-87.284;-65.379;-65.900;-81.025;-14.603;-6.743;-1.974
6471946.428;-64.261;-93.952;-73.649;-68.769;-87.023;-11.735;-1.155;-2.608
6471946.408;-55.060;-77.374;-61.579;-54.725;-75.288;-6.445;5.215;1.602
6471946.416;-54.985;-81.807;-68.396;-61.132;-85.868;-14.305;-4.806;-4.731
6471946.424;-71.339;-98.348;-82.776;-79.758;-97.491;-18.477;-9.201;-7.264
6471946.432;-72.680;-106.357;-82.329;-79.721;-94.771;-11.064;-2.347;-0.075
6471946.440;-61.952;-90.487;-69.030;-69.439;-87.805;-3.763;2.347;5.215
6471946.448;-59.791;-84.564;-66.608;-66.906;-85.495;-5.364;0.000;3.800
6471946.456;-54.166;-83.447;-67.502;-66.832;-79.572;-7.115;-2.198;3.912
6471946.464;-60.871;-86.427;-72.047;-67.614;-83.521;-10.841;-5.625;0.745
6471946.472;-58.375;-84.229;-66.981;-62.659;-73.202;-11.362;-4.731;-0.335
6471946.480;-43.586;-65.826;-55.432;-45.486;-56.848;-11.623;-4.172;-0.708
6471946.488;-7.749;-17.919;-20.079;-18.626;-6.519;-10.096;-3.800;-0.633
6471946.496;52.825;46.715;47.944;15.795;79.311;-11.809;-5.960;-4.508
6471946.504;135.042;134.408;130.348;66.049;202.842;-13.448;-5.811;-4.545
6471946.512;242.256;260.323;250.563;135.675;344.366;-9.909;-4.694;3.204
6471946.520;344.962;355.951;366.271;187.159;482.127;4.582;3.986;17.248
6471946.528;417.009;430.606;447.072;222.512;588.410;20.526;19.036;33.863
6471946.536;450.462;466.406;479.631;230.558;623.949;14.231;15.572;26.450
6471946.544;449.494;456.348;489.168;217.445;636.913;6.221;8.009;19.111
6471946.552;411.943;414.178;452.362;188.835;598.803;-4.135;-1.639;9.947
6471946.560;363.849;354.573;397.563;148.006;531.971;-12.890;-12.368;4.880
6471946.568;321.902;306.740;351.332;115.708;477.955;-14.268;-17.062;5.960
6471946.576;275.262;243.708;310.428;70.110;421.554;-21.458;-25.779;-1.825
6471946.584;243.783;203.885;272.542;41.462;366.159;-8.084;-12.666;5.588
6471946.592;222.847;171.028;241.958;28.759;316.799;10.915;8.494;22.091
6471946.618;196.435;147.671;212.118;7.935;287.369;9.350;7.004;19.893
6471946.626;161.603;113.510;176.355;-20.862;256.002;2.570;-2.868;15.534
6471946.634;133.254;72.494;153.966;-39.265;227.094;2.310;-3.278;14.976
6471946.642;105.053;56.438;115.819;-54.501;178.367;-6.184;-9.201;9.388
6471946.650;79.460;21.011;80.205;-82.366;137.873;-20.079;-22.836;-1.043
6471946.658;56.885;-13.448;65.602;-108.927;126.734;-22.985;-24.214;-6.743
6471946.666;55.656;2.421;76.480;-95.405;127.777;-7.898;-9.127;4.917
6471946.674;42.357;-4.955;51.707;-94.250;95.963;-1.267;-2.533;8.680
6471946.682;10.245;-48.727;21.085;-119.470;56.550;-13.039;-12.405;-1.267
6471946.690;1.155;-56.140;12.517;-129.268;56.438;-17.732;-15.013;-4.396
6471946.698;4.172;-57.369;1.639;-126.176;32.373;-19.819;-19.781;-4.992
6471946.706;-14.193;-74.878;-23.171;-134.930;1.490;-19.893;-20.005;-5.104
6471946.714;-19.409;-75.623;-20.526;-133.552;-6.519;-23.022;-18.515;-12.778
6471946.722;-33.677;-102.818;-30.920;-148.118;-15.795;-26.636;-19.409;-18.738
6471946.730;-43.660;-102.893;-37.551;-155.419;-27.567;-23.320;-16.131;-13.970
6471946.738;-45.635;-100.955;-45.300;-149.049;-41.053;-24.699;-17.323;-11.250
6471946.746;-47.497;-94.138;-53.234;-146.143;-49.211;-26.822;-20.750;-11.399
6471946.754;-47.348;-101.477;-53.942;-147.074;-52.750;-25.555;-20.824;-7.860
6471946.762;-57.109;-116.639;-61.654;-155.307;-67.018;-25.965;-22.128;-9.425
6471946.770;-58.152;-124.462;-64.708;-157.095;-61.467;-22.538;-18.701;-5.402
6471946.778;-61.505;-127.330;-80.429;-160.933;-84.043;-23.432;-20.713;-7.413
6471946.786;-53.756;-105.724;-66.869;-148.900;-88.625;-17.807;-12.890;-5.476
6471946.794;-52.862;-97.603;-53.942;-134.371;-71.749;-15.274;-9.798;-5.141
6471946.802;-40.457;-100.546;-51.782;-128.038;-68.247;-13.188;-6.184;-1.676
6471946.797;-46.752;-107.400;-70.818;-142.604;-94.697;-23.209;-19.707;-10.543
6471946.805;-66.124;-129.007;-87.619;-161.864;-117.533;-32.373;-31.069;-17.695
6471946.813;-82.962;-152.215;-97.565;-171.289;-125.580;-30.100;-28.573;-14.156
6471946.821;-76.331;-144.504;-99.242;-162.348;-132.136;-28.573;-25.071;-15.162
6471946.829;-61.505;-120.699;-84.192;-145.212;-114.962;-20.489;-13.821;-9.723
6471946.837;-58.189;-108.182;-79.088;-137.612;-107.177;-13.188;-6.147;-2.347
6471946.845;-68.359;-128.374;-85.644;-151.917;-123.978;-22.389;-17.621;-11.064
6471946.853;-68.247;-133.775;-81.398;-154.488;-120.848;-22.091;-17.174;-10.766
6471946.861;-64.559;-135.265;-88.140;-153.556;-129.230;-26.599;-21.718;-12.778
6471946.869;-62.659;-136.048;-88.401;-146.888;-126.548;-23.432;-22.277;-8.270
6471946.877;-60.759;-128.187;-95.852;-143.982;-129.454;-22.277;-22.128;-6.221
6471946.885;-73.686;-141.971;-100.508;-160.448;-128.187;-25.816;-24.810;-11.697
6471946.893;-77.263;-145.547;-90.636;-165.775;-138.544;-22.426;-20.564;-12.666
6471946.901;-68.583;-139.959;-92.350;-152.588;-138.991;-15.870;-13.709;-6.631
6471946.909;-48.690;-116.751;-73.127;-135.936;-118.241;-4.843;-4.396;4.880
6471946.917;-60.685;-136.755;-98.757;-143.684;-127.442;-7.153;-9.984;0.894
6471946.925;-70.222;-151.321;-101.998;-153.519;-142.865;-11.995;-14.938;-5.141
6471946.933;-57.407;-127.703;-80.615;-144.131;-133.216;-14.566;-14.380;-4.582
6471946.941;-72.122;-137.575;-99.912;-150.427;-137.724;-25.593;-22.352;-14.193
6471946.949;-68.583;-142.828;-102.483;-147.857;-147.671;-15.758;-11.846;-5.811
6471946.957;-63.255;-138.506;-100.248;-144.504;-147.074;-9.760;-9.499;-0.894
6471946.965;-51.558;-129.752;-89.109;-136.271;-122.599;-2.384;-4.955;4.023
6471946.973;-38.445;-109.449;-71.265;-126.995;-118.054;-0.745;-5.290;3.725
6471946.981;-47.237;-117.309;-77.970;-126.399;-134.222;-5.439;-10.431;-0.820
6471946.994;-52.042;-126.362;-88.662;-128.224;-122.413;-8.866;-12.480;-3.017
6471947.002;-37.178;-100.508;-72.047;-116.713;-92.424;-13.560;-14.715;-7.674
6471947.010;-0.522;-55.507;-30.808;-83.633;-45.970;-15.050;-12.070;-8.866
6471947.018;67.689;21.756;48.690;-27.604;38.743;-14.678;-12.070;-5.253
6471947.026;144.765;117.309;124.723;34.645;140.034;-19.595;-18.887;-6.147
6471947.034;241.362;216.998;226.162;96.969;259.206;-11.548;-10.431;0.857
6471947.042;352.003;327.490;344.664;173.599;387.356;-10.245;-9.872;0.820
6471947.050;422.932;437.573;416.525;237.413;470.877;-6.557;-9.835;4.359
6471947.058;442.639;463.687;448.972;259.280;517.331;1.118;-1.267;10.356
6471947.066;454.523;465.550;453.740;272.170;527.091;8.531;7.860;16.838
6471947.074;454.932;473.633;462.383;282.638;514.314;14.603;15.013;24.140
6471947.082;417.754;434.592;414.662;266.060;458.658;11.697;15.274;18.887
6471947.090;371.858;388.958;358.596;235.625;396.296;3.539;9.350;8.345
6471947.098;321.567;323.877;313.446;187.084;351.220;-7.376;0.112;-1.863
6471947.106;273.287;244.714;261.553;136.010;290.237;-12.517;-10.543;-3.241
6471947.114;233.650;192.411;221.096;95.442;237.003;-10.580;-13.225;0.484
6471947.122;204.891;175.014;193.082;80.876;201.203;-3.278;-3.204;4.694
6471947.130;180.826;143.684;162.348;67.838;165.738;9.313;11.474;12.629
6471947.138;150.762;95.777;128.187;31.814;123.195;4.023;5.066;6.668
6471947.146;118.688;55.991;99.503;2.868;91.381;3.688;1.714;2.831
6471947.154;90.115;31.181;76.741;-9.984;70.147;2.272;-0.335;1.825
6471947.162;68.322;14.342;51.185;-26.785;35.390;-6.370;-8.903;-5.364
6471947.170;53.719;-0.671;31.143;-34.720;16.354;-2.384;-6.407;1.341
6471947.178;34.571;-29.691;6.557;-46.603;1.714;-6.594;-12.666;0.037
6471947.186;6.072;-63.106;-24.475;-71.153;-36.433;-13.858;-20.266;-7.302
6471947.194;-8.494;-69.663;-37.029;-81.062;-54.426;-11.362;-15.423;-6.333
6471947.202;-22.911;-80.951;-51.409;-89.146;-73.761;-10.356;-10.394;-6.631
6471947.210;-37.402;-94.734;-69.737;-97.603;-88.550;-5.774;-6.482;-4.135
6471947.218;-40.196;-108.182;-74.282;-100.844;-94.734;2.384;1.937;3.763
6471947.226;-42.617;-119.135;-74.767;-101.216;-96.038;-1.304;-1.416;-1.006
6471947.234;-56.811;-126.176;-87.507;-114.366;-101.775;-6.296;-9.425;-5.104
6471947.242;-77.225;-144.430;-115.484;-131.540;-131.540;-13.784;-17.881;-11.362
6471947.250;-98.050;-165.962;-137.538;-147.671;-159.331;-18.626;-21.160;-15.162
6471947.258;-103.265;-178.292;-136.383;-153.594;-160.486;-13.709;-17.248;-5.886
6471947.266;-95.926;-165.328;-133.142;-146.776;-156.946;-6.109;-11.772;5.551
6471947.274;-105.016;-176.057;-150.725;-150.800;-181.161;-6.780;-11.772;1.229
6471947.282;-109.971;-181.459;-150.576;-152.290;-166.893;-3.763;-8.158;-2.049
6471947.290;-107.922;-177.100;-145.957;-150.800;-154.376;-7.227;-9.984;-8.866
6471947.298;-96.709;-173.226;-136.979;-147.484;-155.941;-4.172;-7.898;-6.780
6471947.306;-105.835;-181.571;-144.318;-152.029;-167.415;-1.155;-4.768;-4.582
6471947.314;-112.951;-189.915;-161.678;-152.290;-185.966;-2.086;-3.949;-3.427
6471947.322;-118.017;-191.107;-164.658;-158.362;-186.935;-7.786;-9.052;-5.327
6471947.330;-121.668;-192.709;-160.597;-159.219;-183.098;-9.164;-10.952;-4.619
6471947.338;-126.325;-193.901;-166.781;-162.944;-183.918;-10.841;-13.039;-6.855
6471947.346;-123.046;-191.145;-165.924;-159.144;-175.722;-17.695;-16.950;-15.572
6471947.354;-115.186;-182.502;-159.293;-150.800;-177.249;-16.168;-13.486;-15.646
6471947.362;-119.358;-194.386;-162.423;-154.302;-180.453;-14.007;-15.460;-14.268
6471947.370;-119.321;-198.893;-165.477;-159.629;-182.986;-9.388;-12.070;-9.537
6471947.378;-118.576;-190.176;-161.380;-157.095;-177.212;2.570;2.757;1.825
6471947.386;-118.390;-195.429;-159.964;-155.382;-169.314;3.539;4.731;2.831
6471947.394;-118.650;-194.460;-165.142;-155.084;-172.220;-2.906;-3.204;-0.149
6471947.402;-115.223;-182.912;-164.174;-153.519;-176.579;0.149;-1.378;3.278
6471947.383;-113.845;-183.582;-156.090;-152.551;-176.840;5.662;2.086;6.445
6471947.391;-113.733;-184.476;-157.170;-154.637;-168.644;6.631;2.980;4.843
6471947.399;-109.449;-180.081;-155.494;-149.831;-161.044;10.245;8.903;7.711
6471947.407;-109.673;-175.461;-157.207;-148.825;-159.256;8.680;7.115;7.376
6471947.415;-107.996;-168.532;-161.380;-148.341;-161.976;7.823;5.551;9.127
6471947.423;-106.171;-167.936;-151.955;-146.851;-156.984;5.178;3.874;6.743
6471947.431;-105.314;-169.091;-143.573;-145.100;-146.404;9.686;10.431;7.376
6471947.439;-104.494;-165.999;-142.567;-139.177;-148.714;14.305;17.472;12.144
6471947.447;-104.494;-155.121;-146.702;-137.687;-152.886;8.121;10.580;10.319
6471947.455;-107.959;-157.803;-153.221;-140.853;-166.781;6.929;8.903;9.090
6471947.463;-119.545;-172.257;-162.423;-147.261;-172.779;1.229;3.465;2.757
6471947.471;-115.372;-171.401;-157.505;-142.418;-165.738;6.929;9.015;9.015
6471947.479;-106.841;-153.556;-143.722;-131.130;-154.413;9.574;12.107;13.076
6471947.487;-112.951;-165.440;-151.321;-140.332;-160.746;5.439;7.935;7.674
6471947.495;-121.482;-167.228;-172.071;-151.023;-176.467;2.235;2.980;5.178
6471947.503;-111.535;-149.421;-147.186;-141.338;-167.340;-4.768;-4.098;-0.894
6471947.511;-105.053;-146.739;-133.738;-136.606;-160.560;-6.631;-6.221;-1.751
6471947.519;-102.483;-141.598;-148.378;-128.075;-162.907;-1.602;-1.527;5.104
6471947.527;-102.147;-134.036;-129.975;-110.604;-156.090;-3.539;-1.788;4.023
6471947.535;-82.254;-107.102;-109.263;-76.257;-153.519;10.692;13.672;16.801
6471947.543;-73.127;-91.493;-109.524;-59.828;-158.735;14.231;15.870;20.154
6471947.551;-74.729;-80.280;-117.160;-52.750;-167.638;9.537;10.952;14.044
6471947.559;-58.785;-74.282;-110.604;-44.964;-165.366;18.924;23.507;22.203
6471947.567;-66.683;-81.621;-119.992;-46.827;-175.461;12.964;18.924;15.683
6471947.562;-86.203;-107.214;-132.397;-52.564;-193.231;4.731;9.462;8.643
6471947.570;-94.660;-111.312;-133.142;-54.464;-183.955;2.868;7.488;9.276
6471947.578;-91.903;-97.826;-121.407;-53.272;-168.830;3.800;6.109;8.233
6471947.586;-77.598;-81.137;-109.747;-47.758;-166.334;0.522;1.267;3.837
6471947.594;-71.675;-79.349;-112.131;-46.492;-172.257;-0.112;-1.304;4.321
6471947.602;-78.790;-85.793;-114.702;-44.517;-176.877;3.763;1.080;7.972
6471947.610;-88.178;-103.936;-132.248;-46.343;-180.155;0.000;-1.751;3.800
6471947.618;-82.850;-92.871;-132.434;-35.837;-181.124;5.998;6.519;9.425
6471947.626;-71.041;-68.583;-104.271;-36.657;-170.432;10.058;11.586;13.635
6471947.634;-62.659;-68.471;-89.891;-31.814;-153.258;18.328;18.552;22.575
6471947.642;-68.098;-77.114;-104.383;-29.095;-154.823;15.236;16.391;18.999
6471947.650;-78.455;-82.962;-124.015;-38.743;-173.151;-3.949;-0.186;-1.565
6471947.658;-80.466;-88.736;-119.992;-38.520;-171.624;-5.215;-2.757;-1.527
6471947.666;-81.584;-96.299;-121.146;-35.092;-166.371;-1.639;1.304;3.874
6471947.674;-85.123;-99.577;-123.158;-40.270;-168.122;-1.751;1.155;4.396
6471947.682;-81.733;-86.799;-116.825;-38.482;-166.409;0.447;1.565;5.029
6471947.690;-74.208;-78.827;-111.349;-26.114;-164.621;6.706;5.662;11.325
6471947.698;-69.290;-69.551;-107.363;-20.750;-152.104;8.456;9.313;12.778
6471947.706;-76.331;-83.223;-111.945;-31.963;-155.270;6.109;11.735;8.009
6471947.714;-70.259;-71.600;-101.738;-21.458;-157.282;7.190;13.523;7.898
6471947.722;-67.502;-65.304;-103.638;-10.319;-152.290;9.350;15.311;10.543
6471947.730;-73.649;-66.496;-103.936;-9.052;-152.178;4.768;11.139;5.849
6471947.738;-78.119;-71.190;-109.151;-12.778;-160.113;-1.118;5.476;0.335
6471947.746;-90.338;-96.522;-126.399;-31.963;-180.788;-9.947;-4.955;-7.264
6471947.802;-97.752;-104.532;-128.299;-36.359;-178.255;-8.531;-7.004;-5.551
6471947.810;-85.197;-87.880;-120.848;-25.220;-169.799;0.447;1.453;2.831
6471947.818;-84.713;-81.360;-123.084;-24.140;-173.599;-0.186;0.410;1.714
6471947.826;-83.670;-82.813;-119.247;-23.730;-163.205;2.570;3.204;3.763
6471947.834;-91.046;-90.897;-121.295;-26.226;-157.729;-1.639;0.782;0.149
6471947.842;-82.292;-88.438;-99.204;-17.658;-145.771;-0.708;5.923;4.284
6471947.850;-78.902;-91.307;-110.269;-19.372;-154.302;-4.321;3.725;-0.857
6471947.858;-72.084;-75.325;-107.214;-14.007;-150.949;-8.568;-0.671;-5.439
6471947.866;-75.065;-65.342;-106.506;-8.680;-143.722;-5.849;-0.298;-3.241
6471947.874;-84.452;-76.778;-110.045;-16.615;-151.917;-5.364;-1.639;-3.800
6471947.882;-88.103;-95.107;-117.160;-24.438;-154.525;-3.241;-2.161;0.335
6471947.890;-75.400;-79.833;-108.741;-20.005;-145.473;1.751;1.229;7.600
6471947.898;-76.443;-81.994;-107.884;-21.383;-150.725;0.112;0.000;5.290
6471947.906;-80.243;-90.785;-112.839;-24.326;-141.300;-0.969;0.335;2.235
6471947.914;-89.034;-94.846;-114.739;-25.854;-149.421;-1.565;-1.863;1.490
6471947.922;-72.196;-58.338;-98.310;-9.052;-130.683;2.310;5.998;4.768
6471947.930;-67.018;-63.777;-89.668;-9.574;-124.089;-1.639;4.582;2.347
6471947.938;-73.239;-72.792;-100.322;-15.907;-134.893;-11.101;-7.264;-5.476
6471947.946;-80.653;-78.380;-109.300;-17.434;-140.816;-12.070;-11.735;-5.029
6471947.954;-77.635;-79.796;-108.816;-11.250;-132.471;-3.353;-3.688;-1.118
6471947.962;-73.016;-76.033;-99.726;-7.637;-126.548;3.837;5.215;4.210
6471947.970;-66.385;-71.302;-95.703;-2.645;-122.301;6.780;6.892;9.201
6471947.978;-68.173;-72.643;-97.603;-8.717;-126.548;1.937;3.204;4.992
6471947.986;-54.836;-55.358;-88.885;-1.639;-116.341;5.513;11.437;5.662
6471947.953;-58.971;-60.759;-94.958;-1.080;-116.825;2.347;6.333;3.055
6471947.961;-62.287;-63.181;-88.811;-3.465;-114.776;-0.522;2.347;3.241
6471947.969;-60.052;-61.989;-90.525;1.900;-112.578;5.811;12.591;7.041
6471947.977;-65.453;-70.184;-99.689;-1.229;-112.578;7.190;14.082;5.960
6471947.985;-65.155;-69.775;-95.516;-7.525;-120.550;5.215;8.419;4.806
6471947.993;-60.908;-68.583;-89.258;-7.600;-112.690;4.061;4.135;4.321
6471948.001;-59.046;-58.748;-90.189;-2.831;-107.326;15.125;16.093;14.901
6471948.009;-61.616;-56.177;-92.722;-8.345;-111.088;14.752;17.360;13.448
6471948.017;-61.914;-60.163;-97.826;-4.508;-113.286;9.462;12.778;9.798
6471948.025;-62.585;-63.889;-94.958;-2.384;-95.926;12.815;12.144;12.480
6471948.033;-73.425;-77.114;-94.995;-15.944;-105.388;2.310;0.224;1.527
6471948.041;-68.434;-84.527;-101.998;-15.870;-122.637;-1.974;-0.931;-1.565
6471948.049;-69.924;-81.211;-96.560;-14.417;-111.721;1.006;3.204;3.912
6471948.057;-73.276;-67.987;-94.064;-17.732;-105.463;-4.247;-0.782;0.000
6471948.065;-57.444;-52.750;-86.203;-7.041;-88.625;-3.949;0.820;0.298
6471948.073;-64.634;-67.502;-93.132;-10.319;-86.538;-7.190;-4.545;-1.900
6471948.081;-67.391;-78.343;-86.091;-18.366;-92.871;-10.543;-9.909;-5.215
6471948.089;-65.863;-71.488;-86.948;-15.944;-88.774;-4.657;-4.172;-0.075
6471948.097;-71.153;-71.563;-99.353;-8.494;-101.291;-1.937;-0.894;-0.373
6471948.105;-71.712;-70.073;-98.236;-6.668;-103.004;-2.868;-2.198;-3.725
6471948.113;-66.310;-57.220;-86.911;-7.115;-87.619;-5.327;-5.998;-4.955
6471948.121;-62.585;-63.293;-82.590;-4.880;-77.635;3.763;2.794;6.445
6471948.129;-57.444;-63.553;-88.885;-4.433;-87.582;10.654;11.213;15.199
6471948.137;-62.659;-71.675;-95.703;-8.158;-91.344;8.233;10.803;12.517
6471948.132;-60.052;-64.969;-81.807;-5.364;-74.692;10.654;14.938;14.380
6471948.140;-65.938;-60.685;-87.805;-2.086;-85.682;6.296;6.966;7.600
6471948.148;-57.705;-66.720;-88.364;-1.900;-83.782;6.706;6.333;7.898
6471948.156;-51.185;-52.191;-86.650;0.633;-78.529;3.278;3.651;3.763
6471948.164;-55.954;-46.976;-85.346;2.719;-75.251;-2.608;-0.559;-0.671
6471948.172;-56.662;-52.601;-78.268;-1.118;-65.528;-2.123;3.092;2.906
6471948.180;-57.556;-57.854;-74.580;-3.800;-72.829;-1.304;3.502;4.396
6471948.188;-54.874;-52.378;-71.935;-4.955;-69.328;-1.900;-1.639;4.694
6471948.196;-55.842;-51.707;-78.492;-4.843;-69.849;-7.190;-8.084;-0.633
6471948.204;-55.470;-45.560;-76.853;-0.484;-75.735;-2.906;-1.639;1.714
6471948.212;-48.354;-43.921;-73.798;4.247;-72.159;10.170;12.964;12.629
6471948.220;-41.090;-39.414;-65.118;10.058;-65.938;16.429;21.197;18.328
6471948.228;-38.631;-29.504;-63.293;18.217;-65.528;19.409;24.214;21.085
6471948.236;-27.344;-16.987;-55.023;35.353;-64.075;30.324;33.714;32.559
6471948.244;-34.273;-27.940;-58.115;28.312;-74.059;18.924;22.426;20.787
6471948.252;-41.723;-32.336;-69.439;12.778;-80.504;8.717;11.921;10.654
6471948.260;-35.465;-22.054;-63.218;18.254;-77.561;9.127;11.735;10.431
6471948.268;-22.501;-12.852;-48.503;33.267;-65.304;15.236;19.744;18.254
6471948.276;-23.879;-13.672;-46.939;33.751;-71.190;12.107;17.323;16.950
6471948.284;-37.998;-27.195;-63.553;21.830;-82.776;5.290;5.588;11.511
6471948.292;-28.349;-16.801;-54.650;29.989;-70.781;19.036;18.924;23.022
6471948.300;-7.190;1.267;-29.653;44.219;-54.650;39.600;42.021;41.761
6471948.308;-10.803;-4.433;-36.694;41.984;-65.975;32.075;31.590;33.528
6471948.316;-16.056;3.353;-35.688;43.251;-53.979;25.481;24.363;25.779
6471948.298;-23.991;-0.708;-48.801;38.520;-64.969;17.211;17.695;18.813
6471948.306;-25.928;-6.445;-54.650;32.745;-75.139;17.621;20.489;20.079
6471948.314;-21.197;-3.763;-36.657;37.104;-59.158;14.044;16.466;14.864
6471948.322;-19.446;4.098;-38.631;41.351;-52.005;20.005;19.930;19.073
6471948.330;-32.037;-7.600;-60.610;36.061;-68.620;21.979;20.973;21.532
6471948.338;-24.438;-7.488;-36.992;43.102;-70.594;28.349;25.854;28.908
6471948.346;-22.724;-12.554;-39.563;32.261;-74.729;32.075;28.983;33.043
6471948.354;-34.422;-6.072;-54.538;27.530;-69.700;26.487;24.885;27.679
6471948.362;-25.779;13.411;-37.774;40.121;-45.784;31.255;31.739;32.000
6471948.370;-22.352;5.886;-36.359;46.417;-49.695;31.814;34.869;31.069
6471948.378;-30.585;-4.396;-45.188;36.582;-59.605;19.893;22.650;19.446
6471948.386;-30.734;-4.321;-45.076;27.902;-59.716;17.285;18.589;17.919
6471948.394;-35.204;-18.142;-49.807;22.016;-62.846;19.930;19.968;21.011
6471948.402;-32.373;-5.662;-43.362;34.943;-55.321;15.944;16.876;17.658
6471948.410;-28.834;-6.817;-34.794;35.167;-46.939;15.236;15.534;15.050
6471948.418;-28.238;4.768;-36.694;43.139;-42.468;15.758;15.870;15.087
6471948.426;-18.068;22.314;-40.159;49.584;-46.119;17.397;17.919;18.440
6471948.434;-29.206;7.041;-41.947;36.992;-48.578;10.356;11.697;10.096
6471948.442;-20.042;11.250;-23.507;43.884;-46.231;15.944;17.025;13.784
6471948.450;-14.715;9.499;-19.744;43.474;-35.688;16.727;18.179;15.832
6471948.458;-18.924;6.221;-31.292;47.646;-35.614;16.205;18.738;15.832
6471948.466;-17.844;13.560;-34.012;46.007;-44.927;9.835;11.846;8.158
6471948.474;-25.257;-5.253;-35.651;33.453;-41.313;8.680;6.855;9.425
6471948.482;-35.502;-15.907;-44.219;26.412;-46.417;8.121;5.998;11.548
6471948.522;-29.132;-3.166;-37.998;37.849;-44.331;8.382;8.382;8.680
6471948.530;-30.212;2.496;-42.059;35.875;-45.411;6.184;5.662;4.396
6471948.538;-27.418;0.186;-39.712;35.316;-46.790;12.107;9.723;11.437
6471948.546;-30.696;-2.384;-27.530;42.468;-32.187;15.683;13.374;14.193
6471948.554;-24.401;3.502;-30.659;40.568;-29.504;7.004;3.912;6.072
6471948.562;-15.460;5.513;-28.908;37.327;-34.645;1.416;-4.470;1.080
6471948.570;-17.509;8.382;-29.206;43.474;-33.863;5.141;-0.633;6.035
6471948.578;-17.174;4.806;-30.100;45.300;-31.926;12.331;8.456;14.305
6471948.586;-21.644;0.596;-31.032;40.792;-36.135;5.029;2.272;6.258
6471948.594;-27.493;-8.270;-37.625;35.912;-36.769;-1.974;-4.098;0.186
6471948.602;-24.997;-0.186;-41.835;35.129;-37.067;-9.499;-8.568;-8.978
6471948.610;-13.672;6.892;-21.011;43.027;-27.306;-7.749;-2.868;-8.717
6471948.618;-10.729;9.574;-16.503;48.168;-16.093;0.708;9.425;-2.831
6471948.626;-10.915;16.205;-19.111;48.205;-17.248;6.706;13.821;1.602
6471948.634;-14.454;3.688;-21.793;36.396;-20.079;1.118;2.496;-0.857
6471948.642;-17.062;-0.224;-19.111;35.018;-17.881;2.272;0.820;-0.857
6471948.650;-15.274;3.316;-18.403;34.049;-16.801;3.725;1.490;-2.086
6471948.658;-10.654;6.296;-21.607;41.723;-16.019;9.649;7.339;2.794
6471948.666;-14.231;1.602;-24.736;38.780;-19.036;9.127;7.339;4.843
6471948.674;-12.964;0.298;-28.908;34.682;-22.836;4.321;3.055;1.974
6471948.682;-4.545;11.623;-20.005;41.723;-11.921;-0.894;0.224;-2.980
6471948.690;1.378;25.928;-4.135;47.572;13.970;-3.576;-1.751;-4.768
6471948.698;16.205;48.839;11.884;67.838;38.259;3.502;5.588;1.416
6471948.706;51.446;88.550;48.429;99.577;82.850;5.290;7.302;1.304
6471948.732;105.537;152.178;100.508;142.977;152.290;4.470;4.321;0.820
6471948.740;189.357;247.024;193.231;201.687;265.948;5.066;4.545;3.725
6471948.748;280.328;346.676;287.518;263.266;374.354;5.253;2.347;5.811
6471948.756;364.594;441.447;381.581;320.338;479.296;11.101;7.078;10.580
6471948.764;433.065;537.187;460.520;369.549;572.391;18.291;15.385;17.509
6471948.772;470.132;568.219;495.538;378.937;634.678;17.695;13.709;17.770
6471948.780;469.536;549.294;496.209;360.869;631.772;14.380;11.697;15.646
6471948.788;456.236;525.303;495.538;330.396;622.757;13.970;13.076;15.497
6471948.796;433.139;503.212;469.126;306.927;607.185;12.442;11.325;13.337
6471948.804;392.720;453.517;436.306;276.119;569.560;16.913;14.193;18.179
6471948.812;351.854;395.998;391.789;239.685;502.393;10.394;6.072;11.586
6471948.820;324.212;345.111;340.305;212.602;434.481;6.370;3.465;6.258
6471948.828;292.845;327.192;310.130;191.443;390.895;3.502;1.267;3.800
6471948.836;266.582;291.839;286.587;169.650;360.049;3.278;1.118;5.066
6471948.844;243.224;249.855;263.080;145.212;332.110;9.835;7.786;11.511
6471948.852;216.290;219.084;232.756;129.864;299.886;4.396;3.837;5.774
6471948.860;196.062;214.502;206.754;113.398;253.841;-0.857;-5.104;0.261
6471948.868;178.814;190.213;181.906;97.416;247.769;4.657;-2.347;5.551
6471948.876;147.112;141.263;161.864;72.718;223.666;-3.316;-6.855;-2.384
6471948.884;130.013;114.702;144.690;59.344;197.738;-6.184;-7.674;-4.955
6471948.892;119.060;122.935;125.132;51.670;171.512;-13.895;-19.707;-12.107
6471948.900;106.916;117.123;110.678;40.196;154.488;-20.191;-27.344;-17.807
6471948.908;91.009;87.693;96.485;30.324;142.641;-19.632;-24.438;-17.174
6471948.916;71.004;47.758;78.194;9.015;117.160;-23.693;-27.306;-19.334
6471948.924;56.475;34.794;60.424;-4.731;91.977;-26.152;-31.330;-21.309
6471948.932;47.721;39.302;53.234;-1.751;100.136;-27.642;-34.310;-25.555
6471948.940;43.325;41.611;48.317;0.671;96.112;-22.054;-27.418;-23.916
6471948.948;42.580;30.659;33.975;-8.829;78.641;-13.746;-16.950;-17.956
6471948.974;14.976;-13.188;9.723;-36.135;55.395;-8.270;-11.697;-13.486
6471948.982;6.109;-18.328;1.341;-43.847;36.582;-7.600;-10.878;-11.511
6471948.990;19.297;6.594;11.958;-31.181;45.151;-9.276;-11.735;-8.717
6471948.998;18.142;7.562;15.013;-33.081;49.621;-8.270;-10.766;-7.004
6471949.006;6.445;-11.921;-0.522;-44.294;36.471;-9.313;-12.070;-10.021
6471949.014;5.215;-16.689;-9.537;-42.021;31.926;-4.992;-4.955;-6.743
6471949.022;2.086;-26.189;-8.009;-44.182;22.538;3.129;6.258;0.373
6471949.030;7.041;-14.044;2.161;-41.239;17.434;3.614;8.866;-0.708
6471949.038;17.621;-0.894;11.176;-34.384;15.385;-0.931;2.794;-6.035
6471949.046;15.572;-8.419;3.502;-39.563;0.261;-6.482;-4.433;-10.058
6471949.054;-1.639;-28.685;-17.285;-50.552;-1.714;-5.774;-3.651;-7.004
6471949.062;-6.407;-33.192;-27.679;-51.819;-17.099;-10.952;-7.488;-10.282
6471949.070;-3.502;-28.238;-17.397;-50.403;-18.403;-12.144;-4.843;-9.388
6471949.078;-2.645;-34.533;-6.184;-50.478;-18.105;-12.554;-3.688;-9.798
6471949.086;8.419;-18.813;-8.531;-46.827;-19.707;-10.692;-4.023;-8.158
6471949.094;8.345;-21.383;-7.637;-48.578;-26.859;-7.972;-5.364;-6.258
6471949.102;-7.190;-30.585;-23.246;-52.489;-28.983;-8.792;-10.170;-7.674
6471949.110;4.917;-21.569;-10.394;-48.466;-15.944;-4.657;-5.849;-5.215
6471949.118;11.474;-16.689;4.806;-48.727;-20.079;-3.614;-5.215;-6.258
6471949.126;0.335;-35.726;-11.995;-58.375;-37.029;-5.923;-8.419;-7.451
6471949.134;-9.835;-44.368;-22.054;-63.740;-44.852;-11.623;-13.225;-9.909
6471949.142;-13.635;-51.782;-34.645;-66.683;-60.759;-8.307;-8.345;-7.041
6471949.150;4.098;-26.375;-19.744;-53.532;-37.923;5.625;9.164;2.980
6471949.158;12.256;-13.597;-10.990;-45.784;-36.620;2.086;6.109;0.782
6471949.123;-4.731;-43.772;-13.635;-60.983;-53.123;-7.451;-6.258;-5.029
6471949.131;-10.580;-61.505;-25.034;-73.090;-60.871;-7.339;-9.760;-3.353
6471949.139;-10.468;-48.093;-26.263;-69.253;-62.473;-0.708;-3.017;2.943
6471949.147;0.708;-38.184;-15.534;-62.995;-58.673;9.537;7.078;11.846
6471949.155;0.149;-39.414;-20.452;-65.081;-57.295;14.193;12.554;14.454
6471949.163;-3.465;-32.187;-26.114;-61.169;-62.659;5.886;5.588;4.321
6471949.171;-11.660;-47.050;-33.751;-61.654;-79.460;4.619;4.359;1.714
6471949.179;-7.302;-48.876;-23.134;-56.699;-77.933;1.155;1.453;-3.725
6471949.187;-2.906;-38.967;-16.727;-51.893;-71.488;2.310;2.049;-1.006
6471949.195;-11.697;-58.338;-26.971;-62.324;-77.449;-6.333;-6.929;-6.668
6471949.203;-3.390;-45.113;-35.092;-61.914;-70.482;-3.353;-2.757;-2.533
6471949.211;8.941;-25.444;-17.434;-54.054;-72.792;-0.447;1.453;0.745
6471949.219;0.149;-39.302;-18.440;-60.126;-80.317;-2.980;2.868;-3.725
6471949.227;-7.711;-47.535;-32.447;-58.264;-81.845;1.341;8.307;-1.341
6471949.235;-11.213;-54.576;-33.788;-65.789;-78.306;-0.484;1.080;-4.023
6471949.243;-7.339;-57.556;-21.383;-68.247;-71.265;-3.166;-4.061;-5.886
6471949.251;0.857;-37.253;-19.558;-59.120;-67.204;2.719;2.980;2.980
6471949.259;-2.459;-30.771;-27.046;-59.158;-71.079;-3.502;-3.576;-0.559
6471949.267;-9.164;-52.974;-33.453;-70.818;-88.327;-12.480;-9.462;-10.282
6471949.275;-14.007;-68.434;-37.923;-75.363;-93.915;-7.749;-2.757;-8.196
6471949.283;-19.632;-54.426;-48.280;-69.924;-94.213;-8.084;-4.433;-9.611
6471949.291;-22.948;-59.567;-50.291;-75.698;-90.748;-6.258;-6.855;-6.296
6471949.299;-34.496;-74.357;-56.066;-90.562;-97.752;-14.454;-20.973;-13.150
6471949.307;-31.479;-74.133;-48.801;-89.929;-97.528;-17.360;-22.165;-16.913
6471949.273;-29.020;-70.781;-43.139;-82.888;-94.324;-13.411;-12.629;-14.156
6471949.281;-26.599;-69.700;-46.343;-76.704;-96.373;-8.866;-7.078;-6.780
6471949.289;-23.432;-69.775;-48.168;-81.062;-96.038;-17.174;-15.460;-13.933
6471949.297;-30.249;-69.737;-54.613;-83.894;-96.932;-22.501;-17.919;-22.165
6471949.305;-33.192;-77.747;-53.830;-81.845;-97.267;-13.970;-7.935;-16.801
6471949.313;-31.143;-67.689;-50.887;-76.182;-95.032;-10.692;-5.588;-14.082
6471949.321;-30.808;-63.218;-49.919;-74.916;-89.929;-17.509;-12.256;-19.483
6471949.329;-24.587;-66.794;-50.366;-78.417;-97.826;-23.171;-17.062;-21.942
6471949.337;-23.432;-72.531;-49.956;-78.902;-96.895;-20.564;-14.976;-16.727
6471949.345;-15.534;-58.860;-22.128;-66.422;-65.640;-5.662;-5.104;-2.459
6471949.353;-22.352;-59.456;-33.602;-69.849;-70.669;-12.591;-11.735;-11.884
6471949.361;-27.716;-66.049;-46.156;-77.970;-86.725;-18.030;-15.609;-19.744
6471949.369;-29.542;-76.853;-57.146;-78.939;-91.381;-13.709;-12.815;-15.311
6471949.377;-32.410;-82.813;-49.211;-83.745;-86.762;-16.689;-14.119;-16.280
6471949.385;-26.897;-78.827;-43.139;-76.965;-84.527;-14.380;-9.425;-11.846
6471949.393;-26.822;-69.886;-50.552;-75.884;-83.670;-19.073;-15.572;-13.784
6471949.401;-29.057;-71.935;-43.511;-80.541;-75.810;-23.544;-26.189;-17.509
6471949.409;-31.106;-70.520;-45.747;-80.429;-74.431;-24.028;-27.195;-20.228
6471949.417;-29.951;-68.508;-45.560;-74.469;-74.618;-17.695;-17.174;-17.136
6471949.425;-30.734;-68.061;-41.649;-75.512;-78.082;-18.142;-15.944;-18.403
6471949.433;-23.581;-71.675;-43.213;-73.984;-82.292;-17.136;-15.311;-17.956
6471949.441;-22.724;-71.973;-45.523;-72.829;-72.047;-14.082;-14.044;-14.268
6471949.449;-17.434;-57.332;-42.729;-62.101;-67.912;-9.239;-10.133;-8.829
6471949.457;-27.716;-74.990;-47.199;-73.090;-71.600;-13.337;-15.944;-11.027
6471949.496;-30.696;-76.219;-40.084;-71.041;-64.224;-13.374;-16.689;-11.064
6471949.504;-27.195;-69.737;-50.291;-70.781;-74.171;-10.990;-13.635;-11.027
6471949.512;-29.653;-74.990;-59.940;-67.987;-80.876;-4.321;-6.519;-5.737
6471949.520;-18.142;-63.628;-43.102;-60.648;-67.092;3.539;3.241;0.298
6471949.528;-26.450;-69.961;-36.620;-69.328;-66.981;3.874;4.247;-2.198
6471949.536;-32.857;-72.978;-51.036;-69.775;-66.496;3.204;4.843;-1.788
6471949.544;-24.512;-66.757;-45.225;-64.485;-58.450;-6.668;-4.284;-6.258
6471949.552;-19.260;-57.220;-33.677;-55.395;-54.389;-10.319;-9.574;-7.078
6471949.560;-13.299;-56.997;-36.769;-56.624;-58.562;-14.789;-13.374;-13.672
6471949.568;-25.630;-76.070;-43.400;-65.304;-60.461;-14.938;-13.225;-14.082
6471949.576;-28.610;-71.414;-41.462;-68.471;-59.716;-19.707;-18.552;-15.460
6471949.584;-23.656;-61.765;-43.064;-66.161;-49.025;-21.458;-20.824;-17.881
6471949.592;-27.381;-64.038;-42.506;-63.069;-53.309;-15.758;-15.311;-15.125
6471949.600;-34.831;-77.523;-48.839;-66.161;-65.118;-9.425;-5.849;-10.245
6471949.608;-35.949;-84.750;-56.177;-72.308;-73.016;-12.144;-7.562;-11.101
6471949.616;-26.934;-74.841;-43.176;-65.267;-57.109;-11.735;-9.499;-9.723
6471949.624;-22.203;-55.321;-40.941;-61.877;-47.274;-15.870;-14.380;-13.746
6471949.632;-10.133;-53.532;-22.762;-50.031;-30.361;-9.388;-8.941;-4.210
6471949.640;-23.246;-71.861;-37.104;-54.315;-48.541;-9.239;-11.027;-2.980
6471949.648;-41.574;-75.772;-53.458;-70.818;-62.510;-15.236;-17.360;-11.846
6471949.656;-40.233;-79.982;-49.733;-73.425;-59.940;-16.131;-17.770;-13.560
6471949.664;-33.490;-75.698;-58.003;-76.219;-66.534;-17.583;-19.148;-13.635
6471949.672;-29.802;-69.104;-51.223;-71.488;-57.071;-19.372;-21.383;-15.162
6471949.680;-33.230;-78.306;-57.742;-68.061;-61.914;-16.019;-17.658;-12.107
6471949.708;-35.465;-79.758;-59.493;-66.869;-60.536;-13.411;-13.448;-11.623
6471949.716;-17.360;-59.269;-40.047;-55.805;-39.004;-8.531;-9.947;-4.321
6471949.724;-18.068;-59.530;-36.322;-57.369;-36.471;-8.494;-10.356;-4.247
6471949.732;-33.006;-74.580;-48.131;-65.751;-44.182;-2.906;-4.359;-1.974
6471949.740;-40.606;-71.339;-55.805;-67.055;-56.773;-1.229;-0.820;-1.006
6471949.748;-39.674;-77.859;-55.544;-65.714;-54.203;-3.986;-2.682;-3.129
6471949.756;-36.210;-71.749;-57.518;-65.118;-50.627;-0.969;0.224;-1.416
6471949.764;-22.314;-58.226;-50.180;-53.421;-50.031;4.731;7.749;4.135
6471949.772;-23.246;-68.098;-41.947;-54.017;-46.939;5.476;7.860;4.917
6471949.780;-35.167;-72.159;-46.343;-66.347;-53.681;-0.857;-0.484;-1.527
6471949.788;-30.808;-58.599;-46.194;-57.369;-59.754;-2.943;-4.619;-1.229
6471949.796;-17.136;-43.474;-33.341;-37.663;-45.113;-8.382;-10.021;-4.470
6471949.804;-15.348;-36.322;-27.604;-36.098;-37.961;-7.488;-5.364;-2.459
6471949.812;-10.803;-36.247;-25.593;-34.943;-47.386;4.694;9.090;8.158
6471949.820;-13.858;-42.357;-39.674;-40.829;-60.908;-1.490;2.980;-0.037
6471949.828;-24.773;-51.036;-41.574;-42.729;-61.505;-4.806;0.335;-3.874
6471949.836;-12.517;-41.313;-31.330;-35.539;-52.229;-0.261;5.327;1.229
6471949.844;-17.546;-44.070;-28.871;-40.196;-45.039;-5.513;-3.129;-5.104
6471949.852;-17.025;-35.092;-26.748;-34.869;-49.397;-8.084;-8.903;-7.637
6471949.860;-14.901;-39.116;-27.791;-34.757;-50.142;-10.394;-11.101;-6.072
6471949.868;-11.772;-37.178;-22.948;-29.765;-44.852;-2.943;-3.539;2.161
6471949.876;-18.589;-43.698;-37.439;-37.663;-58.152;-7.227;-8.233;-4.582
6471949.884;-8.978;-31.106;-29.691;-25.518;-49.099;0.037;0.075;0.782
6471949.892;1.304;-14.082;-11.250;-17.434;-40.755;0.745;0.931;2.757
6471949.980;-11.176;-31.330;-17.881;-28.647;-44.852;-9.015;-12.368;-6.296
6471949.988;-10.096;-33.975;-17.248;-27.716;-42.655;-4.172;-10.133;-2.459
6471949.996;-10.915;-30.361;-21.644;-30.063;-44.666;-2.347;-7.078;-1.900
6471950.004;-8.345;-27.530;-15.646;-22.538;-41.276;-8.531;-11.250;-8.941
6471950.012;-6.147;-25.295;-15.348;-25.295;-39.637;-10.878;-16.578;-10.058
6471950.020;-10.654;-25.481;-22.836;-27.902;-46.194;-12.182;-20.340;-8.531
6471950.028;-17.881;-38.072;-31.181;-31.926;-50.887;-14.901;-21.234;-8.866
6471950.036;-14.678;-32.783;-29.914;-28.983;-46.007;-11.809;-15.274;-7.562
6471950.044;-9.052;-29.020;-19.595;-21.867;-34.422;-3.241;-5.700;-2.086
6471950.052;-8.456;-22.091;-16.354;-16.317;-40.457;1.416;-2.012;1.974
6471950.060;-6.035;-21.197;-26.412;-19.930;-62.138;1.453;-1.490;1.937
6471950.068;-7.451;-29.318;-13.225;-29.355;-39.712;-1.751;-3.725;-1.900
6471950.076;-0.931;-21.569;-5.290;-24.624;-13.784;0.298;-3.763;1.900
6471950.084;15.087;-11.064;3.651;-16.019;-10.729;-5.551;-11.995;-1.416
6471950.092;12.070;-13.411;6.817;-16.280;-10.282;-13.225;-17.695;-8.494
6471950.100;-0.559;-20.117;-11.064;-17.583;-22.575;-10.841;-12.927;-7.041
6471950.108;-2.682;-20.601;-14.640;-16.689;-33.677;-7.674;-8.829;-3.055
6471950.116;-5.402;-30.249;-10.803;-31.628;-41.649;-16.987;-18.440;-11.362
6471950.124;-3.800;-25.593;-13.746;-27.083;-34.124;-16.801;-16.280;-10.245
6471950.132;18.068;-0.745;8.531;-4.508;-5.998;0.820;0.522;5.662
6471950.140;18.477;-1.602;7.711;-3.763;-1.490;0.671;-0.931;4.545
6471950.148;0.373;-18.515;-3.390;-19.521;-15.572;-10.990;-15.758;-6.445
6471950.156;-2.272;-28.387;-5.737;-31.553;-29.653;-18.552;-23.097;-13.299
6471950.164;0.484;-32.671;-8.941;-28.610;-29.430;-16.578;-20.489;-11.660
6471950.218;3.614;-7.786;-4.880;-15.572;-19.036;-10.394;-17.397;-5.029
6471950.226;-8.494;-12.591;-20.899;-21.234;-28.983;-8.456;-17.658;-2.943
6471950.234;-18.068;-41.462;-25.593;-36.135;-34.831;-10.133;-18.477;-8.009
6471950.242;-14.864;-40.978;-16.727;-34.980;-30.100;-6.519;-11.884;-7.004
6471950.250;-8.419;-37.402;-22.016;-32.410;-30.398;-3.651;-6.929;-3.949
6471950.258;-5.625;-28.834;-15.534;-22.948;-19.670;-0.931;-4.396;1.006
6471950.266;-6.333;-16.466;-16.019;-18.999;-16.205;-2.384;-4.210;-0.410
6471950.274;-8.978;-21.942;-16.950;-25.183;-22.687;-7.637;-8.382;-5.551
6471950.282;-11.846;-37.029;-15.348;-35.912;-29.542;-13.821;-17.621;-10.617
6471950.290;-8.903;-30.808;-15.460;-30.920;-20.228;-13.225;-17.919;-13.188
6471950.298;11.697;-2.608;0.298;-8.009;-6.407;-2.123;-6.370;-4.321
6471950.306;15.758;-3.688;6.370;-5.960;0.931;-0.447;-2.868;-1.788
6471950.314;17.360;-9.760;3.427;-5.178;3.502;-3.427;-3.055;-3.092
6471950.322;12.480;-10.952;-3.166;-7.898;-2.272;-5.774;-2.496;-5.141
6471950.330;0.335;-19.893;-19.483;-19.670;-20.824;-0.112;3.725;-2.198
6471950.338;7.413;-14.305;4.061;-26.822;15.162;-5.551;-4.955;-3.763
6471950.346;17.732;-25.071;22.985;-38.929;50.291;-12.927;-16.019;-6.594
6471950.354;62.324;26.710;58.636;-18.813;83.670;-13.560;-17.993;-8.717
6471950.362;111.684;80.019;106.879;15.050;141.785;-7.860;-11.660;-5.960
6471950.370;149.682;108.518;165.030;26.859;204.109;-3.278;-7.451;-1.825
6471950.378;175.759;126.213;188.947;42.915;233.278;-3.166;-6.855;-2.459
6471950.386;195.876;160.709;199.601;61.393;253.320;-4.359;-4.396;-3.539
6471950.394;209.548;179.298;218.749;78.343;274.889;7.823;8.047;7.525
6471950.402;222.176;185.259;244.565;86.613;298.917;24.103;20.601;25.108
6471950.429;210.069;173.785;230.893;77.970;284.575;28.946;24.959;28.238
6471950.437;186.786;157.990;199.527;66.534;256.412;27.679;24.363;25.928
6471950.445;173.897;136.644;183.843;51.521;238.307;19.707;17.807;21.271
6471950.453;170.469;132.024;177.845;48.950;230.558;8.717;4.657;11.660
6471950.461;161.044;125.803;169.389;46.007;209.138;4.023;-3.316;6.370
6471950.469;148.192;116.788;156.052;38.259;201.240;11.958;1.341;14.789
6471950.477;135.936;95.367;142.679;32.187;180.602;16.019;5.178;20.191
6471950.485;123.642;79.721;125.654;24.438;164.323;15.534;9.127;16.540
6471950.493;102.408;55.917;101.067;7.860;146.180;11.623;9.350;10.692
6471950.501;90.040;53.905;88.252;11.176;127.330;12.219;10.431;11.213
6471950.509;95.516;51.484;87.693;8.754;121.482;13.523;11.399;14.417
6471950.517;92.015;48.615;85.756;5.923;128.150;8.084;6.519;11.325
6471950.525;97.118;54.464;100.099;16.578;132.583;5.588;7.264;9.723
6471950.533;71.451;22.911;66.236;-1.937;91.121;-0.671;0.261;1.676
6471950.541;60.722;20.117;56.103;-8.866;87.023;-1.676;-3.800;0.335
6471950.549;73.351;26.859;67.912;-4.545;101.663;1.900;-0.894;5.476
6471950.557;68.508;20.079;63.851;-9.462;90.487;2.272;-0.559;4.843
6471950.565;51.744;1.639;35.018;-15.274;73.947;-1.118;-3.502;-0.596
6471950.573;43.288;-3.316;30.994;-16.764;64.448;-0.708;-2.570;-0.149
6471950.581;43.064;2.868;42.096;-16.131;68.173;-2.980;-4.582;-0.112
6471950.589;49.435;3.353;37.402;-14.827;68.024;-7.004;-7.451;-2.719
6471950.597;50.440;8.233;32.410;-17.546;61.691;-9.164;-8.643;-5.737
6471950.605;40.978;-11.064;27.157;-26.859;55.283;-7.041;-7.935;-3.539
6471950.613;50.217;1.527;31.963;-17.807;59.977;2.906;-0.037;6.333
6471950.638;52.936;7.376;38.333;-15.907;78.119;10.133;8.717;12.033
6471950.646;49.919;2.235;44.890;-22.724;76.853;9.760;9.425;12.480
6471950.654;34.682;-20.266;29.765;-35.837;59.456;4.843;3.763;8.084
6471950.662;38.333;-8.494;25.183;-33.453;58.077;13.337;10.282;14.193
6471950.670;44.405;8.531;34.533;-20.415;62.473;17.658;14.417;18.068
6471950.678;41.537;7.004;29.802;-23.134;48.876;9.313;6.855;11.288
6471950.686;32.149;-9.015;11.176;-35.092;34.757;-0.820;-4.210;1.527
6471950.694;26.785;-22.426;22.352;-39.265;32.261;-1.229;-8.345;2.049
6471950.702;31.181;-14.789;26.077;-32.745;37.029;3.874;-2.906;8.382
6471950.710;41.127;5.811;30.808;-22.985;39.935;3.465;-0.671;8.903
6471950.718;39.861;14.044;32.596;-20.228;41.388;-0.708;-4.023;4.843
6471950.726;47.013;20.526;35.800;-16.056;44.741;3.017;2.049;6.370
6471950.734;50.925;13.411;42.580;-14.752;44.815;13.001;13.672;16.019
6471950.742;37.849;-1.416;36.545;-22.575;37.067;6.594;5.662;12.554
6471950.750;39.488;-1.900;34.943;-30.696;30.659;-1.229;-6.370;6.817
6471950.758;45.151;18.477;39.302;-26.040;45.523;2.459;-4.657;11.101
6471950.766;45.486;20.936;46.417;-17.658;47.050;8.009;1.267;14.491
6471950.774;60.722;28.126;60.275;4.210;45.002;1.788;-0.037;7.637
6471950.782;61.095;36.173;59.009;22.128;41.090;-1.155;1.900;3.390
6471950.790;70.557;61.952;63.293;36.135;37.588;-4.768;1.453;-1.080
6471950.798;80.653;63.404;61.542;34.347;30.920;-6.482;-1.714;-1.490
6471950.806;69.775;52.191;66.310;29.653;22.352;1.416;4.545;6.445
6471950.814;59.120;46.939;52.303;32.894;13.448;5.849;9.462;12.107
6471950.822;56.475;41.761;40.606;33.155;11.437;9.462;13.784;15.236
6471950.802;49.509;30.100;42.059;25.369;11.921;2.757;6.594;8.717
6471950.810;48.354;37.216;37.327;24.773;5.662;-0.410;3.241;3.688
6471950.818;51.707;40.457;36.769;27.642;3.539;0.931;8.307;0.596
6471950.826;48.056;31.963;41.425;26.897;4.619;2.906;11.884;2.384
6471950.834;64.336;54.836;50.664;33.751;13.672;4.582;10.468;5.551
6471950.842;49.137;38.259;35.651;26.189;4.619;3.241;6.109;2.868
6471950.850;42.431;28.834;32.894;23.432;-5.923;9.984;12.740;10.207
6471950.858;36.284;21.569;25.295;19.558;-13.709;8.456;11.846;11.027
6471950.866;38.408;38.669;26.673;19.073;-10.915;1.974;6.035;5.513
6471950.874;37.104;29.691;28.610;11.548;-5.439;-0.075;3.725;3.316
6471950.882;29.765;13.858;26.748;8.568;-2.868;-3.800;1.229;-1.676
6471950.890;30.585;15.683;25.220;11.139;-8.233;-6.072;1.490;-7.004
6471950.898;30.063;23.879;21.271;17.844;-12.144;1.602;8.419;-1.527
6471950.906;39.972;35.353;27.791;26.487;-2.496;12.256;16.913;11.027
6471950.914;39.190;35.092;26.487;21.458;-3.204;11.474;15.311;13.448
6471950.922;23.209;4.135;9.649;2.608;-22.165;-2.645;0.559;0.447
6471950.930;16.205;11.101;7.339;1.229;-22.799;-6.780;-2.831;-5.104
6471950.938;22.054;20.228;20.526;9.649;-11.288;4.619;10.803;3.763
6471950.946;33.602;25.183;32.410;20.713;-2.459;2.123;10.580;1.043
6471950.954;28.983;29.020;18.217;21.383;-3.241;-5.215;1.714;-5.774
6471950.962;18.589;6.929;1.639;10.282;-21.160;-2.943;0.373;-3.725
6471950.970;13.337;1.118;6.407;5.029;-16.242;-0.112;4.657;0.447
6471950.978;21.793;14.119;22.650;11.027;-2.421;5.886;11.288;8.978
6471950.986;16.913;11.362;12.517;5.141;-16.317;-3.725;1.155;0.373
6471951.013;12.927;9.127;-2.012;4.619;-28.983;-9.052;-3.800;-6.445
6471951.021;7.525;-1.714;-11.362;2.198;-26.338;-10.990;-3.800;-9.835
6471951.029;25.369;16.242;17.919;15.721;-0.075;-5.551;2.384;-4.731
6471951.037;28.424;22.054;22.240;15.683;-2.086;-10.245;-3.017;-9.686
6471951.045;17.323;12.927;10.952;10.133;-16.652;-7.600;0.410;-9.164
6471951.053;14.007;6.668;4.545;4.657;-14.268;-1.378;7.041;-3.725
6471951.061;10.431;-2.459;4.433;2.868;-13.039;3.539;8.419;2.533
6471951.069;16.056;3.614;10.803;6.892;-8.494;0.224;1.714;4.396
6471951.077;22.165;7.153;7.376;13.150;-5.104;-1.118;1.490;5.513
6471951.085;21.234;20.936;8.419;15.832;-7.711;-6.817;-2.868;-1.714
6471951.093;16.131;20.005;4.806;15.050;-15.423;-9.462;-6.445;-6.147
6471951.101;16.391;8.866;-5.364;16.429;-7.525;-2.906;-0.112;-1.378
6471951.109;16.950;2.682;1.751;16.056;1.304;2.347;6.370;1.825
6471951.117;17.174;-1.565;12.144;8.531;3.017;1.974;7.413;-0.186
6471951.125;24.550;18.738;20.452;15.236;3.614;7.004;11.921;4.508
6471951.133;17.099;24.997;4.023;18.552;-4.880;11.101;15.423;10.058
6471951.141;-2.459;1.900;-10.245;11.399;-19.856;2.012;7.078;1.527
6471951.149;0.112;-14.566;-2.682;6.929;-11.027;-1.416;5.402;-1.304
6471951.157;7.711;-11.697;-7.823;2.459;-10.431;4.284;9.127;6.445
6471951.165;-2.757;-7.711;-23.544;-3.502;-17.248;0.857;2.384;6.184
6471951.173;-9.164;-8.978;-21.420;-7.004;-16.093;-3.614;-1.267;1.229
6471951.181;8.941;14.231;0.782;13.262;-0.559;5.998;9.984;9.425
6471951.189;9.760;-1.043;7.488;16.242;6.557;17.621;21.011;21.420
6471951.197;-5.700;-13.039;-11.586;1.602;-7.190;9.425;12.852;10.617
6471951.207;-6.109;-6.743;-18.738;-2.235;-16.280;0.857;4.284;-1.490
6471951.215;-2.496;-10.990;-11.623;-1.304;-3.614;6.370;6.221;2.645
6471951.223;-4.880;-9.984;-21.197;-2.496;-6.296;5.662;3.576;3.390
6471951.231;-13.262;-10.990;-34.273;-4.843;-14.380;-5.737;-4.098;-6.184
6471951.239;-14.566;-11.846;-29.467;-2.272;-18.701;-10.505;-5.364;-10.729
6471951.247;-8.047;-16.540;-8.121;0.149;-2.719;-5.029;0.000;-4.284
6471951.255;-8.345;-16.540;-12.666;3.576;-4.992;-0.447;3.204;1.900
6471951.263;-7.600;-7.339;-20.042;2.086;12.740;-0.633;2.421;2.831
6471951.271;5.364;4.321;2.496;4.359;14.007;1.490;4.284;5.625
6471951.279;-10.543;-18.589;-20.005;-9.425;-10.729;1.676;3.576;4.806
6471951.287;-23.618;-39.674;-28.536;-14.752;-9.201;3.353;6.557;7.339
6471951.295;-12.591;-13.299;-16.652;-2.943;-0.969;5.364;11.437;7.823
6471951.303;-9.090;-4.135;-15.050;0.447;11.846;1.453;5.029;1.639
6471951.311;0.522;-5.998;-11.250;2.608;13.970;4.098;3.725;4.582
6471951.319;-8.419;-11.548;-18.328;-0.224;2.533;-0.186;2.868;0.820
6471951.327;-9.015;-7.935;-19.930;-2.533;1.229;-3.912;2.757;-2.384
6471951.335;0.857;-14.342;-9.835;-3.912;9.052;-0.857;2.012;0.522
6471951.343;4.396;-4.992;-9.239;4.433;20.899;10.319;9.015;12.144
6471951.351;-5.104;-6.557;-12.368;1.453;22.613;8.754;7.823;12.107
6471951.359;1.416;5.886;-2.757;2.347;23.730;7.525;9.127;9.686
6471951.367;13.486;8.717;6.519;5.364;25.518;12.480;14.566;10.878
6471951.375;16.838;6.109;14.342;3.017;41.425;15.758;16.168;13.225
6471951.383;11.995;9.313;11.548;2.645;36.433;17.770;18.515;18.477
6471951.391;9.462;13.597;6.519;3.055;37.961;16.876;18.366;21.569
6471951.448;16.987;26.226;27.716;7.972;68.620;5.141;6.035;13.039
6471951.456;-2.980;-1.825;3.092;-12.033;43.735;3.465;1.192;11.139
6471951.464;-25.332;-31.367;-21.122;-32.634;18.030;-4.955;-6.296;0.894
6471951.472;-37.365;-48.019;-31.739;-44.070;5.402;-12.368;-11.511;-6.631
6471951.480;-34.049;-55.730;-29.840;-43.735;8.196;-10.654;-7.488;-5.402
6471951.488;-34.980;-48.131;-29.057;-38.557;10.468;-12.293;-6.631;-8.866
6471951.496;-36.545;-54.352;-33.416;-41.872;1.676;-11.623;-5.104;-8.754
6471951.504;-31.181;-45.411;-32.708;-37.104;2.347;-1.825;3.092;1.527
6471951.512;-20.489;-12.666;-25.779;-19.968;2.719;11.474;16.168;13.299
6471951.520;-23.395;-14.082;-16.168;-16.317;4.210;10.543;14.566;11.474
6471951.528;-30.249;-37.141;-22.613;-27.716;1.043;3.651;8.456;2.757
6471951.536;-41.127;-50.515;-38.147;-38.184;-10.803;-5.923;-3.092;-3.427
6471951.544;-48.988;-55.656;-40.419;-39.078;-11.548;-11.474;-10.245;-5.066
6471951.552;-45.039;-46.566;-43.213;-36.061;-15.609;-14.938;-12.293;-7.674
6471951.560;-33.602;-23.097;-35.912;-25.071;-11.250;-6.557;-1.527;-1.490
6471951.568;-37.141;-29.393;-41.127;-20.675;-10.282;-1.304;5.253;0.224
6471951.576;-44.554;-36.322;-33.528;-20.824;-16.429;-7.413;-1.080;-7.339
6471951.584;-40.308;-35.241;-23.283;-21.160;-4.098;-11.362;-5.849;-11.623
6471951.592;-30.547;-30.436;-17.583;-18.403;-1.863;-12.368;-5.923;-16.540
6471951.600;-29.542;-24.587;-24.438;-14.603;-9.760;-11.362;-2.123;-17.919
6471951.608;-36.061;-24.736;-31.963;-17.621;-15.870;-10.505;-1.676;-15.311
6471951.616;-37.365;-20.154;-33.528;-16.950;-12.182;-4.806;0.149;-4.880
6471951.624;-39.116;-14.864;-33.416;-15.832;-11.027;1.527;2.682;3.800
6471951.632;-44.405;-27.940;-39.302;-16.540;-20.042;2.384;4.992;6.743
6471951.643;-48.392;-36.508;-47.572;-24.140;-25.705;0.075;6.743;5.253
6471951.651;-52.378;-41.462;-52.527;-27.120;-25.965;1.937;8.121;3.688
6471951.659;-45.858;-26.897;-37.476;-12.591;-21.122;7.562;11.995;8.121
6471951.667;-41.313;-25.854;-33.528;-18.962;-20.564;-1.900;5.402;0.410
6471951.675;-45.598;-35.502;-39.339;-22.016;-21.346;-13.076;1.155;-10.356
6471951.683;-49.435;-31.255;-43.772;-18.999;-18.403;-12.666;-0.484;-11.958
6471951.691;-61.952;-44.741;-58.338;-31.069;-31.814;-9.909;-7.525;-10.878
6471951.699;-60.238;-48.615;-64.895;-32.783;-43.809;-0.484;-1.527;0.335
6471951.707;-46.045;-24.326;-43.698;-21.160;-24.512;9.164;9.276;9.649
6471951.715;-39.227;-21.830;-31.404;-18.515;-14.789;11.399;12.927;8.307
6471951.723;-40.755;-27.828;-28.163;-10.915;-5.476;11.846;15.311;8.419
6471951.731;-33.751;-15.609;-26.263;-4.284;-0.633;4.880;8.196;3.986
6471951.739;-34.831;-18.813;-32.261;-16.242;-13.858;-11.250;-6.184;-8.196
6471951.747;-33.379;-13.113;-30.622;-11.362;-11.213;-19.819;-10.170;-15.646
6471951.755;-31.851;-14.529;-16.503;-8.903;3.017;-16.131;-8.121;-13.448
6471951.763;-36.657;-20.973;-25.928;-13.523;-9.649;0.782;1.304;-1.043
6471951.771;-42.282;-22.426;-36.322;-11.064;-11.809;15.832;11.288;12.033
6471951.779;-40.270;-20.787;-33.863;-14.491;-12.927;12.405;7.823;12.219
6471951.787;-36.322;-20.638;-34.869;-10.952;-6.855;15.311;11.958;17.695
6471951.795;-32.783;-20.489;-32.559;-15.646;-6.184;9.947;9.760;14.566
6471951.803;-38.445;-26.189;-34.310;-17.136;-16.131;1.378;4.731;5.253
6471951.811;-36.545;-20.452;-36.992;-8.792;-18.924;4.582;7.786;4.433
6471951.819;-45.076;-32.820;-41.313;-11.139;-14.268;13.523;15.087;11.772
6471951.827;-32.559;-14.268;-31.963;-12.405;-9.909;8.121;9.574;6.668
6471951.823;-23.060;-5.700;-23.171;-7.860;-5.662;7.339;6.743;6.706
6471951.831;-31.702;-19.260;-32.298;-11.921;-6.594;10.841;6.109;9.649
6471951.839;-29.765;-16.131;-28.536;-11.288;-6.445;5.290;0.298;5.327
6471951.847;-37.700;-32.261;-32.000;-13.784;-8.717;-7.413;-7.302;-4.061
6471951.855;-39.414;-25.555;-39.004;-13.076;-4.582;-10.803;-7.227;-6.519
6471951.863;-34.049;-18.291;-35.949;-16.354;-5.327;-9.313;-5.215;-7.041
6471951.871;-32.820;-19.409;-31.516;-15.870;-13.337;-2.310;-1.155;-0.820
6471951.879;-25.965;-15.125;-23.879;-13.337;-13.337;8.792;7.562;9.127
6471951.887;-31.069;-20.824;-28.163;-13.001;-0.410;6.184;5.364;8.382
6471951.895;-36.135;-33.081;-31.628;-11.474;4.470;8.419;8.233;10.990
6471951.903;-32.410;-27.604;-38.482;-17.807;-10.915;8.792;10.468;9.164
6471951.911;-26.934;-19.036;-31.479;-15.013;-1.006;11.176;13.895;11.250
6471951.919;-25.071;-8.009;-18.254;-6.743;-2.272;11.846;13.970;12.107
6471951.927;-27.828;-17.993;-26.897;-9.909;9.537;8.233;7.600;9.015
6471951.935;-12.778;-5.513;-11.399;2.533;24.401;13.597;13.597;14.603
6471951.943;-8.568;0.224;-3.390;1.080;21.718;10.096;11.325;12.442
6471951.951;-23.134;-25.034;-22.762;-14.156;9.388;3.055;3.316;7.153
6471951.959;-34.273;-38.147;-44.219;-24.661;-7.711;0.224;-1.676;3.651
6471951.967;-37.737;-36.433;-36.396;-26.599;-10.356;3.017;1.304;7.451
6471951.975;-23.767;-13.821;-20.936;-12.666;7.488;3.614;3.427;6.407
6471951.983;-18.589;-13.448;-17.881;-16.615;17.695;-8.047;-7.451;-5.327
6471951.991;-29.616;-25.444;-26.412;-27.455;11.697;-20.117;-16.019;-15.311
6471951.999;-42.059;-41.984;-38.147;-32.969;-5.923;-15.274;-11.139;-9.872
6471952.007;-48.168;-47.944;-47.907;-38.035;-13.299;-3.763;-6.482;0.931
6471951.958;-53.421;-53.085;-45.449;-43.325;-6.519;3.129;-4.359;8.196
6471951.966;-46.715;-48.615;-42.617;-44.890;-7.562;-1.155;-9.276;3.614
6471951.974;-16.205;-10.990;-10.394;-18.738;21.346;-6.370;-12.964;-2.608
6471951.982;-2.608;9.537;1.900;2.645;41.351;-4.545;-8.494;0.447
6471951.990;5.886;17.807;13.039;14.976;56.028;-1.341;-3.614;3.353
6471951.998;15.236;20.601;15.348;14.044;48.988;3.874;2.906;6.445
6471952.006;9.425;10.654;9.649;9.015;27.195;12.591;9.425;14.454
6471952.014;3.912;7.600;-1.341;7.227;16.876;17.136;11.884;20.228
6471952.022;-0.671;4.992;0.969;5.513;32.708;17.583;11.586;18.217
6471952.030;-5.737;-1.565;2.123;1.490;35.018;14.156;9.537;12.442
6471952.038;-4.135;2.347;-1.863;2.906;34.235;16.205;15.572;11.995
6471952.046;0.522;1.602;-1.267;-1.527;30.324;10.766;10.207;7.227
6471952.054;8.084;14.491;9.388;5.960;33.490;14.044;10.990;10.841
6471952.062;12.815;18.887;11.735;15.199;36.992;23.060;18.738;20.042
6471952.070;-1.229;5.104;-6.333;1.565;23.916;17.993;11.995;17.472
6471952.078;-17.732;-17.807;-24.140;-21.532;15.795;4.210;-2.980;5.364
6471952.086;-18.664;-18.887;-13.188;-24.885;17.174;-3.278;-7.488;-0.969
6471952.094;-21.271;-21.309;-15.274;-28.387;16.987;-3.316;-4.210;-1.639
6471952.102;-14.640;-10.654;-14.491;-22.911;20.973;3.465;2.384;4.210
6471952.110;-8.531;-0.298;-11.399;-12.033;31.628;11.027;8.307;11.884
6471952.118;-10.431;0.410;-5.476;-10.096;24.140;15.683;13.113;15.832
6471952.126;-26.897;-23.209;-19.446;-21.383;2.198;12.852;11.325;12.442
6471952.134;-28.908;-35.204;-33.900;-31.739;-5.625;6.706;7.711;5.811
6471952.142;-27.716;-21.607;-34.720;-29.579;-11.325;4.284;7.413;-0.373
6471952.093;-29.542;-12.331;-27.083;-27.530;-7.823;12.219;17.434;3.465
6471952.101;12.070;34.533;20.564;2.161;45.188;18.068;21.197;8.903
6471952.109;42.655;56.028;50.552;11.623;86.278;25.369;25.071;19.856
6471952.117;59.903;50.366;63.851;-8.196;120.737;24.550;21.532;25.705
6471952.125;65.528;39.488;76.853;-41.313;143.498;11.623;5.662;20.824
6471952.133;72.084;24.140;96.075;-69.812;157.617;-6.407;-12.629;11.027
6471952.141;76.853;43.847;103.302;-85.160;159.740;-19.185;-23.879;3.353
6471952.149;65.155;38.147;82.627;-92.126;152.886;-28.796;-30.734;-8.568
6471952.157;72.457;31.367;73.723;-82.627;159.442;-20.564;-20.452;-5.551
6471952.165;67.838;22.314;81.435;-85.048;144.206;-17.583;-15.274;-8.158
6471952.173;53.160;15.907;70.706;-87.060;130.385;-13.858;-12.144;-6.929
6471952.181;43.996;12.778;56.215;-87.656;113.994;-4.210;-5.253;2.608
6471952.189;33.975;-4.470;33.006;-97.416;87.656;-2.347;-3.986;1.267
6471952.197;29.951;-10.692;23.693;-106.879;82.105;-1.788;-5.364;-1.565
6471952.205;25.518;-10.915;33.118;-102.706;92.573;6.370;-1.118;7.562
6471952.213;29.691;3.800;39.488;-96.560;88.252;9.537;-1.304;11.958
6471952.221;23.507;-4.284;32.000;-97.603;81.100;6.109;-4.768;10.356
6471952.229;29.020;7.562;20.750;-89.630;79.237;5.290;-4.843;9.947
6471952.237;32.075;0.820;30.473;-82.366;73.798;9.798;-1.378;16.093
6471952.245;41.090;-1.974;53.234;-78.343;87.880;-0.559;-11.697;7.674
6471952.253;50.887;17.509;51.036;-74.580;94.064;-2.384;-11.511;5.141
6471952.261;36.545;9.537;29.951;-80.839;86.240;-5.439;-14.380;1.602
6471952.269;32.373;9.798;39.786;-86.203;73.463;-8.494;-16.652;-2.421
6471952.277;10.952;-16.950;11.139;-103.191;51.484;-7.674;-13.672;-3.539
6471952.286;7.860;-22.575;4.359;-101.440;55.060;-0.633;-6.296;3.316
6471952.294;39.227;1.118;50.738;-88.476;100.918;-1.937;-7.302;4.321
6471952.302;47.982;10.654;54.277;-90.562;102.185;3.502;-4.396;10.729
6471952.310;58.636;34.943;63.814;-77.114;112.839;5.923;-5.066;15.162
6471952.318;70.408;42.878;68.992;-72.606;121.072;8.903;-4.210;18.142
6471952.326;72.531;34.086;82.254;-70.482;119.954;7.972;-5.625;16.801
6471952.334;67.055;23.507;72.122;-75.325;114.143;4.731;-7.562;10.096
6471952.342;66.459;39.674;61.207;-72.047;103.563;3.614;-7.711;7.637
6471952.350;59.716;25.630;47.199;-76.033;88.364;1.751;-7.823;6.221
6471952.358;58.711;17.099;45.672;-78.082;83.484;9.425;-0.671;12.778
6471952.366;54.985;20.489;61.654;-77.039;97.789;15.050;6.072;16.205
6471952.374;40.084;8.792;45.151;-80.690;83.409;13.076;4.433;14.566
6471952.382;49.621;20.191;47.423;-78.641;70.371;17.323;8.121;19.893
6471952.390;45.896;14.454;34.198;-76.145;70.632;18.962;10.803;22.575
6471952.398;37.104;-4.210;25.891;-82.925;65.565;17.956;10.729;21.681
6471952.406;34.608;-2.794;30.994;-84.229;66.720;5.551;-1.192;10.431
6471952.414;30.920;0.969;33.416;-84.974;71.637;-3.353;-9.015;1.267
6471952.422;32.037;2.086;25.406;-82.180;57.705;-6.519;-12.778;-1.900
6471952.430;32.149;-3.278;22.426;-81.882;58.226;-3.912;-11.399;2.943
6471952.438;41.202;11.064;43.102;-71.749;75.996;0.969;-6.370;8.568
6471952.446;36.843;5.402;29.057;-74.990;70.371;2.682;-4.843;10.543
6471952.454;27.418;-14.342;28.573;-82.888;63.926;2.831;-6.072;11.101
6471952.462;29.504;-4.470;25.593;-77.039;60.350;1.527;-8.568;9.649
6471952.470;48.131;21.160;48.392;-66.943;88.140;0.410;-8.605;9.462
6471952.440;45.486;9.052;48.764;-72.382;93.505;-1.900;-9.574;8.084
6471952.448;51.782;28.722;62.138;-58.413;108.778;-3.651;-13.225;6.519
6471952.456;75.921;51.558;85.123;-39.339;134.632;-4.545;-13.709;5.774
6471952.464;109.635;90.376;117.533;-13.709;179.373;-3.278;-9.537;5.215
6471952.472;151.135;124.834;163.652;12.778;236.109;-0.112;-3.390;6.892
6471952.480;197.813;171.140;222.735;44.890;317.246;5.662;4.359;14.752
6471952.488;274.628;256.971;299.439;90.823;414.178;9.909;9.388;19.222
6471952.496;396.557;404.529;436.380;201.836;551.566;13.821;12.778;21.569
6471952.504;490.397;536.293;533.462;308.529;649.169;23.022;19.893;29.355
6471952.512;538.528;602.193;584.386;377.037;700.466;32.336;31.590;36.247
6471952.520;561.103;619.292;604.577;421.740;692.569;31.777;35.800;34.794
6471952.528;548.139;617.951;604.205;438.131;661.537;26.412;33.975;29.132
6471952.536;516.810;607.409;560.842;440.143;618.920;25.779;34.869;28.089
6471952.544;463.873;550.859;494.532;420.324;529.997;25.220;34.273;27.195
6471952.552;383.407;457.130;406.131;377.707;412.464;28.424;39.078;24.587
6471952.560;312.664;380.874;328.012;331.327;316.016;26.189;37.365;20.005
6471952.568;265.501;328.049;280.775;302.978;255.890;29.057;41.053;22.985
6471952.576;237.897;297.800;252.277;282.563;222.288;31.702;41.723;28.871
6471952.584;187.196;240.430;200.756;239.015;188.835;20.452;28.498;16.540
6471952.592;155.345;204.779;169.799;203.177;162.870;18.142;24.959;12.182
6471952.600;140.481;189.915;149.943;194.013;135.899;22.687;30.287;17.323
6471952.608;124.946;164.099;137.202;184.998;102.334;23.805;31.888;20.005
6471952.616;94.213;131.726;111.014;161.603;86.017;21.830;28.685;19.111
6471952.624;79.423;126.660;93.021;142.045;67.949;16.913;22.203;14.491
6471952.649;7.302;43.288;14.976;83.186;-6.892;15.460;13.486;11.325
6471952.657;1.974;26.077;-0.708;78.492;-15.162;15.087;13.188;12.182
6471952.665;-8.419;12.107;-8.233;66.720;-34.943;17.062;15.199;14.156
6471952.673;-12.107;22.091;-9.723;65.230;-33.416;21.718;21.718;18.664
6471952.681;-17.844;11.884;-10.915;56.662;-30.771;26.152;28.051;23.916
6471952.689;-28.759;-4.917;-24.736;44.107;-46.268;23.618;25.518;20.079
6471952.697;-39.004;-16.950;-43.996;36.061;-69.812;15.721;18.850;12.740
6471952.705;-41.872;-22.389;-58.413;27.232;-68.434;15.907;18.887;15.348
6471952.713;-39.935;-13.672;-47.199;31.702;-60.871;21.607;23.283;20.973
6471952.721;-48.317;-20.303;-42.692;24.214;-71.339;21.271;21.942;18.664
6471952.729;-43.511;-26.785;-48.019;21.271;-74.692;25.295;27.865;21.122
6471952.737;-37.663;-14.864;-59.567;26.040;-60.871;32.857;36.806;28.983
6471952.745;-39.451;-12.890;-53.123;30.957;-65.602;33.975;38.296;30.771
6471952.753;-40.159;-14.342;-39.376;25.518;-73.984;31.106;34.906;27.791
6471952.761;-51.297;-32.410;-58.338;8.941;-95.107;21.234;25.444;18.142
6471952.769;-54.464;-38.296;-62.287;9.760;-97.081;16.764;23.022;13.486
6471952.777;-37.737;-9.499;-55.954;26.338;-79.609;18.254;24.885;17.472
6471952.785;-39.525;-10.580;-59.791;26.561;-85.756;12.629;18.217;14.342
6471952.793;-48.168;-19.670;-49.919;13.858;-96.858;9.947;16.578;11.735
6471952.801;-56.215;-40.606;-66.645;4.508;-123.121;7.562;14.268;7.823
6471952.809;-53.421;-34.124;-63.106;11.809;-108.927;5.215;11.809;2.086
6471952.817;-60.648;-30.771;-59.120;9.276;-104.047;6.519;11.213;4.694
6471952.825;-50.515;-16.056;-68.955;12.480;-113.435;4.657;10.692;5.662
6471952.833;-32.298;-20.601;-54.464;10.356;-109.449;3.539;14.380;5.364
6471952.843;-41.090;-28.424;-50.105;6.668;-112.392;-1.900;11.660;1.490
6471952.851;-48.354;-39.153;-63.032;2.161;-120.439;-7.749;3.837;-2.496
6471952.859;-61.356;-34.682;-72.569;-0.149;-125.542;-13.560;-3.129;-9.276
6471952.867;-65.602;-22.426;-72.755;2.831;-122.376;-14.678;-6.892;-11.176
6471952.875;-43.809;-21.644;-48.839;11.586;-109.598;-10.431;-3.502;-6.370
6471952.883;-31.739;-22.762;-50.403;11.884;-116.415;-9.239;-2.310;-4.731
6471952.891;-45.411;-21.160;-70.520;9.164;-125.617;-2.347;3.949;-0.186
6471952.899;-51.931;-30.398;-66.720;7.600;-129.007;2.421;9.872;3.166
6471952.907;-51.409;-24.959;-65.602;9.649;-132.807;2.272;9.909;4.359
6471952.915;-54.948;-34.384;-66.645;3.651;-126.027;-0.224;6.966;1.080
6471952.923;-46.641;-28.312;-53.830;6.631;-111.908;-3.278;2.570;-3.576
6471952.931;-32.112;-19.036;-48.392;15.460;-109.412;-1.825;2.161;-1.043
6471952.939;-30.659;-19.111;-36.359;14.119;-99.652;0.298;4.359;-3.316
6471952.947;-34.198;-32.336;-47.199;15.646;-107.028;-0.671;4.396;-3.017
6471952.955;-18.254;7.004;-37.141;29.728;-103.377;2.310;7.227;0.931
6471952.963;-11.362;9.164;-20.079;32.671;-83.856;5.104;7.227;5.662
6471952.971;-12.368;5.029;-17.695;30.510;-79.982;2.384;2.645;2.272
6471952.979;0.745;14.566;-15.385;39.414;-73.873;4.843;4.061;2.049
6471952.987;-3.316;12.442;-19.781;40.568;-81.398;9.798;11.548;4.582
6471952.995;-3.017;13.858;-19.781;38.631;-87.693;9.574;14.603;5.290
6471953.003;-8.829;11.101;-21.569;34.831;-88.848;0.037;6.482;-2.570
6471953.011;-19.707;-2.123;-20.750;30.361;-88.066;-5.625;3.055;-6.817
6471953.019;-38.408;-19.781;-39.041;18.477;-93.319;-7.749;1.341;-9.127
6471953.027;-29.504;-18.030;-37.961;13.299;-84.080;-8.903;-1.751;-11.697
6471953.037;-26.040;-10.505;-27.977;7.041;-93.579;-7.935;-1.714;-11.511
6471953.045;-36.247;-11.809;-40.568;11.064;-97.826;-0.298;3.017;-3.204
6471953.053;-40.606;-24.773;-49.807;11.660;-104.047;1.229;3.427;0.261
6471953.061;-40.531;-32.783;-38.221;1.825;-88.848;2.533;3.353;3.427
6471953.069;-45.337;-22.091;-34.086;0.671;-85.123;0.782;3.539;0.745
6471953.077;-41.872;-20.079;-46.901;4.098;-90.450;-4.210;1.416;-5.923
6471953.085;-27.977;-16.131;-27.530;11.884;-76.592;-1.527;5.364;-4.582
6471953.093;-21.793;-16.317;-17.583;12.442;-74.320;0.633;9.313;-5.066
6471953.101;-28.983;-22.538;-31.218;5.402;-80.727;4.619;13.076;-2.906
6471953.109;-35.316;-28.461;-39.116;0.931;-87.619;3.502;9.574;-0.857
6471953.117;-38.669;-22.240;-34.682;1.341;-89.481;-2.123;4.284;-3.017
6471953.125;-36.582;-22.501;-39.153;2.794;-94.622;2.272;9.835;1.863
6471953.133;-31.926;-25.705;-36.210;9.909;-89.705;13.597;21.197;10.133
6471953.141;-29.877;-15.683;-38.818;9.909;-86.911;15.423;21.309;10.617
6471953.149;-38.967;-28.946;-41.351;1.751;-77.002;15.087;21.085;7.562
6471953.157;-42.357;-32.261;-44.517;-1.974;-88.215;11.139;16.987;1.118
6471953.165;-38.929;-41.574;-38.743;-8.829;-90.636;5.849;10.096;-2.459
6471953.173;-43.027;-37.439;-44.890;-6.892;-93.877;-0.298;1.751;-5.662
6471953.181;-43.511;-22.054;-37.923;-2.049;-73.463;-0.373;-1.155;-1.565
6471953.189;-37.476;-14.268;-42.208;3.166;-80.317;1.229;1.974;-0.633
6471953.197;-34.757;-25.630;-36.247;1.043;-77.039;7.190;9.127;4.917
6471953.205;-27.567;-25.332;-27.977;13.448;-65.677;20.415;21.532;18.179
6471953.213;-31.143;-26.785;-22.613;12.293;-59.530;20.713;20.079;18.105
6471953.221;-42.319;-18.887;-41.537;1.863;-81.137;5.923;5.886;3.278
6471953.262;-43.474;-29.989;-54.277;1.565;-90.748;3.614;5.513;1.118
6471953.270;-35.614;-10.803;-46.529;7.190;-76.890;1.155;6.035;-2.496
6471953.278;-34.347;-8.792;-42.282;11.809;-67.763;7.488;14.007;2.161
6471953.286;-3.390;18.962;-0.745;39.339;-27.083;9.090;15.758;3.316
6471953.294;62.175;96.969;73.984;93.207;68.992;5.066;10.468;0.894
6471953.302;143.833;184.923;165.440;145.920;180.006;5.327;7.749;3.912
6471953.310;244.565;289.939;265.017;211.708;296.161;9.239;9.276;8.196
6471953.318;361.279;429.042;378.229;290.535;423.081;19.968;20.266;16.503
6471953.326;466.034;538.863;492.334;362.806;555.031;33.341;35.353;27.306
6471953.334;532.568;607.446;568.070;403.747;633.039;37.178;41.313;31.367
6471953.342;547.022;621.974;578.091;405.945;629.127;28.722;33.975;25.630
6471953.350;529.289;596.084;560.917;379.235;623.241;20.601;24.773;18.626
6471953.358;503.883;559.986;531.599;355.057;592.656;20.526;22.948;21.309
6471953.366;458.434;505.373;481.680;318.661;512.712;20.899;22.165;21.234
6471953.374;404.082;444.055;430.271;279.695;449.754;20.787;21.346;20.452
6471953.382;362.098;380.203;363.477;235.811;366.904;16.838;19.334;13.523
6471953.390;316.724;329.502;307.821;200.681;300.705;13.933;18.664;9.984
6471953.398;276.975;286.214;264.831;170.060;269.115;16.019;22.724;11.809
6471953.406;248.253;258.945;254.177;148.304;247.844;17.807;23.879;12.517
6471953.414;219.233;210.069;228.360;124.462;211.224;18.366;21.234;12.778
6471953.422;179.559;161.119;182.651;95.367;168.197;20.638;19.670;16.131
6471953.430;153.109;148.639;152.104;75.400;133.477;19.446;15.087;16.801
6471953.438;131.205;124.164;122.339;58.897;110.716;19.111;13.523;17.062
6471953.446;116.639;109.114;103.526;43.400;94.436;16.950;12.107;12.740
6471953.400;116.341;102.818;117.868;47.907;87.284;25.406;22.277;19.930
6471953.408;111.237;97.975;115.335;49.993;90.897;29.840;29.840;23.395
6471953.416;91.642;79.460;81.956;28.573;58.897;22.016;25.593;15.609
6471953.424;66.608;55.879;63.702;10.133;42.468;18.552;19.819;14.342
6471953.432;43.772;38.929;48.392;7.004;24.401;18.068;15.981;15.311
6471953.440;42.059;26.561;44.294;1.527;15.870;9.313;8.456;10.952
6471953.448;58.934;54.874;41.984;14.976;5.439;13.001;14.678;16.168
6471953.456;58.487;56.289;46.194;20.936;-6.668;17.956;20.824;19.893
6471953.464;45.374;45.337;38.631;19.073;-5.439;17.025;22.277;18.403
6471953.472;31.926;23.916;24.326;10.915;-19.558;16.727;23.581;18.217
6471953.480;33.416;34.720;22.836;9.649;-24.214;18.477;24.214;21.532
6471953.488;18.105;15.423;1.341;-5.662;-34.682;12.144;17.695;14.380
6471953.496;14.305;17.248;1.155;-6.184;-34.757;7.935;13.709;8.866
6471953.504;9.499;6.035;1.453;-7.227;-46.566;6.147;12.591;5.886
6471953.512;-0.894;-9.835;-1.788;-19.073;-58.897;7.078;13.486;5.737
6471953.520;-1.453;-1.602;-14.193;-22.277;-70.781;2.012;7.637;2.086
6471953.528;-8.196;-5.215;-21.644;-14.231;-70.371;-0.410;4.694;-0.075
6471953.536;-8.717;-9.127;-19.260;-9.276;-72.047;7.413;11.809;7.488
6471953.544;0.633;6.445;0.745;-0.335;-65.751;23.469;27.195;23.842
6471953.552;9.499;7.637;-1.304;-2.123;-65.751;21.532;25.779;21.867
6471953.560;23.469;20.452;10.654;12.144;-39.004;24.252;29.728;23.581
6471953.568;5.886;5.066;-12.331;4.955;-61.430;11.548;15.572;10.021
6471953.576;-9.239;-10.654;-17.881;-5.700;-77.225;-0.037;4.396;-1.751
6471953.584;-13.001;-6.855;-15.311;-9.127;-85.644;0.484;8.307;0.075
6471953.562;-3.986;-1.974;-11.325;-7.078;-72.271;0.931;10.692;0.559
6471953.570;0.298;-6.706;-11.362;-1.825;-67.875;5.253;10.990;4.992
6471953.578;-10.654;-13.635;-17.993;-3.837;-76.666;7.115;9.574;6.780
6471953.586;-22.389;-11.474;-34.682;-14.864;-97.901;5.551;9.276;2.980
6471953.594;-4.098;-10.058;-23.879;-8.829;-92.648;14.529;19.781;11.437
6471953.602;-4.247;-10.543;-12.554;-3.614;-69.961;19.521;24.140;17.062
6471953.610;-12.703;-8.941;-19.446;-5.588;-82.217;10.654;15.572;9.649
6471953.618;-30.249;-33.304;-34.161;-19.856;-85.160;2.719;8.866;0.522
6471953.626;-15.832;-14.566;-23.395;-11.325;-89.556;4.433;10.729;2.049
6471953.634;-21.458;-17.583;-26.412;-12.442;-92.871;4.023;11.213;1.639
6471953.642;-22.538;-23.246;-32.745;-15.423;-94.920;7.525;12.964;6.109
6471953.650;-27.753;-30.026;-52.042;-16.242;-100.955;7.339;11.995;6.296
6471953.658;-28.796;-38.669;-33.230;-19.670;-87.060;6.892;12.591;5.364
6471953.666;-17.062;-19.036;-15.050;-9.686;-71.973;11.958;16.913;10.245
6471953.674;-24.028;-11.064;-20.228;-6.817;-80.988;10.505;14.268;9.276
6471953.682;-26.710;-24.214;-38.520;-11.139;-103.861;-0.410;5.886;0.186
6471953.690;-37.886;-49.099;-58.562;-26.822;-110.641;-8.643;-1.229;-6.817
6471953.698;-38.818;-43.362;-41.239;-28.461;-93.728;-9.723;-2.943;-8.382
6471953.706;-33.304;-29.691;-35.763;-20.377;-85.235;-6.296;-0.484;-5.849
6471953.714;-34.273;-27.977;-33.192;-14.156;-96.001;-1.043;4.768;-1.080
6471953.722;-40.829;-46.305;-45.262;-21.644;-104.830;-0.596;5.029;-2.310
6471953.730;-36.135;-43.921;-49.919;-19.334;-104.718;-1.974;2.943;-4.917
6471953.738;-27.381;-26.189;-32.485;-14.529;-91.232;-4.135;1.565;-7.041
6471953.746;-20.489;-21.420;-23.879;-12.666;-78.417;-4.806;2.272;-5.551
6471953.746;-31.479;-31.367;-35.092;-12.517;-80.839;3.204;11.139;2.161
6471953.754;-34.645;-39.861;-37.625;-14.864;-88.513;5.513;14.119;-0.112
6471953.762;-30.436;-23.730;-29.318;-9.127;-78.455;5.253;12.107;-0.522
6471953.770;-21.644;-27.530;-17.770;-9.686;-79.125;4.917;9.462;-0.298
6471953.778;-26.561;-31.665;-26.189;-23.395;-76.965;3.949;6.147;-1.751
6471953.786;-33.043;-37.663;-32.075;-20.042;-75.474;11.809;14.938;5.662
6471953.794;-35.651;-45.486;-41.761;-22.352;-79.162;6.221;10.282;2.868
6471953.802;-26.971;-29.281;-38.855;-18.030;-84.229;-1.118;3.055;-4.172
6471953.810;-33.416;-31.814;-38.818;-11.437;-84.490;2.570;6.966;-1.378
6471953.818;-35.875;-53.309;-35.651;-26.189;-88.774;-3.278;2.980;-6.668
6471953.826;-23.842;-33.416;-20.713;-17.136;-62.399;1.378;9.276;-1.565
6471953.834;-18.962;-20.750;-20.936;-4.694;-52.452;4.247;11.288;0.075
6471953.842;-21.011;-25.667;-32.783;-10.505;-74.580;-0.075;3.353;-3.912
6471953.850;-17.099;-26.189;-26.934;-7.749;-68.061;3.912;6.296;0.075
6471953.858;-20.079;-35.278;-18.701;-6.557;-54.836;3.017;6.892;1.639
6471953.866;-31.888;-39.451;-23.097;-14.268;-55.172;-3.576;2.496;-2.533
6471953.874;-21.718;-27.008;-23.693;-15.981;-64.932;-7.637;-0.745;-8.829
6471953.882;-23.991;-39.153;-35.390;-22.240;-84.005;-8.382;-2.757;-9.760
6471953.890;-27.977;-35.800;-42.282;-17.062;-77.337;-2.570;2.682;-4.098
6471953.898;-25.257;-38.818;-26.524;-12.331;-48.652;1.937;6.258;0.000
6471953.906;-25.369;-37.327;-16.764;-16.615;-50.925;0.261;4.396;-0.447
6471953.914;-33.006;-60.722;-28.722;-29.728;-62.026;-4.657;-0.596;-4.433
6471953.922;-29.802;-51.521;-37.067;-23.767;-61.356;-1.006;2.570;-0.596
6471953.930;-27.046;-25.146;-40.494;-12.182;-70.855;-0.149;4.135;0.410
6471953.922;-31.143;-34.980;-30.696;-16.950;-62.361;-8.643;-1.453;-8.717
6471953.930;-30.398;-46.678;-20.005;-19.632;-44.405;-7.190;2.459;-9.909
6471953.938;-27.791;-50.627;-31.888;-22.352;-65.900;-11.660;-1.490;-15.423
6471953.946;-22.128;-34.496;-34.049;-19.036;-67.018;-7.339;1.006;-12.070
6471953.954;-22.873;-24.177;-27.642;-5.998;-54.315;-1.751;5.625;-4.843
6471953.962;-27.269;-34.310;-33.714;-6.407;-53.309;0.931;7.600;-3.390
6471953.970;-28.498;-38.184;-38.706;-7.339;-56.401;10.654;15.162;5.141
6471953.978;-31.218;-46.343;-29.057;-16.689;-60.908;10.692;13.486;6.296
6471953.986;-37.774;-54.613;-31.590;-24.140;-55.358;-0.931;1.639;-2.533
6471953.994;-38.072;-45.076;-44.480;-22.724;-68.508;-7.674;-3.204;-7.860
6471954.002;-38.259;-47.982;-46.566;-22.613;-69.477;-14.454;-8.605;-13.448
6471954.010;-44.033;-47.795;-39.153;-21.756;-57.258;-15.683;-9.499;-14.417
6471954.018;-37.886;-56.662;-37.961;-26.077;-53.123;-19.632;-12.405;-19.483
6471954.026;-41.164;-56.513;-44.480;-25.705;-51.595;-18.701;-12.778;-20.005
6471954.034;-52.601;-62.175;-58.189;-35.204;-67.055;-15.236;-10.654;-15.050
6471954.042;-53.234;-59.158;-45.337;-36.061;-60.014;-8.233;-5.551;-8.345
6471954.050;-32.336;-29.802;-22.464;-17.807;-39.525;3.278;5.662;1.974
6471954.058;-28.163;-24.475;-25.406;-7.562;-32.783;5.998;8.903;4.135
6471954.066;-13.597;-3.539;-9.015;11.399;-6.109;0.522;4.135;-0.894
6471954.074;31.665;50.664;37.290;49.882;58.301;2.570;5.960;0.149
6471954.082;111.312;138.991;125.989;117.645;149.161;8.456;11.474;6.258
6471954.090;200.123;236.258;234.805;188.202;263.937;12.219;14.566;9.723
6471954.098;287.443;348.724;319.630;255.406;366.084;11.586;13.560;9.984
6471954.106;398.271;474.565;431.053;342.801;502.653;17.881;21.681;16.876
6471954.164;488.572;576.973;542.812;410.117;618.696;29.057;32.336;29.020
6471954.172;517.182;613.369;576.489;431.836;645.891;30.957;32.820;29.802
6471954.180;509.173;616.908;574.440;442.006;643.246;33.751;35.390;29.504
6471954.188;500.306;602.491;558.496;439.845;618.212;31.777;33.975;27.418
6471954.196;486.188;577.234;522.546;421.330;574.589;32.075;32.037;33.267
6471954.204;451.393;529.774;492.223;380.054;542.551;34.906;32.336;36.918
6471954.212;379.719;437.573;420.064;313.260;457.875;23.060;21.532;23.730
6471954.220;324.659;376.739;364.371;268.705;392.832;17.658;16.801;19.148
6471954.228;275.485;319.742;313.967;231.713;325.441;13.188;11.437;14.529
6471954.236;233.948;266.097;268.780;197.478;270.568;13.970;12.070;14.715
6471954.244;204.742;222.996;239.052;167.117;224.411;18.962;18.068;17.509
6471954.252;188.313;208.206;204.220;154.227;192.337;22.687;19.297;19.744
6471954.260;163.727;189.878;180.900;141.859;172.034;23.656;18.999;21.197
6471954.268;137.724;160.895;162.385;122.264;140.704;24.438;18.440;23.767
6471954.276;122.972;133.812;147.596;118.129;123.978;34.198;28.089;33.453
6471954.284;97.081;110.641;128.858;97.193;105.575;26.338;21.681;25.183
6471954.292;64.671;83.856;86.837;76.480;71.339;6.594;2.012;6.407
6471954.300;44.927;56.066;56.438;55.879;41.164;-3.800;-8.345;-3.651
6471954.308;32.410;42.208;49.658;45.598;21.011;-7.115;-10.952;-5.066
6471954.316;15.572;34.757;26.152;36.806;-2.719;-6.407;-7.823;-4.880
6471954.324;5.327;10.952;24.289;33.751;-9.947;-3.353;-3.502;-3.204
6471954.332;0.671;14.193;23.842;31.367;-11.101;-3.204;-4.582;-4.396
6471954.340;-8.456;5.029;4.098;26.226;-22.240;1.900;-2.570;-1.304
6471954.348;-7.190;-6.370;-4.210;16.205;-29.691;5.290;-1.714;2.049
6471954.418;-18.887;-16.913;5.513;14.678;-31.628;4.731;-3.278;4.061
6471954.426;-24.736;-17.881;-12.256;19.073;-50.478;4.470;-1.341;4.545
6471954.434;-20.489;-4.172;-16.466;19.968;-47.311;3.837;0.335;4.768
6471954.442;-21.122;-11.176;-13.337;14.156;-36.992;5.364;0.112;5.811
6471954.450;-33.826;-25.593;-28.871;9.313;-55.917;1.974;-5.886;2.421
6471954.458;-39.525;-41.351;-27.120;2.868;-71.153;-0.857;-10.282;1.714
6471954.466;-57.518;-53.830;-42.282;-7.339;-79.758;-7.264;-16.876;-6.072
6471954.474;-60.238;-59.605;-60.685;-17.062;-92.387;-11.064;-22.575;-10.803
6471954.482;-58.189;-45.747;-52.229;-9.090;-82.776;-6.072;-17.881;-6.966
6471954.490;-49.248;-46.492;-30.026;3.055;-68.545;2.235;-8.084;0.447
6471954.498;-42.468;-37.104;-35.428;-0.820;-76.033;1.490;-7.488;0.410
6471954.506;-47.944;-45.039;-48.429;-3.055;-83.447;1.453;-6.184;-0.671
6471954.514;-59.456;-59.269;-60.685;-2.310;-94.958;8.270;2.757;4.098
6471954.522;-59.940;-67.092;-63.553;-3.465;-95.814;6.221;1.043;1.490
6471954.530;-46.268;-47.088;-49.658;-2.310;-87.172;-3.129;-9.090;-7.562
6471954.538;-54.203;-53.607;-47.758;-5.029;-86.054;-5.513;-13.411;-10.580
6471954.546;-56.252;-44.927;-49.658;-1.565;-85.719;-3.017;-10.952;-6.370
6471954.554;-58.934;-57.109;-64.746;-6.631;-100.397;-5.588;-15.236;-7.004
6471954.562;-63.814;-70.594;-55.581;-4.061;-89.817;-5.029;-16.354;-9.499
6471954.570;-48.392;-51.372;-38.147;0.112;-83.186;1.006;-8.978;-5.029
6471954.578;-46.566;-48.876;-43.400;-1.490;-77.486;5.029;-3.166;-0.484
6471954.586;-52.899;-54.240;-50.999;1.341;-75.661;7.115;-0.037;2.347
6471954.594;-53.458;-53.421;-58.860;3.017;-86.129;9.835;3.017;5.290
6471954.602;-67.838;-67.428;-72.606;-5.774;-109.337;9.499;2.086;2.906
6471954.658;-70.482;-75.176;-61.132;-13.933;-94.660;4.917;-3.166;-3.129
6471954.666;-79.796;-81.882;-69.924;-22.687;-87.060;2.086;-6.407;-4.172
6471954.674;-75.065;-67.241;-74.431;-18.366;-97.528;1.751;-8.158;-3.725
6471954.682;-54.017;-51.148;-58.971;-7.674;-95.963;3.204;-9.052;-0.894
6471954.690;-62.585;-63.367;-61.058;-13.188;-88.923;0.447;-13.933;-0.373
6471954.698;-83.521;-100.657;-79.758;-30.026;-102.334;-3.688;-20.303;-5.625
6471954.706;-77.561;-85.868;-68.955;-26.375;-90.003;-1.974;-19.297;-4.731
6471954.714;-64.969;-63.367;-56.736;-17.993;-82.068;7.376;-9.015;3.241
6471954.722;-59.195;-57.966;-53.123;-15.683;-77.635;11.772;-3.614;6.258
6471954.730;-61.430;-67.540;-60.759;-15.385;-85.048;9.947;-3.651;4.470
6471954.738;-63.814;-79.833;-58.599;-15.311;-79.125;12.554;-0.224;5.774
6471954.746;-61.430;-67.092;-53.309;-8.233;-67.018;12.815;2.235;5.811
6471954.754;-55.768;-51.595;-53.123;-12.964;-71.004;6.296;-4.917;0.186
6471954.762;-69.700;-70.892;-71.116;-31.777;-86.538;0.931;-13.821;-3.651
6471954.770;-75.586;-80.541;-75.921;-31.665;-97.379;-1.602;-18.142;-6.221
6471954.778;-76.219;-82.776;-81.100;-26.338;-103.898;-1.900;-17.099;-9.127
6471954.786;-79.051;-86.240;-70.184;-27.269;-84.266;-2.012;-17.770;-9.872
6471954.794;-63.479;-82.850;-59.195;-29.504;-68.396;-0.075;-16.280;-6.184
6471954.802;-59.195;-73.761;-62.436;-29.281;-65.602;4.880;-11.921;-0.782
6471954.810;-63.293;-57.220;-60.797;-20.564;-70.184;4.582;-11.250;1.453
6471954.818;-59.903;-62.697;-53.979;-19.185;-75.325;1.714;-14.342;-0.298
6471954.826;-56.699;-62.026;-52.713;-16.019;-65.155;1.267;-16.317;0.633
6471954.834;-68.583;-80.839;-67.651;-31.441;-78.641;-8.196;-27.046;-8.829
6471954.842;-77.076;-96.820;-66.347;-42.394;-71.600;-13.523;-28.759;-14.789
6471954.837;-65.230;-71.973;-68.173;-32.447;-67.316;-7.413;-19.819;-9.835
6471954.845;-56.811;-58.524;-56.811;-15.572;-67.875;-3.427;-15.274;-5.178
6471954.853;-62.957;-67.651;-54.315;-21.495;-66.943;-9.015;-19.893;-9.947
6471954.861;-67.055;-79.460;-57.667;-26.859;-57.928;-4.210;-15.795;-6.743
6471954.869;-58.189;-74.953;-50.478;-26.189;-54.538;-0.112;-13.970;-5.141
6471954.877;-71.377;-72.606;-69.886;-36.694;-69.849;-0.782;-17.956;-4.917
6471954.885;-82.739;-85.682;-81.994;-41.761;-86.054;-7.302;-26.636;-7.860
6471954.893;-85.346;-96.560;-82.105;-44.294;-90.972;-17.062;-34.086;-11.735
6471954.901;-72.233;-83.111;-67.316;-43.139;-74.282;-19.595;-34.124;-11.548
6471954.909;-78.902;-90.525;-84.043;-43.102;-77.970;-15.199;-29.877;-9.909
6471954.917;-81.025;-91.828;-74.096;-38.445;-68.583;-12.070;-24.959;-7.860
6471954.925;-59.828;-63.814;-55.917;-30.026;-48.541;-6.035;-17.732;-4.172
6471954.933;-61.989;-68.285;-59.865;-33.788;-54.315;0.410;-13.113;-1.155
6471954.941;-72.531;-80.615;-70.520;-38.743;-64.932;3.092;-12.405;-0.559
6471954.949;-70.073;-66.981;-81.286;-37.141;-75.400;0.969;-15.199;-2.570
6471954.957;-75.586;-82.627;-71.414;-42.506;-63.591;2.608;-14.491;-0.149
6471954.965;-86.203;-87.544;-72.569;-46.790;-66.124;5.327;-12.033;5.141
6471954.973;-74.729;-74.767;-72.457;-40.308;-67.540;4.992;-11.884;8.643
6471954.981;-73.388;-67.838;-63.516;-44.368;-61.579;-7.339;-21.383;-0.633
6471954.989;-83.223;-82.180;-76.331;-55.134;-73.500;-17.174;-29.504;-9.798
6471954.997;-88.029;-92.015;-81.845;-56.364;-73.873;-14.082;-26.077;-7.376
6471955.005;-91.270;-86.166;-83.037;-53.383;-74.506;-3.688;-16.987;-0.931
6471955.013;-68.508;-66.124;-62.734;-31.665;-63.553;5.513;-7.227;5.029
6471955.021;-63.255;-62.063;-47.982;-35.167;-60.983;4.619;-8.866;2.906
6471955.004;-46.492;-43.325;-29.020;-28.200;-37.886;1.192;-13.299;2.161
6471955.012;-22.389;-12.703;-18.366;-7.413;-21.569;-0.559;-15.423;4.284
6471955.020;-14.007;-1.118;-2.608;1.118;-11.958;-1.304;-16.131;3.278
6471955.028;-24.997;-14.938;-22.203;-6.445;-29.653;-0.410;-13.933;2.012
6471955.036;-29.281;-24.885;-24.699;-5.662;-43.064;4.731;-10.245;4.508
6471955.044;-40.568;-36.806;-29.393;-10.990;-49.882;7.562;-7.525;7.860
6471955.052;-39.302;-35.837;-32.522;-11.697;-51.968;13.188;0.820;13.597
6471955.060;-29.877;-26.897;-32.969;-2.906;-49.286;18.366;7.413;17.174
6471955.068;-34.235;-21.234;-29.579;3.763;-47.274;16.838;6.706;15.646
6471955.076;-36.471;-20.675;-35.055;3.837;-48.913;12.964;3.502;10.729
6471955.084;-40.196;-28.871;-43.027;-5.737;-55.991;9.164;-1.229;5.625
6471955.092;-51.297;-37.439;-48.280;-13.523;-69.402;5.178;-6.296;2.421
6471955.100;-54.911;-49.099;-51.595;-17.844;-69.812;-2.682;-14.678;-3.725
6471955.108;-44.852;-34.496;-41.910;-8.345;-58.226;-5.849;-17.099;-4.135
6471955.116;-42.357;-40.233;-35.651;-6.557;-61.579;-5.513;-14.231;-4.731
6471955.124;-44.145;-32.522;-37.402;-2.459;-55.768;-4.731;-10.990;-4.135
6471955.132;-48.243;-34.384;-38.557;-10.915;-56.550;-5.104;-14.044;-3.688
6471955.140;-60.722;-45.076;-52.229;-22.165;-73.835;-5.588;-15.385;-5.513
6471955.148;-64.038;-55.358;-56.177;-20.154;-69.775;1.006;-8.680;1.900
6471955.156;-51.484;-48.876;-39.674;-10.952;-54.576;10.915;0.708;11.325
6471955.164;-41.127;-17.881;-38.482;-0.633;-55.060;6.780;-1.155;5.886
6471955.172;-51.297;-26.636;-52.303;-4.806;-69.663;-2.123;-8.605;-3.129
6471955.180;-58.487;-41.537;-43.996;-9.909;-66.385;-5.700;-12.815;-3.614
6471955.188;-56.699;-42.357;-43.660;-16.056;-57.481;-5.104;-14.305;-2.161
6471955.170;-56.364;-39.786;-46.380;-12.293;-56.699;-1.639;-12.591;-0.149
6471955.178;-54.128;-36.731;-51.260;-11.362;-58.822;0.410;-9.798;0.410
6471955.186;-59.083;-42.357;-57.928;-11.921;-65.193;0.075;-9.723;-0.186
6471955.194;-62.510;-46.790;-57.258;-13.001;-66.385;2.645;-7.227;1.304
6471955.202;-65.751;-49.993;-54.389;-13.262;-67.763;7.413;-3.166;4.619
6471955.210;-59.903;-40.233;-50.925;-9.499;-62.212;9.649;0.261;7.264
6471955.218;-58.711;-32.075;-45.560;-10.431;-58.487;4.657;-4.321;2.682
6471955.226;-61.281;-44.554;-43.623;-14.678;-56.885;0.820;-8.792;-1.192
6471955.234;-59.344;-48.093;-50.254;-12.890;-55.209;0.857;-8.158;-1.974
6471955.242;-51.558;-35.129;-49.360;-3.166;-52.378;5.849;-1.453;3.651
6471955.250;-50.254;-32.075;-48.876;2.868;-52.713;10.692;2.384;7.190
6471955.258;-58.338;-32.112;-43.772;-1.602;-45.933;7.525;-2.235;2.459
6471955.266;-40.270;-17.248;-31.590;5.551;-28.722;14.715;6.445;7.637
6471955.274;-35.018;-18.552;-31.628;8.307;-36.955;16.652;10.990;10.394
6471955.282;-41.686;-26.450;-36.955;5.588;-39.227;12.703;8.941;8.717
6471955.290;-44.629;-24.885;-29.169;8.941;-34.608;11.399;8.382;7.339
6471955.298;-55.470;-36.508;-37.141;-1.267;-39.041;4.545;-0.037;0.298
6471955.306;-56.177;-24.140;-49.211;0.447;-48.764;2.123;-3.576;-1.378
6471955.314;-50.925;-26.450;-49.174;2.645;-43.698;2.570;-4.917;-0.075
6471955.322;-48.839;-28.498;-51.260;1.155;-40.568;1.490;-4.619;-0.224
6471955.330;-48.019;-22.948;-43.474;7.413;-33.416;0.261;-4.694;-3.017
6471955.338;-46.529;-19.632;-36.471;6.296;-31.292;0.708;-4.433;-2.980
6471955.346;-53.346;-33.081;-50.254;-3.316;-36.806;-0.186;-6.296;-3.614
6471955.354;-53.756;-30.845;-45.970;-0.410;-35.316;-2.906;-8.903;-7.153
6471955.377;-36.508;-12.442;-25.965;10.207;-23.842;-1.825;-8.605;-6.668
6471955.385;-34.273;-12.554;-29.169;12.852;-18.813;1.937;-5.588;-3.055
6471955.393;-42.506;-17.956;-37.886;11.437;-21.867;2.980;-4.247;-3.576
6471955.401;-48.801;-21.942;-42.021;3.465;-29.430;0.969;-5.253;-5.662
6471955.409;-49.099;-24.326;-37.029;3.390;-23.469;1.863;-3.986;-3.837
6471955.417;-48.056;-23.320;-38.110;2.347;-24.177;3.092;-4.955;-0.782
6471955.425;-53.160;-32.187;-48.466;-5.700;-25.667;-3.986;-13.225;-5.886
6471955.433;-59.381;-35.092;-55.283;-10.617;-30.175;-7.488;-18.477;-9.462
6471955.441;-67.204;-42.319;-58.897;-12.852;-34.906;-10.356;-20.117;-14.156
6471955.449;-64.597;-43.102;-57.444;-14.827;-32.187;-13.970;-23.209;-18.515
6471955.457;-62.175;-35.837;-45.374;-12.666;-27.157;-9.537;-20.117;-14.119
6471955.465;-59.456;-35.241;-48.317;-11.139;-29.244;-2.757;-14.156;-9.276
6471955.473;-56.475;-32.149;-55.321;-10.394;-24.438;2.719;-8.270;-7.786
6471955.481;-56.922;-33.975;-51.893;-7.786;-21.905;9.872;-1.080;-1.714
6471955.489;-54.911;-26.301;-48.392;-1.229;-15.534;11.399;0.075;1.527
6471955.497;-56.513;-24.214;-49.062;-2.310;-18.291;8.643;-2.012;0.894
6471955.505;-56.401;-25.220;-49.509;0.931;-13.523;-0.782;-8.754;-5.476
6471955.513;-56.848;-31.628;-49.248;-5.700;-15.646;-11.958;-16.913;-15.311
6471955.521;-60.461;-33.788;-49.919;-7.115;-24.177;-18.477;-22.203;-21.756
6471955.529;-68.024;-39.190;-51.856;-11.884;-24.587;-24.922;-31.181;-27.344
6471955.537;-66.459;-39.563;-64.038;-16.950;-26.673;-26.450;-34.608;-28.871
6471955.545;-75.400;-51.372;-62.436;-24.550;-22.836;-26.822;-34.310;-28.424
6471955.553;-85.644;-56.252;-74.953;-33.379;-34.980;-28.163;-36.657;-29.802
6471955.561;-82.329;-44.033;-69.924;-23.022;-33.937;-21.383;-30.026;-25.965
6471955.542;-72.084;-49.323;-60.014;-13.039;-19.521;-14.380;-19.707;-19.483
6471955.550;-74.655;-54.017;-60.275;-21.271;-18.179;-17.062;-19.372;-20.266
6471955.558;-70.408;-40.866;-46.492;-16.689;-10.580;-12.852;-16.093;-18.254
6471955.566;-65.491;-25.667;-44.890;-10.543;-11.064;-3.614;-10.282;-12.517
6471955.574;-60.722;-21.160;-53.644;-6.594;-9.947;2.347;-9.462;-6.557
6471955.582;-63.181;-33.863;-55.172;-12.219;-10.617;6.072;-9.835;0.447
6471955.590;-71.526;-53.942;-49.807;-21.756;-6.780;2.198;-13.858;-2.161
6471955.598;-76.815;-46.603;-60.126;-19.483;-17.397;-4.321;-17.993;-7.004
6471955.606;-68.881;-29.951;-57.258;-12.293;-16.354;-6.035;-16.503;-7.525
6471955.614;-63.889;-27.493;-52.974;-11.846;-11.884;-5.551;-13.374;-8.084
6471955.622;-71.824;-33.751;-60.201;-13.635;-15.721;-9.015;-13.486;-14.715
6471955.630;-76.517;-42.729;-65.453;-17.099;-14.491;-2.943;-9.313;-10.505
6471955.638;-74.320;-38.669;-65.230;-15.050;-9.164;7.041;-4.210;-1.751
6471955.646;-80.243;-32.037;-58.748;-7.451;3.278;5.402;-9.239;-1.453
6471955.654;-68.396;-15.348;-47.572;5.588;16.056;-0.373;-15.683;-4.210
6471955.662;-32.894;28.126;-12.554;34.347;60.275;-1.863;-14.119;-5.290
6471955.670;23.209;90.487;59.195;83.968;145.286;5.253;-3.427;0.969
6471955.678;107.028;189.207;153.147;158.288;250.563;14.827;8.792;8.605
6471955.686;207.946;296.570;249.073;235.513;364.035;25.630;18.887;17.844
6471955.694;304.952;410.341;360.087;307.634;486.560;21.420;14.603;16.913
6471955.702;405.312;533.350;482.276;373.907;609.718;14.752;6.333;12.293
6471955.710;462.532;606.403;536.256;426.620;667.311;23.916;11.884;20.713
6471955.718;485.443;633.746;570.044;454.038;701.845;25.593;11.809;22.799
6471955.726;486.001;627.823;561.364;456.125;696.033;18.217;5.253;17.248
6471955.722;460.185;590.198;523.627;427.589;635.944;22.948;13.337;22.426
6471955.730;419.766;542.179;486.933;390.038;597.648;18.850;13.188;17.323
6471955.738;373.200;477.917;431.649;342.987;541.732;11.101;11.399;7.898
6471955.746;316.873;402.592;368.766;287.816;468.604;4.768;8.903;-0.149
6471955.754;268.817;339.188;321.828;238.530;398.681;-2.757;-1.453;-6.221
6471955.762;225.753;288.561;269.711;209.399;345.409;0.298;-2.794;-1.527
6471955.770;190.623;248.589;235.699;177.994;302.084;-2.980;-6.557;-2.868
6471955.778;162.832;222.474;212.900;160.560;267.774;-7.376;-9.425;-6.184
6471955.786;141.971;200.048;181.459;147.037;235.178;-1.751;-1.006;-2.161
6471955.794;116.155;173.151;145.063;128.709;201.836;0.708;-0.037;-0.186
6471955.802;87.880;127.964;117.570;103.563;161.678;-3.278;-7.935;-3.502
6471955.810;57.407;95.069;94.809;78.455;130.013;-3.837;-12.293;-6.221
6471955.818;35.390;81.174;70.259;68.434;103.228;-5.141;-15.870;-6.221
6471955.826;24.661;73.873;50.142;61.132;87.507;-4.992;-16.354;-2.868
6471955.834;14.566;63.777;41.872;54.017;75.325;-1.490;-11.697;1.416
6471955.842;-12.368;35.278;21.793;38.818;51.633;-1.006;-10.133;2.757
6471955.850;-26.375;1.304;4.806;13.448;39.414;-6.296;-13.076;-4.061
6471955.858;-34.943;-12.182;-5.588;2.757;23.320;-4.768;-6.855;-6.333
6471955.866;-40.196;-8.605;-19.930;11.101;6.557;-5.811;-6.706;-9.052
6471955.874;-48.317;-14.305;-32.336;8.158;-11.213;-8.382;-8.568;-12.219
6471955.882;-56.475;-18.775;-45.933;2.719;-18.328;-12.629;-9.537;-15.311
6471955.890;-59.716;-31.032;-32.037;-8.494;0.000;-17.695;-13.746;-17.844
6471955.898;-60.871;-31.888;-34.049;-7.376;-10.803;-14.380;-13.076;-12.442
6471955.906;-59.158;-26.785;-42.468;4.098;-25.108;-10.245;-10.952;-8.605
6471955.903;-63.255;-32.522;-47.684;6.258;-24.624;-8.307;-10.766;-6.333
6471955.911;-69.179;-33.304;-51.185;-0.894;-29.728;-6.966;-9.015;-4.582
6471955.919;-81.025;-47.795;-63.442;-15.572;-43.958;-14.529;-15.199;-15.050
6471955.927;-87.433;-52.378;-76.666;-19.334;-60.610;-12.852;-13.933;-16.764
6471955.935;-97.528;-61.840;-82.068;-20.824;-67.502;-11.660;-14.938;-17.509
6471955.943;-98.757;-68.173;-84.713;-18.142;-54.091;-8.196;-11.772;-15.236
6471955.951;-86.576;-67.838;-85.793;-14.603;-61.989;1.639;-2.012;-4.806
6471955.959;-88.662;-54.948;-75.772;-12.778;-65.938;8.084;1.676;2.757
6471955.967;-102.967;-76.294;-83.968;-27.120;-77.188;3.017;-3.353;-3.241
6471955.975;-101.477;-76.927;-94.175;-26.673;-70.482;1.006;-1.453;-6.184
6471955.983;-93.356;-64.112;-91.046;-15.758;-74.543;-2.198;-3.614;-6.668
6471955.991;-92.424;-57.183;-94.660;-12.815;-75.698;-2.459;-4.433;-5.886
6471955.999;-103.638;-78.939;-91.568;-18.328;-86.948;1.863;-1.155;-3.576
6471956.007;-113.137;-86.129;-103.489;-28.200;-87.470;-3.800;-6.519;-9.164
6471956.015;-112.168;-78.082;-101.365;-27.716;-76.555;-4.359;-9.276;-12.368
6471956.023;-99.763;-71.339;-92.834;-24.289;-68.769;1.006;-5.029;-8.419
6471956.031;-94.287;-71.488;-96.820;-21.420;-78.864;1.192;-3.055;-6.221
6471956.039;-107.698;-89.444;-106.432;-32.373;-94.846;-5.402;-7.898;-11.437
6471956.047;-112.765;-94.064;-113.919;-34.571;-105.463;-9.909;-13.076;-14.901
6471956.055;-108.071;-77.523;-108.071;-25.369;-82.925;-6.072;-10.096;-9.388
6471956.063;-103.936;-77.225;-105.239;-26.226;-84.005;-3.390;-8.047;-6.370
6471956.071;-102.222;-84.788;-98.199;-29.281;-84.825;-4.396;-7.302;-7.600
6471956.079;-110.827;-95.554;-105.835;-36.061;-92.313;-13.523;-15.497;-17.323
6471956.087;-111.721;-89.183;-114.106;-32.447;-96.001;-18.477;-21.569;-22.724
6471956.008;-103.265;-84.266;-102.594;-29.355;-82.850;-12.293;-13.374;-16.652
6471956.016;-102.147;-84.490;-99.279;-30.473;-73.686;-9.760;-10.617;-11.884
6471956.024;-112.392;-90.785;-109.859;-39.823;-87.582;-14.827;-17.732;-15.162
6471956.032;-110.939;-94.734;-107.735;-41.351;-89.183;-15.795;-18.552;-16.168
6471956.040;-108.853;-81.249;-111.610;-32.075;-88.327;-11.623;-14.156;-13.001
6471956.048;-104.904;-90.189;-110.976;-30.994;-93.132;-8.047;-10.096;-10.170
6471956.056;-120.774;-105.649;-118.464;-40.717;-92.126;-10.990;-11.921;-13.746
6471956.064;-123.940;-103.228;-122.972;-48.243;-95.591;-15.497;-16.578;-18.552
6471956.072;-125.691;-108.592;-131.428;-56.140;-94.846;-18.775;-20.452;-21.942
6471956.080;-117.458;-100.322;-124.499;-46.194;-92.536;-13.299;-15.199;-16.801
6471956.088;-112.765;-97.230;-123.046;-44.629;-109.449;-9.649;-12.256;-15.087
6471956.096;-120.923;-106.096;-126.176;-49.435;-104.979;-6.631;-7.823;-14.678
6471956.104;-120.662;-112.318;-123.978;-49.248;-94.436;2.310;1.453;-6.296
6471956.112;-118.874;-105.277;-123.344;-49.137;-89.146;1.974;0.522;-4.657
6471956.120;-121.742;-98.646;-121.370;-51.334;-91.381;-0.522;-2.980;-4.582
6471956.128;-117.756;-101.775;-117.682;-47.907;-90.860;-0.931;-2.347;-7.339
6471956.136;-107.661;-97.305;-119.582;-41.835;-85.421;0.969;-0.484;-6.743
6471956.144;-97.528;-83.856;-112.876;-36.880;-78.157;-1.676;-2.086;-7.637
6471956.152;-95.144;-85.458;-105.910;-33.528;-78.902;-2.272;-3.390;-6.407
6471956.160;-96.746;-90.264;-101.887;-37.588;-77.859;-4.508;-4.508;-7.898
6471956.168;-97.230;-88.811;-102.594;-38.445;-65.453;-11.027;-9.499;-14.454
6471956.176;-99.353;-83.558;-102.893;-37.514;-63.851;-12.591;-14.007;-17.770
6471956.184;-87.358;-71.451;-96.411;-30.100;-50.627;-9.164;-13.411;-16.652
6471956.192;-80.317;-74.767;-80.504;-20.191;-38.147;-9.835;-10.766;-15.572
6471956.218;-68.508;-53.085;-71.600;-13.746;-23.805;-14.864;-14.156;-17.323
6471956.226;-42.133;-16.503;-47.237;5.811;13.523;-8.941;-10.058;-12.480
6471956.234;-4.694;33.602;-6.333;43.660;62.212;2.608;0.261;-5.476
6471956.242;55.507;99.316;64.336;90.711;141.487;6.147;5.700;-2.384
6471956.250;133.328;180.379;154.451;147.708;242.181;4.247;3.800;-3.390
6471956.258;213.198;267.066;242.591;204.407;349.395;15.199;14.342;8.903
6471956.266;315.830;387.579;354.089;282.153;479.706;27.902;25.742;20.489
6471956.274;399.202;481.457;451.393;346.713;587.367;35.092;33.788;26.859
6471956.282;430.644;515.580;489.578;374.205;639.595;28.349;25.742;22.762
6471956.290;414.774;508.167;463.240;366.233;620.671;21.309;18.664;16.838
6471956.298;375.323;465.661;422.038;327.490;562.519;13.262;12.629;10.841
6471956.306;311.993;392.124;359.193;279.732;480.041;6.221;7.153;5.700
6471956.314;244.156;312.030;287.965;228.286;403.710;5.700;6.668;4.843
6471956.322;183.731;246.651;225.864;186.712;334.457;4.061;3.204;2.533
6471956.330;130.869;184.253;170.842;140.928;270.233;-0.522;-2.049;-3.241
6471956.338;94.473;130.534;129.230;107.773;220.500;-2.049;-2.347;-4.172
6471956.346;53.681;89.966;88.066;80.541;182.502;-4.917;-3.204;-7.674
6471956.354;43.623;83.372;83.856;68.694;163.876;-7.860;-3.427;-11.250
6471956.362;24.103;50.627;61.914;53.868;130.720;-10.543;-5.141;-12.666
6471956.370;2.347;44.182;30.622;45.486;102.371;-5.253;-3.353;-5.104
6471956.378;-27.977;17.285;4.061;29.840;72.382;-3.353;-2.496;-2.161
6471956.386;-49.435;-16.093;-12.033;8.829;44.890;-9.984;-9.686;-9.574
6471956.394;-62.026;-28.908;-27.195;-2.347;29.951;-11.772;-14.007;-13.448
6471956.402;-79.870;-45.225;-42.319;-10.282;18.589;-6.668;-10.170;-9.835
6471956.427;-79.833;-32.037;-54.911;-7.935;7.823;-4.657;-7.749;-5.625
6471956.435;-92.164;-46.380;-72.271;-13.337;-10.990;-5.849;-5.774;-3.390
6471956.443;-110.641;-75.437;-92.573;-25.518;-38.520;-9.015;-6.780;-6.855
6471956.451;-124.611;-88.140;-95.777;-30.696;-55.954;-7.525;-5.811;-6.631
6471956.459;-125.691;-75.400;-97.901;-28.647;-58.226;-4.396;-0.857;-3.837
6471956.467;-127.964;-91.828;-103.600;-30.771;-60.871;-0.931;3.316;0.671
6471956.475;-128.709;-82.813;-105.537;-22.016;-60.983;-0.298;3.241;1.006
6471956.483;-140.034;-87.842;-121.072;-31.330;-79.349;-8.270;-5.439;-8.568
6471956.491;-147.708;-98.757;-132.322;-33.379;-92.275;-7.451;-2.198;-9.350
6471956.499;-153.705;-107.512;-137.426;-33.453;-106.543;-7.488;-2.235;-7.376
6471956.507;-163.317;-127.889;-150.688;-50.366;-122.972;-16.280;-12.368;-14.044
6471956.515;-167.973;-134.520;-149.161;-58.524;-125.580;-20.005;-14.901;-17.956
6471956.523;-178.032;-138.544;-161.640;-71.228;-137.538;-29.989;-26.599;-26.785
6471956.531;-182.539;-155.978;-165.477;-75.586;-145.547;-29.244;-25.891;-24.848
6471956.539;-185.370;-150.688;-164.397;-71.414;-147.261;-27.046;-24.661;-20.750
6471956.547;-188.202;-149.272;-172.295;-69.924;-151.508;-21.383;-18.515;-16.689
6471956.555;-181.235;-133.961;-177.696;-63.851;-152.886;-15.385;-10.133;-12.852
6471956.563;-171.438;-138.506;-163.987;-67.391;-148.788;-23.097;-16.503;-20.452
6471956.571;-176.989;-147.372;-155.419;-74.804;-143.275;-27.940;-24.214;-23.730
6471956.579;-174.269;-130.571;-151.619;-64.708;-141.710;-23.320;-21.644;-19.707
6471956.587;-176.430;-143.461;-160.448;-66.496;-146.255;-18.850;-17.285;-17.658
6471956.595;-179.708;-144.765;-165.440;-70.184;-151.023;-21.309;-19.111;-20.750
6471956.603;-180.192;-142.865;-164.509;-73.016;-151.023;-19.409;-14.827;-19.446
6471956.611;-175.759;-143.647;-159.517;-67.838;-144.206;-20.154;-12.591;-21.458
6471956.676;-172.369;-142.306;-156.648;-67.465;-137.016;-22.054;-15.795;-21.309
6471956.684;-170.805;-137.165;-148.565;-68.545;-138.246;-17.807;-12.517;-15.981
6471956.692;-172.965;-137.389;-153.594;-65.342;-140.965;-22.240;-17.621;-22.016
6471956.700;-172.555;-145.063;-157.878;-64.410;-147.372;-27.046;-21.346;-28.126
6471956.708;-167.005;-141.934;-153.221;-61.803;-149.906;-28.610;-23.507;-29.542
6471956.716;-167.154;-136.979;-152.960;-68.434;-149.608;-29.914;-25.555;-30.883
6471956.724;-171.177;-148.341;-156.946;-74.171;-149.235;-28.126;-20.079;-31.255
6471956.732;-168.607;-145.882;-148.714;-69.290;-146.218;-24.848;-13.709;-30.920
6471956.740;-146.963;-113.510;-136.234;-51.111;-122.637;-2.496;0.857;-7.302
6471956.748;-145.286;-126.809;-134.408;-61.207;-127.032;-5.662;-2.719;-11.362
6471956.756;-144.728;-126.958;-129.417;-60.610;-125.505;-5.923;-1.416;-13.448
6471956.764;-157.692;-133.067;-136.755;-66.198;-136.718;-15.646;-10.058;-22.501
6471956.772;-158.288;-140.890;-147.633;-74.208;-142.120;-26.152;-20.787;-31.032
6471956.780;-156.797;-146.292;-146.292;-78.417;-129.156;-27.828;-21.309;-31.367
6471956.788;-159.107;-141.449;-142.418;-77.337;-131.242;-22.091;-16.578;-24.475
6471956.796;-154.488;-143.833;-140.257;-72.047;-131.018;-16.876;-16.056;-19.893
6471956.804;-152.104;-137.389;-137.128;-71.116;-127.852;-13.150;-16.615;-18.552
6471956.812;-150.949;-137.873;-138.134;-70.930;-127.554;-8.717;-11.474;-15.348
6471956.820;-140.853;-129.044;-125.840;-68.098;-112.392;-5.402;-5.737;-11.474
6471956.828;-140.779;-124.276;-118.800;-72.643;-111.870;-15.721;-16.019;-20.787
6471956.836;-146.478;-127.815;-132.546;-67.353;-121.742;-19.036;-18.179;-22.948
6471956.844;-144.318;-133.775;-140.108;-64.075;-123.344;-17.434;-14.044;-20.377
6471956.852;-137.798;-129.119;-135.750;-65.342;-124.648;-18.701;-16.242;-21.122
6471956.860;-144.616;-138.581;-135.079;-77.896;-121.891;-20.936;-20.601;-22.240
6471956.832;-147.037;-146.069;-134.185;-85.197;-118.278;-17.807;-18.887;-17.658
6471956.840;-146.478;-142.045;-130.460;-80.988;-119.433;-11.697;-11.772;-12.591
6471956.848;-135.824;-122.301;-120.252;-71.600;-105.724;-11.288;-12.293;-13.709
6471956.856;-132.099;-130.087;-120.848;-69.812;-104.532;-12.480;-15.758;-15.311
6471956.864;-131.503;-132.248;-124.834;-69.216;-104.941;-12.442;-15.944;-15.311
6471956.872;-127.554;-122.190;-131.428;-69.886;-114.106;-11.660;-17.248;-12.703
6471956.880;-134.893;-124.909;-118.911;-75.735;-107.065;-13.970;-19.819;-11.921
6471956.888;-141.151;-128.858;-118.874;-82.776;-96.075;-15.348;-21.048;-14.268
6471956.896;-115.447;-100.508;-106.134;-57.779;-96.485;-7.227;-10.021;-9.835
6471956.904;-105.947;-101.961;-104.792;-47.497;-98.757;-0.931;-1.751;-5.774
6471956.912;-102.967;-99.465;-101.328;-43.213;-93.058;-3.874;-4.433;-8.196
6471956.920;-103.787;-101.402;-104.234;-45.784;-93.393;-1.490;-1.900;-7.749
6471956.928;-106.730;-106.990;-113.212;-48.801;-97.305;2.384;2.533;-5.104
6471956.936;-113.808;-113.808;-121.258;-56.103;-105.947;-3.874;-5.327;-6.668
6471956.944;-126.921;-129.342;-123.195;-64.075;-110.306;-16.429;-19.334;-15.497
6471956.952;-129.342;-131.503;-119.656;-69.477;-109.635;-15.087;-19.595;-13.523
6471956.960;-123.344;-120.588;-129.007;-64.261;-112.057;-3.837;-3.316;-8.009
6471956.968;-127.479;-128.150;-135.042;-66.347;-113.770;-6.296;-7.711;-9.686
6471956.976;-129.528;-141.598;-131.615;-78.455;-116.639;-8.121;-10.617;-11.362
6471956.984;-126.287;-136.867;-136.867;-83.148;-115.782;-5.923;-7.115;-9.090
6471956.992;-118.464;-116.117;-129.826;-70.073;-108.033;-6.035;-8.121;-9.649
6471957.000;-124.015;-120.401;-134.483;-70.445;-110.120;-12.517;-14.342;-16.168
6471957.008;-122.860;-118.352;-126.772;-70.743;-106.134;-13.374;-14.119;-17.658
6471957.016;-125.766;-121.780;-125.729;-71.675;-108.145;-11.101;-11.213;-16.242
6471957.030;-136.346;-143.982;-134.595;-86.054;-112.280;-9.984;-10.692;-14.454
6471957.038;-138.171;-153.370;-144.318;-98.944;-117.570;-14.417;-14.640;-16.354
6471957.046;-131.242;-134.148;-136.942;-92.313;-104.532;-16.987;-14.454;-17.323
6471957.054;-122.115;-118.054;-129.715;-77.970;-98.422;-12.703;-10.319;-14.640
6471957.062;-123.531;-125.431;-125.058;-75.921;-101.551;-9.052;-8.643;-9.686
6471957.070;-125.989;-122.525;-128.262;-78.678;-104.234;-7.004;-7.451;-8.419
6471957.078;-131.577;-119.545;-136.644;-82.068;-112.578;-5.886;-4.992;-9.127
6471957.086;-141.189;-141.636;-144.988;-92.685;-123.046;-4.992;-5.998;-8.754
6471957.094;-137.985;-137.128;-141.039;-87.731;-115.149;-6.743;-10.431;-8.345
6471957.102;-128.672;-114.255;-135.824;-76.927;-114.404;-9.425;-10.617;-9.649
6471957.110;-122.972;-110.753;-124.387;-70.259;-109.784;-4.619;-3.129;-5.588
6471957.118;-118.017;-108.667;-121.109;-62.212;-94.473;0.000;1.825;-1.527
6471957.126;-118.166;-101.104;-113.323;-60.573;-98.050;-2.831;-0.261;-3.539
6471957.134;-127.889;-122.078;-127.479;-73.202;-112.131;-10.356;-8.047;-10.170
6471957.142;-133.961;-123.046;-134.036;-74.357;-120.290;-12.927;-12.480;-12.703
6471957.150;-123.531;-97.491;-125.021;-63.106;-113.621;-9.984;-9.760;-12.182
6471957.158;-113.361;-86.799;-113.472;-52.676;-106.506;-6.594;-5.402;-9.835
6471957.166;-113.063;-87.507;-111.461;-49.584;-105.128;-4.508;-1.378;-7.600
6471957.174;-113.025;-90.003;-114.664;-49.360;-113.025;-1.304;2.533;-4.023
6471957.182;-113.919;-89.817;-117.421;-46.678;-107.251;-0.782;2.012;-1.974
6471957.190;-117.384;-95.293;-117.645;-52.266;-107.065;-6.780;-3.092;-8.196
6471957.198;-109.114;-91.009;-109.635;-49.025;-100.359;-5.998;-0.447;-9.313
6471957.206;-100.993;-77.635;-104.755;-37.439;-93.319;1.416;6.072;-2.198
6471957.214;-88.997;-55.842;-87.544;-22.091;-78.790;2.012;6.147;-0.298
6471957.256;-69.551;-32.634;-66.943;-0.447;-58.822;0.559;3.129;-1.751
6471957.264;-40.494;4.582;-42.841;26.710;-26.748;-3.763;-1.751;-4.806
6471957.272;14.193;70.967;13.895;73.947;43.251;-4.917;-4.359;-5.998
6471957.280;91.530;166.707;99.167;144.057;142.828;-2.012;-0.075;-3.017
6471957.288;394.359;508.204;427.254;345.111;530.444;9.798;11.362;13.746
6471957.296;414.401;534.393;444.651;356.920;538.416;17.136;15.944;22.054
6471957.304;404.008;501.238;436.045;343.546;522.844;19.111;18.701;23.171
6471957.312;363.849;452.399;399.351;310.428;478.700;19.446;19.185;21.048
6471957.320;325.330;413.731;354.797;277.758;426.918;23.767;24.363;22.426
6471957.328;284.240;363.328;306.442;241.175;372.715;17.583;17.509;14.678
6471957.336;240.020;296.794;268.072;200.123;322.163;10.692;8.643;9.760
6471957.344;206.828;261.739;235.662;173.375;281.893;3.763;2.719;6.706
6471957.352;175.573;239.648;199.713;150.464;235.923;0.522;1.080;3.204
6471957.360;151.731;202.134;170.581;126.660;200.197;5.700;6.109;6.892
6471957.368;127.032;169.724;153.184;110.418;176.243;1.639;3.316;0.633
6471957.376;112.839;159.889;140.704;101.700;159.070;2.198;2.012;-1.639
6471957.384;103.749;144.243;114.329;90.003;140.704;11.586;10.543;6.147
6471957.392;81.360;117.384;88.625;76.927;114.106;13.150;12.629;7.376
6471957.400;55.023;88.997;67.987;63.851;86.389;10.096;9.276;4.396
6471957.408;41.872;76.555;64.932;57.742;76.294;9.499;8.009;5.476
6471957.416;29.765;53.048;47.125;42.208;56.922;9.649;7.525;5.588
6471957.424;4.247;24.326;17.248;23.060;24.773;1.490;0.633;-1.118
6471957.432;-3.204;26.710;4.135;19.372;19.148;1.155;0.894;-0.782
6471957.440;-2.906;37.849;2.645;26.189;18.626;4.731;3.837;1.453
6471957.523;-13.039;15.981;-3.651;16.838;8.419;4.247;4.210;1.155
6471957.531;-28.089;-14.938;-15.572;6.855;-3.576;4.806;6.966;0.224
6471957.539;-33.528;-18.701;-25.742;-0.298;-17.136;3.874;5.960;-1.229
6471957.547;-42.692;-9.984;-34.273;-3.055;-27.157;-1.229;1.751;-3.949
6471957.555;-48.354;-25.481;-45.747;-11.548;-37.737;-9.909;-6.445;-11.213
6471957.563;-55.917;-31.851;-56.550;-20.303;-44.331;-14.342;-9.723;-15.572
6471957.571;-56.811;-36.694;-50.180;-15.981;-40.233;-7.860;-4.992;-10.580
6471957.579;-64.671;-52.974;-60.424;-23.805;-53.756;-4.210;-3.055;-9.313
6471957.587;-75.176;-65.193;-76.555;-32.112;-66.906;-7.898;-8.196;-12.368
6471957.595;-71.079;-61.952;-71.302;-27.530;-62.697;-6.966;-9.537;-9.276
6471957.603;-63.553;-45.672;-61.765;-25.444;-55.619;-13.188;-16.056;-14.119
6471957.611;-71.749;-51.744;-73.500;-32.112;-68.545;-16.503;-16.913;-17.844
6471957.619;-84.378;-73.612;-87.321;-41.500;-66.198;-14.864;-13.933;-17.546
6471957.627;-86.948;-78.157;-85.980;-44.294;-68.396;-13.970;-12.703;-15.981
6471957.635;-89.258;-88.736;-92.983;-48.615;-77.933;-10.133;-9.909;-14.789
6471957.643;-91.232;-92.089;-96.560;-58.077;-87.135;-0.224;-5.625;-8.270
6471957.651;-87.544;-75.772;-95.330;-47.758;-82.068;5.439;-2.049;-4.508
6471957.659;-81.919;-72.420;-82.515;-37.029;-73.835;4.508;-1.304;-5.290
6471957.667;-76.666;-69.998;-75.437;-37.700;-71.600;-0.186;-3.427;-6.743
6471957.675;-89.295;-84.378;-90.338;-50.701;-74.878;-17.434;-21.011;-18.366
6471957.683;-84.899;-84.713;-83.670;-49.397;-66.198;-22.277;-23.544;-19.409
6471957.691;-73.425;-66.683;-78.231;-39.749;-61.579;-14.417;-12.852;-11.474
6471957.699;-84.043;-76.182;-88.103;-49.099;-71.190;-15.087;-14.827;-14.156
6471957.707;-95.926;-98.757;-97.975;-59.642;-79.907;-14.268;-15.795;-15.572
6471957.675;-86.538;-87.917;-94.660;-50.664;-75.102;-2.421;-5.998;-7.562
6471957.683;-86.129;-76.592;-92.834;-54.054;-75.586;2.123;-4.508;-2.533
6471957.691;-101.067;-102.781;-98.012;-74.506;-76.033;1.192;-9.909;-3.316
6471957.699;-95.852;-101.998;-102.408;-72.569;-75.772;2.645;-6.892;-2.831
6471957.707;-93.170;-87.507;-105.426;-61.356;-77.523;-1.676;-8.270;-6.407
6471957.715;-102.185;-94.995;-101.700;-66.906;-80.094;-13.970;-19.185;-15.385
6471957.723;-100.322;-91.605;-101.775;-64.820;-81.696;-20.564;-22.911;-19.670
6471957.731;-87.954;-90.189;-97.454;-62.548;-81.807;-19.856;-19.558;-18.328
6471957.739;-88.438;-91.977;-91.307;-61.654;-69.104;-17.732;-18.142;-15.758
6471957.747;-89.295;-91.642;-92.722;-59.605;-66.832;-12.890;-13.821;-12.852
6471957.755;-96.597;-99.875;-103.004;-61.542;-73.165;-8.754;-9.127;-11.437
6471957.763;-87.507;-87.917;-94.622;-54.464;-63.628;2.198;3.353;-4.247
6471957.771;-78.008;-74.953;-85.682;-47.386;-58.450;13.858;13.970;4.284
6471957.779;-86.017;-83.558;-104.569;-58.636;-76.815;5.960;3.241;-3.390
6471957.787;-91.270;-88.811;-100.769;-63.218;-75.176;-11.586;-15.236;-16.727
6471957.795;-99.912;-98.795;-100.769;-69.514;-73.649;-25.295;-29.355;-25.444
6471957.803;-100.434;-103.824;-108.220;-66.161;-80.056;-26.263;-30.026;-22.352
6471957.811;-93.430;-105.910;-108.406;-66.198;-78.045;-19.707;-24.624;-14.715
6471957.819;-99.242;-105.090;-112.504;-76.443;-81.062;-21.011;-26.003;-17.844
6471957.827;-104.122;-110.269;-110.157;-81.845;-85.086;-24.922;-27.865;-22.799
6471957.835;-99.540;-98.981;-111.945;-73.276;-79.088;-23.618;-24.624;-20.638
6471957.843;-99.763;-105.463;-114.702;-72.122;-75.102;-23.730;-23.618;-19.297
6471957.851;-106.730;-116.713;-120.215;-82.776;-80.690;-26.263;-24.438;-25.667
6471957.859;-105.426;-119.954;-122.748;-86.240;-84.341;-20.862;-18.477;-23.656
6471957.837;-100.844;-112.616;-112.504;-79.684;-76.219;-21.458;-17.956;-24.065
6471957.845;-99.093;-95.628;-106.432;-73.649;-70.892;-25.816;-20.638;-27.604
6471957.853;-97.118;-95.442;-115.857;-72.680;-77.561;-25.332;-17.472;-27.716
6471957.861;-88.178;-92.350;-101.216;-70.222;-58.487;-17.844;-9.723;-20.117
6471957.869;-92.126;-102.334;-100.583;-74.878;-58.524;-19.893;-15.162;-19.446
6471957.877;-87.023;-99.279;-96.783;-75.810;-61.318;-22.464;-20.117;-20.787
6471957.885;-79.721;-86.762;-93.617;-70.147;-59.493;-15.311;-14.529;-17.397
6471957.893;-84.266;-80.913;-99.018;-69.551;-58.562;-6.631;-3.576;-12.480
6471957.901;-89.034;-91.195;-103.526;-66.422;-66.981;-0.559;5.588;-10.170
6471957.909;-89.034;-95.926;-105.537;-64.559;-74.953;0.000;9.760;-8.233
6471957.917;-92.536;-92.983;-110.343;-71.339;-81.137;-7.041;5.029;-11.772
6471957.925;-99.577;-104.755;-114.888;-74.729;-88.401;-19.297;-8.270;-19.781
6471957.933;-98.273;-101.440;-115.223;-71.898;-93.058;-27.865;-18.291;-25.891
6471957.941;-102.445;-105.016;-122.488;-73.835;-86.986;-35.204;-27.195;-32.522
6471957.949;-95.516;-92.350;-111.349;-69.067;-79.535;-34.831;-27.716;-32.857
6471957.957;-84.415;-92.089;-87.321;-69.402;-80.056;-27.083;-19.595;-30.361
6471957.965;-87.284;-85.942;-92.946;-67.204;-83.782;-19.930;-11.735;-29.206
6471957.973;-79.684;-83.335;-95.069;-55.842;-77.821;-8.158;1.676;-20.154
6471957.981;-75.549;-75.847;-93.654;-55.358;-78.417;-3.800;5.476;-12.964
