Timestamp,AFz,AF3,AF4,AF7,AF8,Pz,P3,P4,2024-05-16 11:56:34.871,fs=125
5445814.186;-93.915;-91.270;-88.885;-46.231;-59.865;-17.211;-13.486;5.737
5445814.194;-107.437;-101.961;-104.755;-62.920;-78.864;-40.680;-36.620;-30.808
5445814.202;-98.757;-94.101;-96.932;-50.701;-69.477;-32.112;-28.722;-18.403
5445814.210;-97.007;-97.565;-95.405;-53.309;-66.645;-28.871;-23.954;-12.629
5445814.218;-87.544;-91.866;-85.086;-43.921;-56.550;-16.727;-12.591;8.009
5445814.226;-76.480;-74.618;-75.623;-29.355;-48.093;-9.649;-6.184;9.984
5445814.234;-91.679;-90.860;-94.175;-42.804;-67.726;-30.175;-27.157;-20.526
5445814.242;-100.546;-102.706;-102.706;-51.074;-74.133;-33.118;-25.891;-18.813
5445814.250;-106.543;-107.475;-108.145;-61.318;-77.337;-35.204;-33.379;-21.793
5445814.258;-117.309;-119.582;-119.135;-77.374;-88.289;-47.423;-43.735;-38.967
5445814.266;-104.383;-108.778;-108.294;-60.685;-78.566;-37.737;-26.971;-22.389
5445814.274;-95.479;-98.944;-97.379;-48.541;-65.453;-29.281;-22.165;-6.631
5445814.282;-82.850;-83.335;-86.017;-32.187;-52.080;-15.795;-13.560;6.817
5445814.290;-105.388;-107.549;-110.567;-56.736;-78.082;-41.574;-34.720;-22.501
5445814.298;-120.439;-129.268;-125.766;-71.079;-89.817;-55.693;-45.411;-34.459
5445814.306;-104.904;-115.745;-107.922;-59.307;-70.781;-36.284;-30.547;-18.813
5445814.314;-94.250;-92.424;-99.167;-45.039;-62.026;-24.587;-19.260;-6.333
5445814.322;-82.627;-81.509;-90.674;-31.106;-56.326;-13.299;-4.135;-6.370
5445814.330;-99.763;-101.663;-108.518;-50.813;-75.735;-32.000;-27.306;-25.667
5445814.338;-88.327;-93.319;-95.293;-42.357;-60.499;-23.469;-20.750;-8.643
5445814.346;-74.096;-82.292;-80.504;-30.734;-43.884;-15.683;-13.746;4.694
5445814.354;-74.022;-81.882;-81.733;-30.808;-46.603;-16.764;-14.417;-0.112
5445814.362;-92.536;-97.677;-100.136;-44.554;-67.279;-35.800;-35.092;-18.738
5445814.370;-74.580;-77.672;-83.782;-24.065;-56.252;-28.014;-24.363;-14.156
5445814.397;-67.949;-71.190;-76.443;-16.801;-49.621;-31.739;-23.916;-22.352
5445814.405;-69.663;-73.500;-75.065;-18.887;-47.050;-37.439;-31.628;-24.997
5445814.413;-41.723;-42.543;-46.827;11.660;-21.160;-25.891;-24.252;-7.786
5445814.421;-10.692;-7.674;-18.328;47.237;2.012;-17.472;-16.354;0.894
5445814.429;12.591;15.832;5.551;61.952;19.334;-22.575;-18.068;-2.496
5445814.437;12.517;16.652;6.109;54.538;11.921;-52.601;-46.119;-44.703
5445814.445;68.434;75.698;60.871;111.796;58.711;-25.481;-20.452;-14.305
5445814.453;97.267;105.612;87.805;138.767;78.678;-19.968;-16.168;-6.929
5445814.461;97.677;107.586;87.954;138.879;75.102;-23.581;-18.962;-14.938
5445814.469;97.193;108.890;86.091;141.449;73.537;-23.842;-19.521;-10.319
5445814.477;85.384;96.634;71.526;127.479;60.610;-28.573;-30.547;-6.333
5445814.485;70.296;78.343;54.985;106.841;48.243;-36.545;-34.198;-26.189
5445814.493;47.870;54.613;30.734;86.166;30.808;-42.655;-35.129;-25.891
5445814.501;27.418;31.590;5.253;77.225;11.064;-41.723;-37.439;-23.767
5445814.509;37.104;46.827;12.480;90.934;26.114;-12.927;-11.697;3.837
5445814.517;19.632;28.536;-6.892;68.657;14.193;-23.022;-20.675;-6.184
5445814.525;-10.841;-1.825;-36.731;42.841;-14.678;-45.821;-36.769;-27.120
5445814.533;-15.758;-2.682;-41.984;47.721;-14.864;-37.327;-26.114;-19.334
5445814.541;-51.856;-43.139;-75.921;9.611;-44.256;-55.917;-53.495;-39.525
5445814.549;-17.397;-14.231;-41.090;43.437;-4.806;-7.972;-3.949;2.496
5445814.557;12.554;16.801;-10.580;78.566;26.301;26.338;30.994;38.445
5445814.565;11.362;13.895;-9.611;74.059;29.802;28.647;34.124;45.039
5445814.573;19.558;22.314;-0.447;85.756;38.221;28.796;30.212;44.666
5445814.581;0.633;2.049;-18.291;65.565;15.497;22.613;15.721;43.064
5445814.592;-5.253;-6.407;-23.618;55.619;15.460;38.520;30.324;50.440
5445814.600;9.462;8.047;-6.929;68.694;36.359;64.000;60.350;71.675
5445814.608;27.902;25.779;13.560;88.140;57.407;85.831;83.968;91.046
5445814.616;21.756;17.695;12.554;83.819;56.699;88.885;86.725;96.299
5445814.624;30.287;24.512;24.624;90.189;71.190;91.344;86.911;103.191
5445814.632;24.512;18.515;17.732;85.905;58.934;75.325;74.357;84.080
5445814.640;32.447;24.214;30.398;89.966;75.735;87.209;92.052;104.345
5445814.648;38.445;29.169;36.880;95.516;80.727;93.579;97.007;110.790
5445814.656;25.705;15.460;24.475;79.349;68.098;77.449;80.466;94.660
5445814.664;31.292;20.452;33.788;85.793;77.076;78.157;82.143;95.591
5445814.672;46.454;34.869;50.999;99.353;91.828;94.138;100.173;117.645
5445814.680;44.368;34.273;50.813;98.161;90.189;102.371;109.859;119.768
5445814.688;41.388;32.559;50.254;98.944;87.991;97.193;101.626;115.149
5445814.696;74.804;66.236;80.019;134.669;116.937;134.446;141.151;153.221
5445814.704;54.725;44.294;55.060;115.000;94.213;116.900;125.132;130.273
5445814.712;37.327;24.289;40.792;94.548;81.882;104.941;113.547;121.407
5445814.720;34.831;22.054;38.370;92.797;81.882;98.571;104.569;116.490
5445814.728;40.270;28.834;41.947;97.975;85.868;96.038;95.442;123.940
5445814.736;45.523;33.192;48.429;100.620;88.736;100.955;103.377;122.525
5445814.744;45.151;30.324;53.383;98.720;96.075;108.927;109.449;128.597
5445814.752;35.651;19.297;45.523;87.731;85.831;92.536;97.416;112.057
5445814.760;49.993;32.224;59.642;96.597;96.038;99.465;108.443;118.837
5445814.768;43.698;25.108;55.395;88.997;91.679;92.983;103.861;108.592
5445814.776;38.669;21.718;52.601;89.221;85.868;88.289;95.852;103.675
5445814.788;52.936;35.502;69.365;104.867;98.310;112.206;113.808;129.007
5445814.796;38.892;21.383;55.619;90.301;82.627;100.471;101.142;111.088
5445814.804;40.233;21.718;58.860;85.831;86.613;100.508;104.234;112.616
5445814.812;34.608;16.093;56.252;79.237;79.349;93.505;93.505;111.572
5445814.820;13.150;-3.763;35.912;59.940;58.226;73.798;75.959;87.507
5445814.828;17.621;1.751;38.706;66.720;56.028;74.692;80.131;89.034
5445814.836;26.636;9.350;48.168;72.569;63.255;83.484;86.427;100.061
5445814.844;12.405;-7.637;36.918;47.274;52.489;71.190;75.549;84.862
5445814.852;26.561;5.737;51.111;60.201;65.230;84.415;86.650;95.889
5445814.860;-0.596;-21.085;23.767;35.390;36.992;54.315;56.997;66.049
5445814.868;-9.499;-29.430;16.093;27.567;28.536;47.162;50.776;62.920
5445814.876;-20.526;-42.804;6.296;11.399;16.615;41.611;43.474;59.232
5445814.884;-12.591;-37.923;14.678;11.213;21.346;39.600;40.680;49.882
5445814.892;-20.526;-47.311;7.153;-0.596;14.752;24.177;25.891;28.647
5445814.900;-25.071;-50.887;1.304;-5.290;6.519;24.997;24.773;40.904
5445814.908;-2.310;-29.542;25.108;13.821;31.330;40.643;45.113;48.727
5445814.916;-12.964;-40.606;14.529;0.931;19.632;29.169;32.522;42.021
5445814.924;-39.451;-66.943;-13.523;-29.728;-11.437;8.792;15.087;24.177
5445814.932;-48.950;-73.463;-24.810;-34.459;-21.234;-5.551;-3.353;7.898
5445814.940;-38.929;-63.293;-17.509;-28.424;-15.758;8.047;10.356;21.532
5445814.948;-36.135;-65.938;-9.984;-38.557;-5.439;21.756;23.767;32.336
5445814.956;-30.771;-59.158;-6.780;-27.046;-0.857;10.580;13.299;19.968
5445814.964;-15.497;-42.059;5.886;-11.474;7.525;20.973;28.610;37.141
5445814.972;-39.451;-65.230;-21.160;-37.700;-21.458;-2.421;3.055;8.643
5445815.103;-34.794;-59.754;-16.876;-33.826;-13.672;-6.370;-2.123;4.210
5445815.111;-29.057;-53.756;-11.772;-32.298;-5.551;3.763;11.846;21.756
5445815.119;-61.281;-85.905;-45.225;-67.502;-39.265;-24.065;-19.781;-8.009
5445815.127;-33.528;-57.928;-21.309;-43.325;-14.789;10.096;17.174;22.203
5445815.135;-45.858;-71.228;-35.912;-60.014;-28.759;-6.072;-1.490;6.072
5445815.143;-34.273;-59.679;-24.028;-51.111;-13.858;12.480;18.664;26.263
5445815.151;-23.618;-45.635;-15.907;-35.688;-7.190;22.650;24.028;39.153
5445815.159;-32.671;-55.544;-26.710;-53.346;-17.770;5.551;13.262;10.319
5445815.167;-16.168;-41.723;-12.480;-45.486;-4.470;14.678;25.220;19.334
5445815.175;-26.710;-54.017;-25.295;-60.163;-14.789;1.900;7.860;10.133
5445815.183;-30.771;-55.395;-29.914;-62.473;-21.905;-5.327;2.161;3.278
5445815.191;-7.674;-30.920;-8.270;-42.431;-0.484;5.439;13.188;15.460
5445815.199;-12.629;-37.178;-12.517;-55.581;-2.608;4.768;9.649;20.154
5445815.207;-16.354;-40.196;-15.646;-55.246;-4.061;4.098;13.337;18.515
5445815.215;-17.211;-41.611;-17.472;-64.000;-9.164;5.737;18.179;20.377
5445815.223;-21.681;-46.827;-23.842;-76.890;-19.819;-4.694;4.098;5.364
5445815.231;-14.193;-40.829;-14.566;-71.973;-6.296;5.886;19.185;14.305
5445815.239;10.058;-16.764;8.047;-49.025;16.429;25.332;36.210;37.067
5445815.247;-17.397;-42.245;-20.042;-76.592;-14.231;8.382;27.940;10.952
5445815.255;-22.538;-42.990;-26.412;-80.243;-20.415;-5.476;4.396;3.539
5445815.263;-26.673;-51.409;-29.653;-105.947;-21.048;-2.608;9.164;12.666
5445815.271;-32.671;-56.848;-34.720;-114.627;-25.891;-9.798;1.751;0.112
5445815.279;-23.879;-45.598;-26.040;-104.718;-16.578;-23.134;-19.707;-12.331
5445815.287;-19.334;-42.208;-21.756;-111.312;-11.325;-9.574;-1.192;4.098
5445815.297;-7.749;-28.051;-11.474;-100.471;-1.043;14.454;19.632;25.369
5445815.305;-7.898;-24.326;-12.107;-95.181;-1.229;19.036;25.630;26.487
5445815.313;-2.533;-21.756;-5.066;-106.804;8.382;22.538;28.573;31.590
5445815.321;14.342;-6.631;9.425;-101.998;19.707;38.967;50.031;44.443
5445815.329;-2.049;-21.160;-5.737;-116.788;5.402;18.850;29.616;23.320
5445815.337;-6.817;-26.710;-10.021;-137.985;2.012;7.786;16.280;12.033
5445815.345;1.863;-17.360;-0.186;-139.065;14.268;11.735;10.356;26.785
5445815.353;10.841;-3.129;4.284;-120.103;7.711;21.942;24.550;23.805
5445815.361;1.751;-14.342;-1.714;-142.232;2.757;23.395;31.888;25.779
5445815.369;1.602;-16.056;1.490;-163.727;8.903;26.748;27.008;29.728
5445815.377;1.825;-17.509;1.788;-181.124;9.984;27.455;22.277;34.720
5445815.385;-5.886;-24.624;-7.525;-192.411;-1.229;17.323;18.291;23.209
5445815.393;7.041;-8.382;7.972;-173.673;13.523;12.815;11.064;16.950
5445815.401;11.921;-1.229;14.417;-172.257;20.750;17.509;15.199;23.730
5445815.409;-1.453;-22.240;3.614;-235.029;7.860;14.566;16.578;19.222
5445815.417;-38.780;-58.599;-33.490;-275.560;-28.983;-12.591;-6.221;-9.947
5445815.425;-9.723;-26.934;-5.476;-248.924;-2.310;25.034;31.590;28.946
5445815.433;25.928;14.007;28.275;-202.283;29.691;36.880;30.585;45.039
5445815.441;3.725;-12.442;6.892;-250.973;6.892;13.821;4.210;18.589
5445815.449;6.035;-12.405;12.070;-266.097;12.368;21.234;12.629;25.593
5445815.457;15.274;-1.416;19.968;-267.401;17.472;36.992;37.551;40.568
5445815.465;12.666;-1.825;17.770;-270.642;16.578;38.967;40.755;46.380
5445815.473;-11.437;-28.796;-1.602;-316.687;-2.719;3.241;-2.123;7.153
5445815.481;-4.098;-24.177;7.041;-325.032;4.470;6.706;4.359;9.276
5445815.446;5.774;-11.772;14.976;-321.157;11.921;16.578;4.508;20.415
5445815.454;1.900;-16.019;12.740;-341.609;11.884;20.862;10.766;26.859
5445815.462;-12.740;-28.685;1.378;-378.191;1.453;19.483;14.976;23.320
5445815.470;-7.749;-23.469;5.513;-393.800;0.410;24.773;19.930;24.103
5445815.478;-16.838;-32.336;-3.502;-417.829;-8.866;14.454;7.562;14.454
5445815.486;-18.179;-32.037;-8.531;-430.942;-14.082;8.419;1.453;14.417
5445815.494;-14.640;-30.249;-2.980;-462.383;-4.359;16.429;14.342;20.601
5445815.502;0.671;-13.411;10.021;-470.020;7.041;33.043;28.685;37.625
5445815.510;-7.600;-22.203;1.639;-492.781;-4.880;31.367;23.693;33.453
5445815.518;-23.246;-38.557;-12.144;-535.175;-14.827;28.983;20.489;33.863
5445815.526;-33.900;-45.821;-25.854;-555.813;-27.791;27.195;19.595;32.000
5445815.534;-32.932;-47.497;-26.450;-580.736;-29.169;24.252;17.509;25.705
5445815.542;-30.696;-46.827;-25.257;-600.442;-25.630;21.271;12.666;26.226
5445815.550;-53.570;-69.141;-48.317;-642.054;-49.360;6.855;6.519;2.682
5445815.558;-50.254;-66.757;-44.666;-653.900;-41.500;6.631;1.751;11.474
5445815.566;-51.968;-68.992;-47.870;-671.223;-44.852;-0.894;-11.735;7.302
5445815.574;-44.666;-60.238;-41.276;-673.905;-38.333;8.829;3.353;13.635
5445815.582;-45.262;-60.946;-39.786;-686.236;-34.422;14.268;6.929;23.320
5445815.590;-54.725;-70.594;-48.727;-696.927;-43.884;9.611;5.737;15.497
5445815.598;-63.404;-79.684;-56.662;-705.235;-49.993;0.522;-4.321;1.714
5445815.606;-71.526;-87.097;-65.677;-708.178;-60.275;-0.410;-1.714;3.912
5445815.614;-60.238;-77.188;-51.185;-703.521;-38.669;14.529;17.770;18.962
5445815.622;-70.482;-85.235;-62.175;-708.476;-48.876;-1.937;-4.768;2.496
5445815.630;-44.741;-60.722;-36.247;-686.087;-25.295;26.077;25.220;34.571
5445815.657;-63.516;-78.306;-59.754;-701.621;-51.633;4.433;-5.290;10.915
5445815.665;-66.236;-80.690;-63.553;-699.609;-52.378;-3.465;-17.770;-1.788
5445815.673;-72.569;-91.344;-68.620;-711.270;-52.974;-7.451;-21.085;-0.782
5445815.681;-59.344;-76.778;-56.848;-690.594;-38.110;-0.075;-5.774;2.868
5445815.689;-55.544;-71.265;-55.619;-679.828;-36.359;6.817;6.407;7.376
5445815.697;-62.250;-77.598;-65.155;-680.871;-49.733;8.456;8.233;7.637
5445815.705;-73.425;-94.064;-75.176;-689.626;-55.656;-1.378;-3.874;3.204
5445815.713;-75.251;-95.405;-78.045;-685.789;-55.209;-3.166;-3.651;-3.204
5445815.721;-66.012;-82.403;-69.365;-662.506;-43.735;5.402;4.135;8.643
5445815.729;-67.689;-85.793;-70.743;-655.353;-44.443;-3.465;-8.494;2.161
5445815.737;-63.889;-82.850;-68.732;-643.469;-45.411;0.335;-3.763;0.522
5445815.745;-54.128;-72.308;-61.095;-619.404;-38.370;13.635;9.723;15.460
5445815.753;-43.623;-63.702;-51.484;-599.176;-26.524;20.415;20.079;11.809
5445815.761;-49.733;-72.010;-57.444;-601.411;-30.547;13.039;9.201;5.588
5445815.769;-43.437;-65.677;-51.036;-583.828;-25.108;17.025;11.139;22.352
5445815.777;-51.372;-75.363;-61.728;-581.965;-31.739;-1.416;-5.811;2.198
5445815.785;-48.690;-74.506;-58.450;-571.422;-27.418;2.012;-1.751;4.545
5445815.793;-35.428;-60.648;-44.443;-546.984;-14.156;22.911;21.085;24.326
5445815.801;-28.014;-52.787;-39.712;-523.180;-8.568;28.796;27.418;33.528
5445815.809;-39.712;-65.379;-54.017;-522.546;-22.836;4.694;0.075;-3.576
5445815.817;-49.546;-76.965;-65.565;-522.695;-31.069;-7.227;-11.325;-14.231
5445815.825;-28.759;-57.928;-45.076;-490.472;-9.947;14.901;15.646;9.052
5445815.833;-34.161;-61.393;-55.172;-478.737;-19.930;21.346;25.108;14.268
5445815.841;-29.691;-54.911;-49.956;-461.303;-12.219;21.011;24.326;20.787
5445815.897;-23.320;-49.025;-42.655;-442.043;-2.459;21.793;19.819;27.344
5445815.905;-42.245;-65.267;-63.889;-445.172;-23.805;2.161;-0.447;4.061
5445815.913;-39.078;-63.851;-60.424;-433.736;-21.495;1.155;-3.576;4.917
5445815.921;-28.349;-53.197;-49.844;-417.382;-9.798;7.041;2.608;4.023
5445815.929;-10.021;-33.453;-33.975;-390.336;7.860;27.493;24.438;25.705
5445815.937;-4.396;-29.802;-27.679;-377.484;13.486;35.763;34.869;32.224
5445815.945;-31.665;-55.879;-54.352;-390.932;-13.299;12.740;14.417;-0.186
5445815.953;-18.142;-38.147;-40.643;-359.938;-1.267;20.191;21.271;9.835
5445815.961;30.473;14.566;5.886;-298.172;38.818;39.265;39.339;36.843
5445815.969;66.645;49.286;44.256;-261.106;70.445;42.282;42.543;43.288
5445815.977;86.911;74.916;63.106;-227.131;82.999;25.928;22.799;20.675
5445815.985;111.312;102.557;84.229;-188.760;94.809;18.142;12.107;17.025
5445815.993;157.952;151.396;131.354;-130.832;136.383;37.588;34.161;36.918
5445816.001;163.279;159.256;134.595;-114.851;134.483;27.008;25.816;21.234
5445816.009;173.450;171.326;142.232;-86.874;139.214;38.557;41.388;33.155
5445816.017;197.627;194.162;163.354;-46.901;160.560;70.296;73.388;68.396
5445816.025;183.210;179.484;143.386;-42.655;146.553;60.648;60.983;57.556
5445816.033;144.280;138.916;99.801;-66.161;110.194;35.577;36.992;23.916
5445816.041;131.428;124.983;88.215;-62.473;103.228;36.173;37.849;31.143
5445816.049;130.422;121.780;88.438;-48.876;110.343;47.237;46.566;50.515
5445816.057;128.821;120.848;84.974;-33.155;118.278;62.808;65.081;69.626
5445816.065;72.569;63.330;22.836;-75.437;54.650;20.936;16.689;22.277
5445816.073;50.403;37.961;0.894;-84.043;30.622;14.566;8.270;8.084
5445816.081;61.579;45.076;10.282;-60.461;56.811;42.692;41.649;45.076
5445816.123;68.881;52.340;20.266;-45.374;76.219;47.944;46.492;49.993
5445816.131;60.424;41.202;15.274;-45.933;73.463;47.609;43.064;47.982
5445816.139;13.411;-4.172;-37.141;-73.351;19.185;13.895;11.548;4.992
5445816.147;18.440;1.639;-31.404;-51.260;29.504;21.607;14.752;16.987
5445816.155;14.938;-4.694;-31.926;-48.578;34.198;27.046;19.297;21.271
5445816.163;16.056;-3.166;-30.920;-34.198;36.582;42.021;35.204;32.708
5445816.171;8.009;-10.729;-36.731;-24.773;33.006;44.666;36.210;36.322
5445816.179;7.264;-10.915;-35.949;-12.256;33.006;56.811;44.219;47.684
5445816.187;8.568;-10.915;-31.628;-1.304;37.402;68.806;56.848;56.960
5445816.195;-0.410;-20.862;-38.929;3.204;30.175;57.258;44.815;42.096
5445816.203;0.820;-21.905;-36.396;8.866;29.691;57.407;47.348;43.362
5445816.211;-17.695;-41.872;-51.744;-2.906;14.640;36.433;24.363;30.510
5445816.219;-14.938;-37.476;-47.274;15.721;19.781;31.218;22.873;24.661
5445816.227;-7.227;-31.069;-36.061;33.416;29.989;33.304;28.759;26.226
5445816.235;0.149;-26.748;-24.438;43.586;41.761;42.915;37.104;41.686
5445816.243;-19.558;-48.093;-40.643;31.143;24.587;24.550;16.727;20.787
5445816.251;-19.819;-47.646;-39.190;41.351;25.257;25.444;15.944;21.495
5445816.259;-13.337;-40.457;-32.708;58.115;27.791;39.339;26.822;35.428
5445816.267;-24.699;-52.154;-42.655;52.229;18.850;33.379;17.993;30.287
5445816.275;-26.189;-53.309;-40.457;60.089;19.558;31.888;14.082;31.516
5445816.283;-8.121;-35.986;-18.515;86.166;42.841;45.560;32.112;47.386
5445816.291;-22.016;-48.727;-33.155;81.286;27.716;28.871;15.497;33.006
5445816.299;-25.220;-51.260;-35.875;87.880;23.618;28.126;18.179;26.971
5445816.307;-22.426;-48.690;-35.390;96.820;18.105;29.095;20.713;30.212
5445816.303;-29.728;-57.705;-41.202;91.754;14.901;17.360;6.035;17.956
5445816.311;-8.754;-36.731;-21.532;118.650;35.241;37.253;23.991;35.875
5445816.319;-16.540;-46.268;-27.642;117.496;27.083;31.590;21.793;28.163
5445816.327;-37.998;-69.477;-44.927;96.336;8.568;12.666;-0.373;8.568
5445816.335;-36.210;-65.118;-44.368;108.033;6.780;14.454;0.484;14.119
5445816.343;-37.588;-64.597;-47.013;115.596;6.407;12.256;-2.235;9.313
5445816.351;-32.037;-61.132;-41.500;120.960;10.245;15.385;0.373;18.105
5445816.359;-21.495;-51.446;-30.547;135.526;21.607;15.534;3.427;15.534
5445816.367;-19.670;-49.435;-28.573;142.828;24.326;16.838;7.302;13.635
5445816.375;-29.653;-58.264;-39.563;136.793;10.356;14.268;5.029;9.611
5445816.383;-19.744;-47.348;-31.143;153.445;18.105;27.604;19.521;26.338
5445816.391;-22.016;-51.595;-31.181;150.613;20.154;14.566;6.594;9.723
5445816.399;-20.079;-50.105;-27.381;157.207;22.650;8.121;0.559;1.937
5445816.407;-6.109;-34.049;-13.337;174.046;37.551;9.052;-4.582;12.480
5445816.415;8.568;-21.160;-0.894;190.176;45.821;18.440;5.327;18.366
5445816.423;1.378;-29.244;-9.686;186.525;34.086;6.035;-1.565;-1.788
5445816.431;26.114;-4.135;14.119;216.812;60.946;22.091;8.121;22.277
5445816.439;26.822;-2.943;12.182;221.059;54.315;26.748;13.299;25.928
5445816.447;31.106;4.731;16.987;235.997;61.616;31.702;20.750;34.422
5445816.455;24.252;-3.576;13.933;228.249;60.499;18.552;9.052;15.795
5445816.463;15.721;-13.225;6.557;220.500;53.756;5.104;-6.929;1.229
5445816.471;35.055;8.568;23.246;248.067;68.657;20.899;8.270;23.767
5445816.479;29.765;1.900;18.887;245.422;62.920;17.658;3.316;23.171
5445816.487;45.635;16.689;35.986;260.361;77.337;24.252;15.423;25.928
5445816.452;35.986;8.941;25.444;256.747;63.553;10.096;5.141;4.321
5445816.460;10.319;-18.366;4.321;230.111;46.231;-6.780;-14.640;-16.503
5445816.468;26.226;-0.708;17.472;251.941;56.475;10.021;2.198;5.029
5445816.476;40.121;13.970;31.665;272.207;67.502;24.550;17.658;21.681
5445816.484;36.359;7.413;31.143;268.519;71.824;22.128;15.385;26.040
5445816.492;55.209;28.051;46.305;291.280;87.768;36.471;29.244;35.278
5445816.500;32.187;3.055;23.544;268.407;62.771;13.076;2.012;12.815
5445816.508;17.546;-10.245;7.562;261.329;41.127;-1.825;-8.009;-6.258
5445816.516;43.698;19.222;31.404;296.496;68.210;26.673;24.438;29.802
5445816.524;46.156;19.968;34.273;295.304;74.431;25.071;21.569;23.842
5445816.532;44.182;16.168;33.081;293.441;69.067;23.730;25.854;15.758
5445816.540;49.807;25.146;36.880;311.323;70.110;29.616;27.940;22.165
5445816.548;45.449;21.160;32.149;308.715;69.514;21.309;16.615;21.458
5445816.556;38.184;11.995;27.306;296.272;67.167;18.366;11.586;25.518
5445816.564;17.323;-5.700;2.310;285.991;38.110;-3.800;-7.749;-0.112
5445816.572;41.015;17.472;24.289;312.589;63.069;8.531;4.806;12.703
5445816.580;33.528;7.711;18.366;302.792;55.954;4.433;1.639;7.749
5445816.588;33.081;6.519;19.446;305.660;57.444;11.437;10.617;19.744
5445816.596;38.370;10.841;23.544;310.689;62.734;20.452;22.687;27.791
5445816.604;18.142;-10.803;1.267;291.727;38.557;-4.172;-3.353;-7.935
5445816.612;12.182;-15.199;-3.278;286.289;31.367;-6.743;-8.643;-8.419
5445816.620;14.566;-8.680;-2.198;295.378;36.731;-9.611;-11.586;-7.264
5445816.628;14.454;-7.972;-3.390;301.152;38.184;-16.578;-16.876;-10.207
5445816.636;13.076;-10.654;-1.788;298.284;38.445;-17.509;-16.168;-6.445
5445816.648;49.584;27.120;32.447;337.288;69.700;12.107;12.629;14.491
5445816.656;53.197;35.018;32.075;346.750;68.322;20.489;15.981;20.824
5445816.664;52.638;33.975;31.926;345.968;72.978;17.770;15.162;22.762
5445816.672;51.521;32.671;30.547;344.887;73.723;14.678;15.013;23.693
5445816.680;56.066;38.482;33.155;354.126;73.388;22.128;23.097;25.705
5445816.688;46.305;24.810;25.742;341.162;66.124;12.480;13.709;17.285
5445816.696;23.209;2.645;2.943;320.561;42.506;0.931;0.447;8.531
5445816.704;41.276;21.569;17.919;344.403;54.166;16.652;19.036;12.144
5445816.712;43.139;18.105;24.140;336.692;62.138;15.348;16.652;11.958
5445816.720;26.971;3.651;8.829;325.888;47.386;12.107;6.743;20.079
5445816.728;33.528;11.437;13.039;338.033;49.919;12.368;11.250;18.440
5445816.736;28.946;6.817;7.115;339.709;43.996;-3.316;-3.651;-0.335
5445816.744;36.210;9.611;18.105;340.641;59.977;2.794;4.470;12.554
5445816.752;38.184;12.219;16.019;340.939;51.782;15.460;16.615;22.277
5445816.760;44.368;20.042;20.526;351.332;57.407;17.323;14.640;24.214
5445816.768;46.976;22.836;22.314;351.295;57.854;11.511;8.717;10.803
5445816.776;45.002;20.191;21.011;349.805;56.550;7.376;7.078;7.935
5445816.784;39.078;16.168;18.291;352.152;60.424;12.144;17.844;17.770
5445816.792;11.362;-9.350;-8.903;328.347;37.439;-8.978;-0.931;-8.866
5445816.800;2.235;-18.477;-16.876;320.226;33.118;-4.768;-2.645;-0.857
5445816.808;3.129;-15.572;-17.323;327.714;33.863;5.625;4.247;10.394
5445816.816;-14.603;-33.863;-36.731;312.328;12.591;-4.917;-7.972;-2.012
5445816.824;-30.100;-49.248;-47.497;296.459;7.451;-13.076;-17.472;-7.600
5445816.832;-33.230;-48.503;-52.005;298.396;-0.373;-12.070;-12.815;0.708
5445816.856;-8.903;-27.008;-24.736;317.805;28.238;13.039;16.280;19.781
5445816.864;-37.663;-55.879;-51.931;291.280;1.900;-14.976;-13.486;-13.560
5445816.872;-27.902;-45.858;-42.319;300.929;12.293;-11.697;-11.027;-3.055
5445816.880;-28.387;-45.858;-43.586;299.774;11.288;-14.193;-11.176;-2.123
5445816.888;-54.687;-73.314;-69.775;271.834;-17.099;-38.631;-39.712;-31.106
5445816.896;-45.970;-65.453;-58.264;280.775;-5.998;-26.412;-31.367;-17.136
5445816.904;-33.118;-53.644;-44.070;290.349;9.835;-13.709;-20.824;-9.947
5445816.912;-22.873;-41.276;-34.422;305.027;17.695;0.112;-7.190;-1.453
5445816.920;-26.077;-43.847;-35.688;305.623;16.093;2.496;0.820;2.719
5445816.928;-21.681;-40.196;-30.473;306.442;18.775;-1.527;-6.221;0.857
5445816.936;-18.515;-37.216;-26.040;310.019;21.458;-6.184;-14.752;-0.261
5445816.944;-25.518;-43.698;-32.224;307.746;16.838;-16.391;-24.028;-10.617
5445816.952;-39.600;-57.295;-44.219;291.727;2.198;-32.410;-37.625;-33.230
5445816.960;-16.354;-35.726;-19.819;308.715;20.713;-1.229;-7.674;5.774
5445816.968;-32.000;-50.589;-35.577;298.470;3.427;-10.654;-18.217;-1.676
5445816.976;-34.459;-53.719;-35.129;296.496;10.207;-12.331;-24.401;-11.735
5445816.984;-20.191;-37.663;-20.452;313.744;20.228;-1.825;-13.374;-0.931
5445816.992;-2.570;-19.781;-3.949;332.519;29.169;13.486;2.570;16.950
5445817.000;-19.930;-38.408;-18.440;311.211;16.317;-2.719;-14.938;0.633
5445817.008;-34.347;-52.266;-32.410;297.725;2.682;-18.552;-31.590;-15.013
5445817.016;-33.751;-50.887;-34.124;301.413;-2.645;-19.073;-29.430;-15.572
5445817.024;-34.347;-52.638;-30.398;298.731;1.043;-19.707;-27.567;-17.211
5445817.032;-18.291;-34.161;-12.629;319.034;19.148;7.711;2.272;8.456
5445817.040;-14.044;-29.840;-7.302;322.834;24.252;13.337;6.817;19.446
5445817.052;-43.549;-58.897;-37.029;294.968;-8.643;-26.785;-33.751;-22.501
5445817.060;-27.195;-43.288;-19.930;310.354;9.164;-20.526;-29.430;-18.924
5445817.068;-17.770;-34.161;-9.574;319.481;18.403;-5.476;-14.119;-2.421
5445817.076;-20.042;-37.253;-9.388;313.707;18.179;-4.806;-15.795;-2.123
5445817.084;-7.004;-25.555;4.247;321.344;29.877;4.396;-5.327;9.350
5445817.092;-17.174;-35.949;-4.880;308.752;23.320;-10.170;-18.440;-4.061
5445817.100;-24.550;-40.159;-15.870;306.517;8.456;-23.246;-31.553;-19.446
5445817.108;0.596;-16.019;6.817;331.067;31.367;-5.066;-13.560;3.688
5445817.116;7.898;-8.158;12.964;337.921;33.863;2.943;-3.576;9.313
5445817.124;2.198;-15.013;7.488;329.390;28.946;-4.843;-6.743;-6.482
5445817.132;-6.929;-25.742;0.931;317.320;24.699;-5.141;-11.772;-3.465
5445817.140;-24.438;-40.084;-16.913;305.213;7.786;-10.245;-17.062;-5.588
5445817.148;-26.152;-41.686;-18.813;304.654;7.004;-13.188;-18.813;-8.121
5445817.156;-7.972;-22.613;-1.602;324.473;21.569;1.527;-6.258;7.078
5445817.164;0.633;-16.131;6.296;326.000;26.375;9.239;-0.075;14.864
5445817.172;-20.564;-38.892;-15.497;304.654;7.562;-16.503;-21.681;-24.177
5445817.180;2.794;-13.150;5.998;333.562;28.536;3.017;-1.267;-1.863
5445817.188;14.156;-1.378;17.583;340.939;40.494;13.411;8.717;12.778
5445817.196;-1.341;-16.056;4.023;324.361;26.897;2.570;1.527;-1.639
5445817.204;4.433;-9.388;7.190;335.947;23.618;8.419;7.451;5.290
5445817.212;-14.789;-28.349;-9.462;315.458;9.499;-15.832;-23.060;-15.348
5445817.220;-12.927;-26.710;-6.855;313.781;12.517;-14.938;-23.916;-10.729
5445817.228;-0.335;-14.640;7.190;322.796;27.232;-12.442;-18.477;-9.835
5445817.236;-3.874;-14.417;2.719;326.410;19.595;-23.618;-26.561;-20.675
5445817.217;33.192;17.062;41.947;353.195;54.315;-3.763;-7.562;2.086
5445817.225;33.714;17.621;44.554;350.624;59.344;-13.523;-17.732;-5.253
5445817.233;34.869;24.848;42.617;356.287;49.844;-17.285;-19.148;-11.772
5445817.241;64.261;56.773;72.420;383.668;75.921;0.857;-3.576;12.405
5445817.249;76.555;75.549;81.696;400.953;77.859;2.682;-4.545;11.735
5445817.257;100.285;102.445;102.110;417.680;90.525;-5.625;-6.258;-14.305
5445817.265;111.386;115.670;116.192;422.299;102.669;-20.862;-21.495;-22.277
5445817.273;154.302;161.566;157.170;465.214;135.861;-7.711;-11.623;-0.596
5445817.281;174.046;185.110;171.885;487.864;141.822;3.316;-2.235;6.743
5445817.289;161.789;172.034;159.778;471.771;132.471;-14.976;-17.062;-13.746
5445817.297;158.995;169.277;155.717;469.089;130.795;-16.056;-21.867;-8.233
5445817.305;175.312;185.445;166.856;486.448;138.469;7.749;0.931;14.640
5445817.313;155.345;164.546;144.504;468.791;126.287;11.586;5.402;15.050
5445817.321;119.470;129.528;107.102;437.610;93.542;-1.788;-6.594;-6.221
5445817.329;115.633;124.015;102.296;435.151;91.195;13.262;9.574;3.837
5445817.337;88.625;97.565;76.108;409.298;67.167;4.955;-0.037;-2.421
5445817.345;86.352;94.138;73.686;404.567;72.084;12.703;6.109;9.835
5445817.353;68.434;75.661;53.234;385.270;58.375;5.849;4.545;3.129
5445817.361;53.719;58.934;36.135;374.056;42.506;0.969;0.671;-1.341
5445817.369;31.553;32.112;15.981;347.532;28.051;-11.064;-12.852;-15.423
5445817.377;36.433;36.173;20.862;350.550;34.608;3.092;-0.261;6.184
5445817.385;27.530;26.487;11.399;341.050;27.306;-0.596;-3.874;4.582
5445817.393;22.836;22.836;3.800;341.609;19.819;-0.484;-4.880;4.694
5445817.401;19.930;17.136;-0.149;336.096;15.274;2.868;-0.261;1.639
5445817.382;-12.629;-19.446;-29.691;296.012;-11.474;-16.578;-18.403;-27.008
5445817.390;-7.413;-14.380;-25.108;303.313;-4.135;-6.557;-7.041;-13.709
5445817.398;14.193;6.631;-6.370;324.659;16.652;6.929;1.043;-6.482
5445817.406;16.764;8.494;-4.284;323.579;19.483;23.507;14.529;12.740
5445817.414;3.986;-3.539;-19.372;311.509;5.253;22.054;11.399;8.084
5445817.422;3.986;-0.708;-18.962;321.083;7.078;25.928;19.521;17.397
5445817.430;9.574;1.676;-11.064;322.610;17.993;33.677;29.951;33.565
5445817.438;-20.936;-26.822;-41.500;294.894;-13.374;-3.576;-5.104;-13.188
5445817.446;-27.157;-32.634;-47.982;284.314;-17.099;-11.586;-8.866;-14.119
5445817.454;-29.877;-38.818;-50.105;274.442;-16.503;-10.058;-6.668;-5.849
5445817.462;-27.679;-36.731;-49.025;277.497;-16.987;-8.307;-11.846;-1.192
5445817.470;-22.836;-29.244;-44.666;289.939;-9.798;4.545;7.041;11.250
5445817.478;-39.600;-45.635;-58.152;273.772;-23.171;-14.938;-14.789;-16.876
5445817.486;-59.716;-65.863;-79.200;252.984;-49.695;-31.888;-38.743;-35.018
5445817.494;-65.416;-73.165;-81.211;244.305;-46.790;-23.171;-27.157;-23.656
5445817.502;-60.499;-68.769;-75.810;247.024;-39.525;-12.629;-16.019;-11.846
5445817.510;-54.985;-61.356;-71.935;253.730;-35.018;-16.280;-20.303;-12.815
5445817.518;-50.068;-57.481;-67.092;259.988;-29.840;-15.050;-14.529;-10.505
5445817.526;-47.535;-55.879;-64.224;262.372;-28.200;-10.952;-9.425;-8.047
5445817.534;-63.032;-73.947;-78.306;238.158;-41.053;-26.710;-26.599;-24.140
5445817.542;-76.219;-86.501;-94.101;220.798;-56.997;-33.975;-29.393;-29.914
5445817.550;-62.063;-71.116;-83.148;237.413;-50.366;-24.103;-27.530;-18.701
5445817.558;-43.772;-52.303;-65.602;257.716;-29.355;-9.127;-10.766;-10.096
5445817.566;-34.831;-44.778;-55.730;263.005;-19.446;-3.539;-6.519;-3.576
5445817.593;-36.284;-47.199;-58.338;255.704;-20.452;-0.410;-1.602;-0.037
5445817.601;-17.844;-28.051;-41.984;275.411;-2.198;7.600;8.345;8.196
5445817.609;-16.131;-24.028;-40.829;282.973;-4.843;6.557;8.866;7.264
5445817.617;-26.748;-35.316;-48.801;268.631;-10.841;-5.439;-3.129;-5.662
5445817.625;-38.221;-45.858;-62.250;257.790;-26.971;-10.282;-8.829;-10.692
5445817.633;-47.982;-55.805;-71.488;249.706;-35.204;-11.362;-8.941;-5.513
5445817.641;-45.113;-51.558;-65.751;253.506;-27.455;-2.533;1.006;6.519
5445817.649;-54.799;-63.218;-75.586;236.779;-36.433;-12.890;-12.442;-13.225
5445817.657;-53.681;-60.014;-75.512;241.436;-39.078;-8.754;-11.660;-13.895
5445817.665;-50.105;-53.532;-71.377;249.445;-37.476;-4.731;-8.494;-8.605
5445817.673;-45.411;-48.056;-65.342;253.692;-33.975;-1.937;-0.373;-6.333
5445817.681;-29.914;-34.496;-47.237;263.676;-14.417;11.511;14.901;6.445
5445817.689;-40.792;-48.093;-55.283;244.156;-22.203;-4.619;-6.184;-4.992
5445817.697;-42.208;-50.440;-53.085;244.267;-19.148;-6.519;-8.419;-8.978
5445817.705;-48.056;-57.034;-58.338;237.115;-26.822;-14.082;-16.764;-13.486
5445817.713;-36.620;-44.890;-45.709;246.800;-16.987;-4.731;-9.947;3.502
5445817.721;-15.572;-23.246;-25.108;264.049;0.298;10.282;6.706;7.488
5445817.729;-16.131;-24.550;-23.916;260.957;1.267;6.109;2.459;2.049
5445817.737;-3.204;-13.411;-9.909;268.668;13.709;18.328;12.480;19.185
5445817.745;-0.633;-10.431;-8.605;270.866;8.978;19.260;15.125;20.638
5445817.753;-15.460;-24.177;-20.787;256.673;-4.470;-7.749;-9.127;-6.370
5445817.761;-9.798;-19.372;-13.076;259.615;1.453;-13.411;-16.913;-11.250
5445817.769;14.156;5.364;11.884;284.463;24.289;4.545;3.241;14.342
5445817.777;21.085;12.182;17.472;287.034;26.748;11.139;8.680;20.973
5445817.862;0.596;-6.743;-0.559;266.917;9.239;-9.127;-14.976;-1.974
5445817.870;-22.873;-28.200;-23.060;244.752;-14.156;-25.295;-28.834;-22.575
5445817.878;-27.940;-35.204;-27.567;234.544;-18.105;-24.028;-25.034;-22.426
5445817.886;-4.359;-10.170;-3.539;260.100;3.204;-3.390;-6.780;-2.272
5445817.894;-18.887;-26.450;-17.807;241.697;-14.044;-12.927;-18.813;-6.929
5445817.902;1.788;-6.892;5.104;259.057;11.250;7.562;4.284;17.956
5445817.910;-11.846;-20.526;-10.207;242.926;-3.465;-11.250;-10.617;-5.439
5445817.918;-5.104;-12.182;-2.943;251.830;0.633;-5.700;-2.496;-1.192
5445817.926;-33.751;-39.414;-32.745;223.331;-30.622;-31.218;-29.840;-32.447
5445817.934;-26.748;-33.267;-24.997;227.764;-18.664;-20.079;-25.220;-15.870
5445817.942;-21.495;-29.132;-19.260;230.074;-12.778;-10.803;-16.056;0.745
5445817.950;-23.656;-31.963;-19.111;227.131;-10.692;-10.580;-13.113;-5.178
5445817.958;-28.759;-35.539;-24.810;220.537;-17.025;-8.531;-7.935;-0.335
5445817.966;-30.622;-36.843;-25.593;214.241;-17.919;-16.168;-16.131;-9.015
5445817.974;-31.367;-37.812;-25.854;214.502;-20.415;-22.650;-20.303;-14.193
5445817.982;-37.216;-43.660;-31.665;206.083;-26.561;-21.756;-18.962;-11.995
5445817.990;-28.014;-31.777;-23.097;216.253;-17.248;-6.370;-2.496;6.184
5445817.998;-24.326;-29.653;-19.036;213.161;-14.640;-8.456;-6.929;2.310
5445818.006;-30.734;-38.184;-24.550;202.581;-18.701;-22.464;-18.477;-22.091
5445818.014;-4.135;-11.213;0.857;232.905;8.605;-3.576;0.969;1.080
5445818.022;-5.141;-10.170;-2.347;232.495;2.980;-11.995;-5.588;-3.800
5445818.030;-8.121;-15.274;-8.345;221.320;-9.052;-22.128;-17.062;-8.531
5445818.038;-3.949;-13.262;-1.527;219.569;0.373;-22.016;-12.890;-10.133
5445818.046;1.080;-6.855;4.210;223.927;5.998;-20.303;-14.603;-6.184
5445818.041;19.856;13.039;20.787;245.012;17.285;-5.513;0.149;1.304
5445818.049;14.231;5.513;15.423;232.607;15.646;-6.855;-0.596;-0.335
5445818.057;-10.841;-17.360;-12.070;206.791;-13.970;-24.848;-17.993;-18.850
5445818.065;-19.260;-25.891;-17.434;196.323;-17.397;-33.192;-26.971;-26.077
5445818.073;-17.881;-22.799;-14.715;200.458;-11.325;-24.065;-18.254;-10.543
5445818.081;-24.587;-28.871;-21.979;193.566;-20.899;-27.381;-23.283;-22.762
5445818.089;-28.051;-32.596;-24.922;187.457;-23.879;-22.016;-17.993;-19.930
5445818.097;-26.375;-30.510;-24.028;184.141;-24.512;-14.827;-8.903;-9.090
5445818.105;-27.344;-29.728;-24.550;183.806;-20.713;-11.250;-6.929;-5.886
5445818.113;-16.019;-17.211;-12.964;195.131;-6.892;-8.419;-1.974;1.639
5445818.121;-34.459;-33.826;-34.533;177.585;-32.410;-28.387;-23.134;-21.681
5445818.129;-45.300;-47.423;-42.804;161.491;-39.563;-32.894;-27.828;-25.779
5445818.137;-34.198;-39.600;-30.510;169.165;-23.544;-24.177;-15.907;-17.323
5445818.145;-21.867;-28.834;-19.744;177.138;-12.405;-20.005;-14.715;-14.789
5445818.153;-28.089;-30.287;-32.187;175.424;-27.753;-26.897;-21.942;-19.409
5445818.161;-18.477;-19.707;-22.687;187.084;-20.042;-21.495;-10.729;-13.113
5445818.169;-18.142;-20.899;-19.483;183.657;-11.548;-20.899;-13.970;-11.437
5445818.177;-20.564;-25.444;-20.824;174.940;-7.898;-20.564;-13.299;-13.299
5445818.185;0.410;-1.490;-2.161;199.899;7.115;-3.874;3.949;0.373
5445818.193;-10.021;-8.419;-14.342;192.449;-10.021;-20.973;-15.348;-10.207
5445818.201;1.453;2.012;-4.210;200.160;-0.037;-8.382;-1.937;2.608
5445818.209;-6.184;-9.127;-9.947;186.712;-4.657;-12.480;-7.674;-4.694
5445818.217;0.559;-2.272;-2.980;192.933;2.086;-8.419;-2.123;-4.284
5445818.225;9.909;7.488;4.098;203.699;5.402;0.484;7.190;7.115
5445818.253;17.360;14.119;9.649;209.585;8.903;6.445;12.368;5.178
5445818.261;14.789;12.480;5.923;207.201;3.465;0.447;4.992;-1.639
5445818.269;11.250;8.605;3.949;201.166;7.264;5.513;9.537;9.499
5445818.277;32.075;29.728;20.973;219.569;19.148;20.824;26.114;28.908
5445818.285;21.234;16.168;13.188;204.742;19.372;4.582;9.276;6.557
5445818.293;5.923;3.465;-7.302;191.554;-0.149;-1.602;0.410;0.894
5445818.301;6.221;2.459;-5.513;189.021;-0.820;-6.966;-4.731;-4.023
5445818.309;-1.416;-4.657;-10.394;178.888;0.186;-20.489;-17.285;-14.119
5445818.317;1.416;1.416;-10.803;185.817;-6.035;-17.211;-11.139;-10.915
5445818.325;22.277;19.744;10.096;203.587;12.517;-2.421;0.820;3.390
5445818.333;18.924;16.056;6.743;199.564;9.723;-11.772;-11.548;-9.574
5445818.341;33.565;31.888;22.277;216.030;30.920;-3.316;-0.708;-1.118
5445818.349;0.112;-1.490;-9.537;177.585;1.118;-28.685;-25.183;-23.730
5445818.357;4.433;4.284;-5.290;181.720;1.751;-35.129;-27.306;-32.298
5445818.365;17.397;19.670;9.835;198.446;16.503;-24.065;-16.689;-14.938
5445818.373;22.873;29.579;14.827;206.456;19.111;-25.183;-16.056;-19.334
5445818.381;56.066;63.181;48.019;236.072;46.678;-18.738;-6.855;-14.380
5445818.389;82.105;89.779;78.231;255.890;69.402;-13.448;-13.597;-4.508
5445818.397;125.840;134.371;123.940;292.026;109.076;-3.055;-0.596;-0.186
5445818.405;148.937;161.901;142.604;312.440;117.347;-10.468;-5.625;-4.694
5445818.413;178.069;196.472;168.011;341.795;131.913;-15.050;-8.456;-10.952
5445818.421;191.815;211.895;181.086;355.206;141.226;-14.417;-7.674;-4.731
5445818.429;211.336;229.441;198.223;369.623;154.451;-5.551;-2.757;2.980
5445818.437;202.768;218.377;187.345;356.063;145.249;-3.353;0.484;-0.037
5445818.493;185.445;202.917;168.532;343.621;133.179;0.447;3.688;7.190
5445818.501;180.118;197.552;159.852;338.480;129.491;16.391;16.913;18.589
5445818.509;172.965;190.437;149.831;336.096;125.207;24.922;27.791;17.993
5445818.517;153.445;170.469;130.497;322.759;113.547;24.997;27.977;20.005
5445818.525;118.464;132.993;99.428;284.351;90.301;6.780;6.370;5.290
5445818.533;106.022;121.407;85.384;275.783;80.802;9.090;8.829;11.586
5445818.541;98.348;112.094;76.853;269.040;70.371;19.185;21.234;22.501
5445818.549;83.037;98.012;64.149;258.833;63.553;22.613;24.438;22.873
5445818.557;44.592;58.562;28.796;222.512;34.422;-3.092;-2.533;-7.264
5445818.565;43.809;55.060;30.100;218.302;38.147;9.313;7.451;11.362
5445818.573;26.524;36.173;15.050;201.426;23.581;5.253;1.192;15.013
5445818.581;8.531;16.503;-0.037;181.161;12.107;1.267;-5.476;3.427
5445818.589;-6.258;2.570;-15.795;166.371;-4.731;1.304;-8.307;-4.694
5445818.597;-22.054;-11.921;-33.565;150.800;-23.171;-5.364;-14.380;-10.617
5445818.605;-14.976;-8.605;-21.197;154.972;-7.674;-4.023;-13.858;-2.533
5445818.613;2.012;4.023;-2.719;165.030;11.958;18.962;5.588;20.191
5445818.621;-12.293;-9.723;-18.515;153.482;-7.041;15.721;4.284;6.892
5445818.629;-4.917;0.969;-12.107;167.005;-1.229;29.244;19.632;16.950
5445818.637;-16.652;-14.715;-19.521;145.994;-4.917;23.469;12.070;14.082
5445818.645;-27.642;-23.507;-31.330;140.369;-17.025;16.801;9.760;11.474
5445818.653;-32.037;-27.195;-37.439;137.985;-28.089;9.611;-0.261;7.041
5445818.661;-13.448;-13.448;-14.938;144.094;-0.447;23.171;10.543;30.659
5445818.669;-37.849;-37.476;-38.035;120.215;-24.326;-7.972;-16.317;-8.866
5445818.677;-41.127;-40.643;-39.898;119.284;-27.418;-10.505;-15.460;-12.368
5445818.733;-40.606;-40.010;-42.133;117.049;-28.647;-9.201;-17.248;-9.462
5445818.741;-32.149;-31.330;-32.745;126.362;-20.228;0.782;-9.872;1.267
5445818.749;-29.989;-29.281;-27.083;127.405;-12.703;5.662;-5.364;9.835
5445818.757;-32.671;-32.485;-28.051;121.035;-13.299;5.774;-5.141;7.376
5445818.765;-38.594;-38.035;-34.906;116.937;-20.340;3.092;-6.892;0.633
5445818.773;-65.342;-65.789;-60.275;88.140;-49.807;-18.552;-26.599;-18.254
5445818.781;-35.055;-35.688;-27.344;115.931;-15.311;9.127;2.421;7.637
5445818.789;-40.978;-38.221;-37.774;114.664;-26.003;0.708;-6.258;-0.931
5445818.797;-49.137;-46.305;-45.896;104.010;-34.980;-7.600;-14.566;-2.161
5445818.805;-45.076;-45.486;-39.786;100.285;-26.375;-10.543;-18.850;-3.688
5445818.813;-27.604;-26.636;-23.060;122.152;-13.076;6.743;-1.155;15.348
5445818.821;-39.190;-40.047;-34.645;106.320;-27.344;1.043;-5.737;6.296
5445818.829;-57.742;-57.518;-54.687;90.525;-42.282;-16.764;-22.277;-18.254
5445818.837;-41.239;-41.984;-37.104;105.053;-21.942;-1.527;-8.903;-4.172
5445818.845;-30.175;-30.398;-27.418;117.086;-13.411;16.429;10.245;13.150
5445818.853;-33.416;-34.943;-29.504;112.541;-19.073;13.374;5.998;13.635
5445818.861;-48.280;-53.197;-43.176;89.668;-33.081;-11.623;-17.211;-10.952
5445818.869;-38.818;-42.692;-35.092;96.858;-24.699;-5.998;-11.548;0.559
5445818.877;-23.544;-26.450;-21.569;109.039;-12.517;2.123;-5.215;10.841
5445818.885;-18.775;-19.111;-20.042;114.739;-10.207;1.527;-4.731;7.898
5445818.893;-20.862;-22.501;-22.389;108.331;-14.566;-1.304;-5.551;2.868
5445818.901;-16.168;-18.291;-17.844;109.039;-12.629;-6.370;-13.597;-2.049
5445818.909;-3.241;-3.166;-5.327;123.344;-3.427;0.335;-7.190;5.215
5445818.917;-1.527;-4.098;-2.198;118.837;2.943;0.782;-1.565;3.092
5445818.943;-24.885;-28.908;-23.693;91.381;-16.652;-19.558;-23.060;-22.054
5445818.951;-11.846;-15.795;-12.442;103.116;-5.960;-3.912;-7.190;-5.141
5445818.959;3.651;0.298;1.006;118.725;3.949;6.706;1.006;8.494
5445818.967;-5.476;-8.866;-7.227;110.976;-4.061;-2.570;-7.823;6.072
5445818.975;0.596;-1.118;-0.969;115.186;2.682;6.445;4.955;10.245
5445818.983;-8.903;-13.635;-8.084;96.597;-3.204;-3.017;-7.041;-5.104
5445818.991;-6.706;-13.076;-5.104;97.454;-0.894;-4.135;-8.456;-9.574
5445818.999;-8.568;-15.609;-7.935;94.101;-4.917;-2.086;-6.445;-3.800
5445819.007;-20.415;-25.667;-21.979;84.676;-17.248;-12.033;-16.168;-7.786
5445819.015;-26.636;-33.453;-27.977;76.629;-23.618;-17.248;-20.154;-9.537
5445819.023;-8.121;-17.211;-8.941;92.946;-4.955;-1.974;-2.384;3.539
5445819.031;-23.060;-30.659;-25.481;78.641;-22.203;-12.815;-9.611;-7.823
5445819.039;-42.841;-48.876;-43.064;60.052;-39.749;-31.516;-36.173;-25.034
5445819.047;-34.757;-40.792;-35.539;67.391;-32.261;-20.973;-29.616;-11.623
5445819.055;-32.559;-38.520;-33.751;68.843;-31.553;-15.907;-24.177;-7.711
5445819.063;-35.092;-38.706;-37.700;68.471;-39.488;-14.901;-20.489;-6.109
5445819.071;-25.928;-30.547;-27.381;76.592;-20.452;-8.345;-12.964;-7.823
5445819.079;-36.284;-41.388;-35.651;63.069;-24.885;-17.360;-21.681;-18.477
5445819.087;-32.447;-37.700;-33.155;65.416;-22.575;-10.170;-17.099;-4.247
5445819.095;-33.230;-37.812;-34.943;65.230;-25.928;-6.929;-12.591;4.284
5445819.103;-34.757;-41.239;-33.379;61.654;-23.730;-5.364;-7.451;7.078
5445819.111;-50.887;-56.699;-53.160;46.939;-45.747;-20.601;-19.632;-16.019
5445819.119;-65.342;-71.637;-67.726;30.138;-60.685;-26.301;-30.138;-22.873
5445819.127;-60.424;-66.273;-64.708;35.502;-57.779;-17.919;-20.899;-11.660
5445819.152;-48.131;-53.905;-51.819;45.188;-45.374;-11.809;-10.729;-6.780
5445819.160;-59.083;-67.055;-60.163;28.051;-49.472;-34.124;-33.751;-29.020
5445819.168;-52.340;-62.101;-52.005;31.888;-39.265;-29.914;-30.063;-21.867
5445819.176;-58.450;-66.385;-59.307;27.269;-48.243;-29.616;-30.920;-21.644
5445819.184;-48.727;-55.395;-51.558;37.439;-38.669;-12.480;-12.740;2.161
5445819.192;-56.885;-61.505;-60.946;31.181;-49.360;-25.630;-25.965;-17.881
5445819.200;-48.801;-54.799;-50.776;33.304;-42.506;-24.661;-27.716;-19.185
5445819.208;-21.011;-28.312;-19.260;55.879;-12.927;-8.196;-9.835;-2.757
5445819.216;-25.108;-30.659;-24.214;51.819;-21.197;-18.664;-19.483;-11.064
5445819.224;-35.428;-37.514;-35.986;41.761;-33.416;-35.875;-37.402;-24.959
5445819.232;-27.418;-24.661;-27.977;54.576;-27.567;-39.898;-40.606;-31.702
5445819.240;11.250;18.775;12.442;94.697;8.382;-14.827;-14.566;-12.107
5445819.248;7.898;18.366;8.419;89.966;-1.676;-36.433;-34.422;-28.946
5445819.256;44.294;58.748;41.425;124.350;22.426;-26.412;-24.922;-15.162
5445819.264;61.020;76.070;61.318;130.683;40.382;-31.441;-35.465;-24.624
5445819.272;87.656;106.394;85.942;157.245;55.507;-26.152;-25.444;-18.254
5445819.280;121.631;143.200;116.974;191.405;80.541;-9.872;-6.557;3.949
5445819.288;120.401;137.389;118.352;178.032;80.988;-25.705;-23.358;-10.207
5445819.296;128.970;143.796;124.834;180.081;84.043;-30.696;-26.338;-18.775
5445819.304;111.349;127.889;105.016;166.520;64.671;-44.629;-40.047;-39.712
5445819.312;104.345;121.444;94.324;162.721;56.475;-28.200;-24.997;-19.073
5445819.320;101.477;115.745;88.923;156.648;58.897;-11.623;-8.903;-6.407
5445819.328;89.407;104.196;75.735;147.372;50.366;-2.608;4.582;6.407
5445819.336;85.309;99.540;71.302;146.143;48.503;4.694;8.866;18.589
5445819.331;42.841;54.948;30.920;101.440;15.795;-21.942;-29.318;-9.052
5445819.339;5.364;17.993;-6.109;67.092;-16.727;-39.935;-44.107;-31.665
5445819.347;28.051;40.866;15.385;91.083;12.405;-12.293;-18.179;2.980
5445819.355;19.930;35.651;4.545;89.929;3.651;-8.084;-11.735;7.488
5445819.363;3.204;17.062;-12.815;71.935;-13.299;-21.197;-22.836;-7.786
5445819.371;-10.766;-3.651;-20.601;47.311;-16.727;-33.155;-35.353;-14.231
5445819.379;-33.975;-25.705;-39.637;27.977;-29.989;-35.092;-41.276;-15.907
5445819.387;-43.660;-31.851;-55.395;24.624;-51.893;-30.212;-37.439;-23.469
5445819.395;-36.731;-26.189;-48.876;29.318;-48.578;-24.177;-30.547;-18.924
5445819.403;-18.477;-10.356;-26.710;45.896;-19.670;-3.241;-11.250;9.686
5445819.411;-30.436;-24.140;-38.445;31.888;-31.628;-16.503;-26.561;-11.623
5445819.419;-49.733;-44.517;-55.395;11.884;-49.621;-29.132;-39.227;-24.140
5445819.427;-55.581;-51.744;-58.562;3.651;-48.392;-29.616;-38.445;-25.518
5445819.435;-45.188;-42.878;-50.068;12.331;-44.331;-18.291;-25.518;-15.274
5445819.443;-47.646;-46.603;-55.544;8.754;-52.080;-16.019;-20.936;-13.411
5445819.451;-39.190;-40.233;-44.070;13.337;-38.184;-9.239;-10.803;-3.688
5445819.459;-28.163;-26.226;-32.112;30.212;-23.991;0.931;0.186;15.944
5445819.467;-34.831;-33.900;-38.631;22.836;-33.826;-10.394;-10.952;6.258
5445819.475;-68.322;-68.955;-75.884;-14.529;-78.864;-53.346;-52.042;-42.096
5445819.483;-50.105;-49.137;-57.705;5.513;-57.034;-36.769;-35.800;-23.842
5445819.491;-35.353;-34.533;-42.878;16.019;-39.488;-22.687;-21.309;-12.815
5445819.499;-34.012;-34.831;-38.557;12.331;-33.602;-17.807;-19.483;-13.225
5445819.507;-21.532;-21.830;-25.034;23.805;-19.930;3.688;1.043;9.201
5445819.515;-21.569;-20.936;-29.206;21.532;-28.424;-0.075;-2.459;6.370
5445819.467;-34.571;-34.794;-40.978;8.307;-38.296;-8.568;-9.090;-7.786
5445819.475;-35.167;-35.316;-40.531;7.339;-37.812;-5.588;-6.482;1.341
5445819.483;-35.912;-37.402;-40.457;3.055;-38.408;-6.445;-5.476;3.576
5445819.491;-27.940;-30.659;-32.559;6.557;-33.192;-4.247;-3.874;8.605
5445819.499;-32.634;-32.708;-36.918;7.264;-36.359;-17.248;-13.225;-8.754
5445819.507;-31.590;-30.994;-38.147;5.253;-39.116;-17.583;-13.821;-7.972
5445819.515;-45.598;-46.864;-51.744;-10.505;-52.452;-25.071;-23.991;-13.895
5445819.523;-32.000;-32.745;-34.533;6.184;-32.410;-11.325;-10.282;-2.272
5445819.531;-20.713;-19.781;-23.693;19.372;-22.575;0.112;1.825;7.041
5445819.539;-27.195;-28.722;-31.032;4.433;-35.167;-8.754;-7.823;4.619
5445819.547;-31.069;-32.596;-33.155;-0.224;-34.720;-12.107;-9.984;-3.725
5445819.555;-19.856;-19.446;-25.034;13.672;-27.940;3.017;6.147;11.250
5445819.563;-33.118;-33.304;-36.918;0.261;-38.594;-15.795;-12.107;-13.821
5445819.571;-20.675;-23.469;-25.816;7.898;-28.573;-7.190;-6.892;-2.347
5445819.579;-17.807;-21.160;-22.911;6.855;-24.512;-3.427;-3.576;3.688
5445819.587;-28.647;-30.510;-32.783;-1.416;-36.471;-13.411;-14.007;-3.055
5445819.595;-15.795;-19.968;-18.179;7.674;-21.271;-10.133;-12.517;3.502
5445819.603;-17.658;-22.948;-19.930;2.980;-22.389;-13.411;-9.947;-3.651
5445819.611;-32.783;-38.594;-34.235;-15.050;-38.631;-21.607;-23.618;-12.815
5445819.619;-21.011;-27.046;-22.948;-4.247;-25.593;-13.523;-16.280;-11.101
5445819.627;-25.146;-31.143;-27.344;-7.935;-29.169;-11.623;-12.442;-8.680
5445819.635;-18.775;-24.252;-21.979;-1.676;-23.320;-7.749;-6.929;-3.688
5445819.643;5.886;1.192;0.261;22.873;-0.559;2.198;2.719;11.325
5445819.651;-15.013;-19.036;-21.532;0.522;-20.526;-23.209;-24.177;-15.758
5445819.694;-23.507;-26.859;-30.249;-6.072;-27.344;-27.679;-22.240;-14.827
5445819.702;-22.799;-25.332;-29.132;-5.662;-27.604;-21.271;-17.993;-12.405
5445819.710;-35.428;-38.408;-44.219;-22.911;-46.194;-32.745;-30.808;-27.716
5445819.718;-12.629;-16.317;-18.701;-3.316;-19.334;-13.672;-12.629;-7.711
5445819.726;-21.830;-25.146;-27.642;-14.417;-26.375;-24.214;-21.383;-17.695
5445819.734;-19.297;-21.532;-27.046;-8.717;-24.624;-27.232;-21.085;-22.277
5445819.742;-14.491;-16.056;-23.209;-2.831;-21.420;-21.830;-12.368;-14.864
5445819.750;-19.521;-23.320;-27.902;-13.560;-29.206;-26.748;-20.154;-22.277
5445819.758;-9.350;-13.188;-19.893;-7.078;-24.550;-24.922;-19.632;-23.991
5445819.766;8.941;8.084;-4.694;16.317;-11.809;-14.119;-7.115;-8.419
5445819.774;19.893;18.626;8.866;21.830;1.974;-0.857;2.980;12.293
5445819.782;36.284;32.932;26.450;34.086;19.334;14.603;16.429;18.254
5445819.790;25.593;22.948;15.013;26.487;7.711;2.868;4.694;3.241
5445819.798;17.546;16.838;3.614;20.005;-4.992;-3.912;-1.267;-2.459
5445819.806;24.065;22.016;11.586;22.948;-0.969;5.588;8.307;11.660
5445819.814;20.303;16.019;11.958;14.380;2.757;-0.671;3.278;6.892
5445819.822;34.384;32.224;24.252;31.330;14.007;11.809;13.188;21.793
5445819.830;21.309;18.142;8.568;15.199;-2.943;-2.980;-0.820;-0.820
5445819.838;12.629;8.717;3.017;5.402;-8.680;-8.345;-8.345;-4.917
5445819.846;30.063;25.854;21.607;19.930;7.004;14.938;13.039;19.185
5445819.854;50.478;45.411;37.923;35.614;22.873;29.616;28.647;29.244
5445819.862;49.099;43.996;35.651;35.167;22.613;21.495;21.942;18.664
5445819.870;49.062;42.692;37.886;35.204;26.673;20.377;23.432;18.179
5445819.878;49.137;41.462;38.520;32.261;26.412;18.962;22.426;19.483
5445819.828;51.968;43.362;44.070;33.006;32.820;14.938;14.864;19.893
5445819.836;60.573;54.762;48.466;50.068;30.063;20.862;23.581;28.126
5445819.844;44.107;35.204;31.739;29.504;19.409;0.820;5.811;9.537
5445819.852;42.431;32.596;29.728;25.108;17.844;-0.112;7.153;4.210
5445819.860;51.260;43.623;36.880;39.190;24.959;10.394;14.752;14.119
5445819.868;42.841;36.843;28.871;34.980;22.277;5.513;9.537;17.025
5445819.876;44.033;37.588;30.361;34.310;23.283;9.052;13.560;14.603
5445819.884;44.592;37.104;29.653;30.398;20.936;15.646;19.893;19.595
5445819.892;39.153;32.783;23.469;29.504;18.999;14.193;15.460;17.285
5445819.900;19.297;13.821;2.831;11.325;-2.980;-8.941;-11.660;-4.247
5445819.908;19.707;14.901;2.198;11.548;-3.651;-6.855;-7.525;0.671
5445819.916;24.624;21.793;7.600;20.675;4.433;1.378;4.917;6.631
5445819.924;36.582;32.298;21.495;32.149;19.483;17.695;25.406;20.564
5445819.932;39.637;31.777;26.897;26.971;28.908;21.905;24.065;24.885
5445819.940;5.104;-1.453;-8.158;-6.296;-11.772;-4.731;-4.172;-6.072
5445819.948;14.640;7.078;1.751;2.384;0.671;7.637;6.221;14.938
5445819.956;35.428;27.530;24.512;23.060;29.132;22.054;20.526;31.702
5445819.964;29.430;25.108;15.683;21.644;14.678;12.331;9.537;12.033
5445819.972;26.114;20.638;15.460;13.150;14.603;9.574;9.388;3.241
5445819.980;23.842;20.489;14.044;16.838;15.236;13.299;11.139;8.978
5445819.988;20.452;17.285;12.890;14.082;15.572;6.706;0.708;6.109
5445819.996;19.260;16.280;10.841;11.884;9.909;3.055;0.559;6.445
5445820.004;18.626;15.534;10.543;9.537;7.041;3.316;0.410;12.368
5445820.012;-19.185;-21.793;-25.071;-30.398;-29.579;-29.057;-31.069;-27.157
5445819.993;3.017;4.992;-2.347;0.037;-6.407;-6.631;-11.325;-5.141
5445820.001;24.661;26.487;23.097;22.277;19.446;8.419;6.109;7.637
5445820.009;45.896;49.062;45.672;38.669;36.322;11.176;7.227;14.715
5445820.017;82.515;90.450;79.684;75.176;57.034;13.374;6.221;19.148
5445820.025;102.930;115.819;98.608;94.473;63.144;2.943;0.373;1.490
5445820.033;143.908;161.342;141.226;134.408;100.210;19.707;18.962;25.257
5445820.041;168.495;189.021;166.185;155.903;119.992;18.217;18.552;17.621
5445820.049;181.049;201.352;180.118;156.537;126.809;16.131;13.225;20.303
5445820.057;187.755;206.009;184.998;157.431;128.411;17.323;14.119;17.546
5445820.065;192.598;208.355;188.164;159.033;135.526;26.301;19.930;32.373
5445820.073;168.011;184.029;163.242;139.028;110.716;14.417;4.359;16.689
5445820.081;121.891;135.675;116.825;93.877;67.838;-11.586;-20.266;-10.543
5445820.089;118.874;130.162;112.467;90.972;71.824;4.172;-0.708;6.221
5445820.097;110.082;119.507;102.744;80.913;68.992;9.276;5.700;13.933
5445820.105;74.580;82.664;66.236;49.584;36.396;-9.984;-11.288;-7.078
5445820.113;49.099;56.177;38.110;25.779;11.548;-21.085;-20.713;-21.495
5445820.121;46.529;54.836;36.173;27.493;15.534;-4.917;-2.794;-0.447
5445820.129;41.723;49.770;29.467;25.518;11.213;4.396;6.258;11.697
5445820.137;31.553;37.588;18.813;12.815;5.178;4.470;4.172;13.001
5445820.145;13.076;19.260;-1.416;-5.290;-8.643;-5.178;-4.023;1.751
5445820.153;-19.483;-12.815;-33.788;-37.886;-39.786;-30.287;-31.330;-27.381
5445820.161;-21.495;-15.348;-34.198;-41.276;-41.276;-15.981;-19.856;-9.462
5445820.169;-31.181;-23.097;-42.915;-44.368;-51.670;-13.560;-14.864;-12.629
5445820.177;-35.278;-27.642;-46.119;-49.099;-46.007;-10.096;-12.554;-15.423
5445820.157;-30.883;-24.177;-40.680;-46.082;-36.135;-5.625;-11.064;-6.743
5445820.165;-29.691;-22.650;-39.488;-43.437;-37.700;0.894;-8.009;-5.625
5445820.173;-26.934;-22.836;-33.863;-41.202;-28.610;18.030;7.004;11.064
5445820.181;-59.493;-57.183;-67.055;-74.990;-62.361;-10.356;-16.578;-22.650
5445820.189;-71.339;-68.285;-80.541;-86.427;-74.543;-21.160;-24.475;-24.214
5445820.197;-51.670;-50.589;-56.364;-71.190;-45.821;-5.364;-4.619;-4.657
5445820.205;-54.836;-56.438;-58.599;-77.933;-47.274;-7.823;-5.811;-4.806
5445820.213;-71.265;-72.680;-74.506;-92.275;-65.677;-26.859;-25.034;-22.389
5445820.221;-70.333;-73.910;-71.265;-95.144;-59.716;-28.610;-24.624;-24.848
5445820.229;-62.883;-67.614;-63.293;-91.493;-48.429;-26.599;-26.636;-18.813
5445820.237;-55.321;-60.424;-57.444;-86.203;-43.511;-13.560;-11.213;-7.488
5445820.245;-58.338;-64.224;-61.914;-90.674;-53.421;-14.938;-14.268;-10.431
5445820.253;-58.785;-64.373;-60.648;-87.358;-51.260;-20.973;-21.271;-16.801
5445820.261;-63.404;-68.173;-63.404;-89.966;-53.272;-23.283;-20.377;-24.177
5445820.269;-76.890;-84.937;-74.022;-110.492;-64.224;-31.926;-35.800;-25.406
5445820.277;-72.122;-80.280;-71.451;-107.139;-64.000;-33.267;-34.235;-34.273
5445820.285;-66.906;-71.451;-71.675;-93.430;-66.683;-34.347;-28.498;-36.471
5445820.293;-70.632;-74.208;-75.884;-96.411;-70.743;-37.141;-31.292;-29.467
5445820.301;-52.787;-58.413;-53.830;-81.696;-47.870;-18.291;-15.981;-9.239
5445820.309;-61.281;-68.918;-60.573;-91.009;-54.240;-22.464;-18.030;-22.426
5445820.317;-57.183;-63.181;-60.573;-86.129;-56.773;-22.240;-18.030;-20.042
5445820.325;-59.195;-63.032;-64.559;-86.091;-57.667;-22.687;-24.512;-18.924
5445820.333;-73.314;-76.741;-77.561;-99.391;-73.314;-33.751;-32.261;-30.734
5445820.341;-55.470;-61.952;-56.475;-84.043;-54.464;-27.977;-26.226;-24.289
5445820.294;-53.644;-59.754;-56.028;-83.782;-56.177;-27.381;-24.699;-28.089
5445820.302;-50.701;-55.656;-52.042;-78.455;-46.082;-20.564;-15.646;-19.334
5445820.310;-48.801;-53.272;-48.168;-75.400;-40.755;-18.105;-12.070;-14.231
5445820.318;-58.338;-64.746;-57.779;-87.805;-56.289;-35.428;-32.261;-30.324
5445820.326;-52.489;-59.865;-51.074;-82.552;-46.790;-41.164;-37.812;-38.929
5445820.334;-45.337;-52.489;-43.325;-74.990;-37.104;-37.849;-34.273;-32.783
5445820.342;-55.619;-62.622;-53.383;-83.745;-53.309;-47.795;-43.735;-44.070
5445820.350;-58.971;-67.614;-53.719;-89.854;-53.048;-47.125;-43.027;-38.818
5445820.358;-50.329;-57.071;-45.300;-79.051;-41.313;-35.167;-28.759;-28.014
5445820.366;-47.423;-51.707;-45.635;-72.867;-46.194;-31.777;-28.983;-25.071
5445820.374;-61.132;-64.485;-59.977;-85.533;-63.553;-43.958;-41.425;-43.549
5445820.382;-66.422;-72.494;-62.399;-95.665;-60.126;-38.557;-39.265;-29.765
5445820.390;-55.097;-59.754;-54.426;-82.292;-53.346;-28.498;-27.940;-21.271
5445820.398;-55.991;-59.530;-55.730;-82.292;-60.312;-36.210;-33.937;-37.774
5445820.406;-46.156;-51.036;-46.305;-75.772;-49.695;-33.341;-32.112;-28.349
5445820.414;-39.600;-47.311;-39.339;-74.618;-41.388;-28.424;-28.424;-22.464
5445820.422;-24.810;-33.006;-23.581;-59.195;-21.085;-14.715;-13.746;-10.617
5445820.430;-50.813;-55.470;-51.856;-77.076;-49.956;-36.769;-30.696;-37.551
5445820.438;-45.113;-47.944;-49.472;-69.439;-51.148;-27.530;-23.954;-25.369
5445820.446;-48.168;-52.154;-52.191;-78.231;-54.054;-24.177;-22.724;-21.607
5445820.454;-62.175;-66.385;-63.330;-92.164;-61.728;-36.843;-35.353;-29.877
5445820.462;-48.354;-53.421;-47.833;-79.870;-44.480;-21.644;-19.707;-16.242
5445820.470;-58.189;-62.361;-58.934;-87.619;-52.750;-33.900;-29.355;-33.192
5445820.478;-60.536;-64.075;-62.622;-90.785;-59.418;-35.688;-28.759;-29.206
5445820.517;-53.123;-55.321;-58.264;-81.919;-56.736;-32.671;-28.908;-23.693
5445820.525;-55.768;-60.014;-61.691;-90.525;-60.126;-40.084;-41.239;-33.006
5445820.533;-53.719;-59.381;-55.395;-90.562;-49.956;-41.798;-41.425;-37.141
5445820.541;-47.274;-48.690;-51.558;-77.263;-50.813;-30.920;-26.412;-39.227
5445820.549;-42.468;-44.256;-48.652;-75.363;-51.074;-18.850;-15.907;-28.387
5445820.557;-37.588;-40.121;-40.829;-72.420;-43.400;-13.188;-13.299;-17.136
5445820.565;-34.571;-36.806;-36.955;-67.838;-41.984;-17.770;-13.225;-23.693
5445820.573;-28.312;-32.447;-30.175;-67.428;-37.402;-14.119;-11.660;-16.764
5445820.581;-29.579;-31.888;-30.138;-66.236;-38.520;-16.801;-13.039;-23.544
5445820.589;-24.252;-25.444;-23.954;-58.562;-31.479;-10.915;-9.164;-15.236
5445820.597;-44.070;-47.050;-40.568;-82.552;-48.131;-21.830;-26.785;-16.429
5445820.605;-45.486;-47.125;-39.563;-81.286;-45.970;-20.303;-22.091;-23.134
5445820.613;-51.633;-52.229;-45.002;-85.235;-51.409;-25.257;-23.730;-30.808
5445820.621;-58.711;-58.822;-52.489;-92.499;-59.977;-29.095;-30.175;-28.983
5445820.629;-38.072;-37.476;-31.292;-71.414;-40.308;-11.511;-14.491;-11.772
5445820.637;-41.090;-39.786;-36.210;-74.394;-48.280;-16.727;-18.254;-19.148
5445820.645;-50.552;-48.093;-44.405;-83.856;-55.730;-22.724;-23.134;-26.748
5445820.653;-44.666;-45.300;-34.012;-83.372;-39.637;-12.703;-14.491;-9.090
5445820.661;-36.731;-39.488;-25.444;-77.747;-32.596;-10.021;-10.505;-6.706
5445820.669;-41.164;-45.188;-30.622;-85.756;-39.451;-22.389;-25.406;-21.607
5445820.677;-48.727;-53.421;-39.488;-95.703;-50.552;-30.026;-36.061;-29.020
5445820.685;-62.287;-65.938;-54.054;-106.432;-66.981;-34.794;-37.253;-31.702
5445820.693;-63.591;-66.981;-52.899;-108.890;-65.491;-38.631;-36.433;-37.067
5445820.701;-34.645;-36.359;-23.842;-76.033;-36.210;-15.125;-16.280;-16.838
5445820.682;-42.953;-42.580;-33.416;-81.547;-45.821;-27.493;-28.498;-34.235
5445820.690;-35.912;-35.502;-26.375;-77.002;-38.706;-19.781;-15.572;-24.922
5445820.698;-51.819;-52.676;-42.766;-98.348;-56.885;-29.728;-27.902;-36.173
5445820.706;-39.451;-42.245;-30.324;-88.997;-42.766;-17.732;-18.440;-18.701
5445820.714;-38.855;-42.021;-28.871;-87.246;-38.333;-17.658;-21.569;-19.707
5445820.722;-47.944;-50.142;-38.482;-92.946;-52.005;-22.501;-26.450;-26.338
5445820.730;-62.548;-66.757;-53.979;-114.590;-69.849;-29.802;-32.671;-31.181
5445820.738;-53.942;-55.991;-45.523;-105.649;-55.693;-30.883;-35.092;-34.533
5445820.746;-30.436;-31.553;-20.638;-79.945;-32.187;-18.589;-22.762;-21.905
5445820.754;-28.871;-29.393;-18.962;-80.280;-28.387;-18.366;-24.289;-18.440
5445820.762;-42.804;-45.225;-32.373;-99.055;-42.282;-28.275;-30.734;-33.043
5445820.770;-41.164;-41.686;-30.994;-93.803;-40.941;-28.163;-26.263;-34.571
5445820.778;-22.352;-22.128;-14.193;-73.835;-30.473;-10.692;-9.909;-14.119
5445820.786;-19.185;-19.260;-11.586;-70.594;-24.922;-6.780;-9.574;-10.468
5445820.794;-46.566;-46.566;-41.090;-97.826;-54.240;-30.957;-33.192;-40.941
5445820.802;-52.154;-51.558;-42.543;-102.110;-54.352;-26.450;-28.796;-34.161
5445820.810;-43.288;-40.755;-32.596;-89.891;-45.970;-16.429;-20.973;-17.062
5445820.818;-48.093;-43.884;-36.359;-93.356;-48.131;-19.856;-21.718;-20.117
5445820.826;-52.452;-49.323;-39.637;-101.291;-50.031;-20.452;-21.532;-24.699
5445820.834;-46.045;-42.208;-32.410;-94.324;-44.107;-19.707;-17.099;-27.083
5445820.842;-8.345;-4.433;4.247;-57.518;-7.004;11.660;13.597;15.683
5445820.850;-42.506;-39.525;-32.298;-92.983;-49.323;-29.281;-27.306;-33.863
5445820.858;-45.076;-42.990;-34.422;-96.336;-48.392;-35.465;-33.751;-46.343
5445820.866;-28.796;-27.642;-17.434;-82.701;-29.057;-16.801;-13.523;-27.828
5445820.892;-32.857;-31.181;-19.968;-87.842;-34.980;-17.248;-14.454;-27.530
5445820.900;-36.024;-35.912;-21.085;-92.350;-34.198;-13.560;-14.044;-18.850
5445820.908;-44.666;-44.964;-29.914;-100.844;-41.611;-16.019;-11.884;-18.738
5445820.916;-39.786;-38.706;-25.332;-92.238;-42.468;-17.807;-14.342;-20.862
5445820.924;-51.036;-48.354;-40.419;-99.838;-60.946;-32.932;-29.765;-41.947
5445820.932;-41.500;-42.468;-27.269;-99.167;-42.282;-29.095;-25.295;-29.877
5445820.940;-38.929;-39.972;-23.022;-99.875;-39.786;-19.297;-16.689;-18.962
5445820.948;-40.047;-36.061;-26.226;-89.221;-40.308;-12.517;-9.164;-16.838
5445820.956;-43.288;-39.265;-27.344;-89.146;-40.866;-19.073;-13.560;-25.518
5445820.964;-32.559;-30.287;-14.380;-81.882;-28.349;-9.835;-5.625;-13.784
5445820.972;-41.761;-39.637;-24.848;-92.573;-41.090;-21.197;-20.526;-28.498
5445820.980;-42.133;-37.961;-28.200;-88.066;-47.721;-19.111;-18.775;-25.742
5445820.988;-57.854;-57.742;-41.984;-111.759;-59.940;-36.247;-35.912;-41.537
5445820.996;-41.947;-41.872;-24.028;-94.958;-38.147;-19.707;-20.564;-24.363
5445821.004;-35.129;-34.012;-15.944;-87.358;-30.063;-10.133;-10.170;-14.044
5445821.012;-24.103;-19.334;-8.084;-69.104;-21.979;-11.921;-5.439;-17.807
5445821.020;-23.134;-19.372;-9.723;-68.843;-28.722;-6.407;1.229;-9.686
5445821.028;-53.272;-52.899;-39.190;-104.234;-57.779;-32.708;-26.636;-36.098
5445821.036;-60.610;-58.860;-46.603;-108.369;-60.350;-36.620;-32.149;-39.451
5445821.044;-44.107;-41.984;-30.771;-90.525;-46.827;-14.715;-11.362;-16.205
5445821.052;-37.476;-36.359;-24.214;-85.868;-41.090;-8.754;-6.929;-8.792
5445821.060;-61.542;-61.505;-47.721;-110.902;-59.158;-39.041;-35.800;-44.033
5445821.068;-70.781;-68.285;-59.716;-114.851;-73.873;-49.435;-41.313;-56.028
5445821.076;-48.131;-44.480;-39.339;-91.940;-55.581;-25.891;-15.423;-30.324
5445821.057;-37.402;-32.894;-29.579;-80.578;-49.286;-13.672;-5.923;-24.587
5445821.065;-37.402;-31.069;-28.312;-79.386;-46.380;-12.442;-4.023;-26.003
5445821.073;-38.184;-32.336;-28.312;-80.056;-43.400;-12.331;-5.178;-21.942
5445821.081;-39.786;-35.465;-27.679;-84.043;-40.457;-6.258;0.261;-13.933
5445821.089;-43.139;-36.024;-32.224;-78.641;-46.529;-10.654;-3.800;-20.489
5445821.097;-48.131;-43.437;-35.018;-88.587;-46.417;-20.005;-15.646;-22.575
5445821.105;-58.822;-56.289;-45.262;-104.122;-56.699;-33.714;-28.834;-32.485
5445821.113;-56.922;-52.676;-43.288;-97.491;-55.395;-29.653;-21.867;-27.753
5445821.121;-58.934;-55.283;-44.256;-102.520;-57.407;-32.522;-30.026;-30.547
5445821.129;-35.949;-34.273;-19.446;-82.254;-32.485;-13.635;-9.462;-11.288
5445821.137;-35.316;-32.410;-19.632;-81.696;-33.267;-17.099;-10.170;-21.122
5445821.145;-20.899;-15.870;-7.749;-66.459;-23.320;-8.345;-2.868;-11.474
5445821.153;1.416;10.580;13.337;-42.059;-5.774;2.235;4.098;-8.233
5445821.161;12.629;25.444;25.742;-29.393;2.980;-7.004;-5.923;-19.595
5445821.169;44.443;59.307;58.152;0.633;30.436;-9.499;-10.692;-20.117
5445821.177;66.422;83.670;79.870;10.766;45.523;-13.970;-16.801;-20.452
5445821.185;97.193;116.304;110.455;34.571;72.271;-10.133;-13.001;-12.890
5445821.193;119.507;144.169;131.391;59.232;84.415;-8.717;-12.852;-4.843
5445821.201;162.199;189.058;172.034;101.551;116.602;11.697;9.164;13.486
5445821.209;176.840;201.575;189.319;109.859;130.013;11.362;9.835;7.749
5445821.217;163.242;184.774;175.722;92.052;115.819;-3.949;-5.402;-9.090
5445821.225;152.402;172.257;163.801;80.876;104.420;-5.662;-4.247;-7.972
5445821.233;145.473;163.876;152.960;74.767;95.777;-2.682;-1.676;-5.066
5445821.241;126.436;142.753;134.595;55.842;83.484;-6.035;-4.135;-10.803
5445821.165;121.109;136.122;128.560;48.801;81.509;4.619;-0.782;2.980
5445821.173;101.775;115.782;109.859;32.149;68.918;3.539;0.075;3.055
5445821.181;75.288;88.103;83.335;8.121;49.882;-13.299;-13.821;-13.262
5445821.189;63.777;75.772;68.136;-4.247;35.316;-14.752;-13.299;-10.729
5445821.197;59.307;72.680;61.020;-3.614;30.361;-8.158;-5.253;-5.364
5445821.205;66.906;78.492;68.732;2.682;40.084;9.276;11.623;7.041
5445821.213;45.151;53.011;48.578;-22.464;24.252;-3.800;-4.508;-2.943
5445821.221;26.226;31.739;27.679;-42.394;0.931;-17.062;-19.856;-15.870
5445821.229;19.073;22.091;21.867;-53.532;-2.570;-10.580;-10.580;-12.442
5445821.237;17.509;19.483;19.222;-54.874;-1.378;-0.969;-5.737;-4.619
5445821.245;12.182;12.591;12.144;-59.456;-7.898;6.258;-2.049;-2.496
5445821.253;1.639;2.123;-0.857;-67.987;-22.948;6.855;-0.969;-4.955
5445821.261;4.023;3.763;1.974;-65.304;-11.884;14.864;7.078;4.135
5445821.269;-25.779;-25.071;-27.791;-93.617;-37.365;0.261;-9.276;-13.933
5445821.277;-23.358;-24.401;-25.854;-99.652;-35.651;7.041;-2.161;-8.233
5445821.285;-16.205;-17.546;-18.179;-94.362;-25.332;7.153;2.049;-2.533
5445821.293;-12.517;-12.033;-15.274;-86.948;-21.756;3.278;4.135;-6.817
5445821.301;-27.083;-25.593;-28.424;-100.583;-38.594;-15.572;-10.245;-26.710
5445821.309;-34.533;-32.559;-37.067;-108.555;-56.624;-26.375;-22.016;-38.221
5445821.317;-29.728;-30.026;-29.057;-106.692;-39.823;-22.948;-20.117;-31.404
5445821.325;-13.001;-15.348;-9.537;-93.430;-17.062;-1.192;-1.490;-9.537
5445821.333;-3.539;-7.041;1.229;-85.160;-10.058;18.403;15.274;8.121
5445821.341;-0.224;-3.166;4.545;-81.509;-8.605;24.475;21.942;11.288
5445821.349;-21.644;-24.699;-18.105;-104.047;-30.324;-2.384;-4.172;-19.297
5445821.342;-5.513;-9.723;-2.049;-92.387;-17.285;7.153;5.476;-2.719
5445821.350;-6.184;-10.096;-3.763;-90.376;-23.618;0.820;0.261;-5.960
5445821.358;9.537;5.476;10.915;-74.953;-3.390;15.497;14.640;4.508
5445821.366;-8.792;-14.044;-7.451;-96.411;-21.495;-2.235;-3.278;-9.909
5445821.374;-19.521;-24.438;-16.354;-106.357;-29.728;-9.388;-10.803;-14.715
5445821.382;-16.019;-23.022;-13.150;-105.910;-26.412;-3.465;-4.396;-12.182
5445821.390;-18.440;-25.295;-17.248;-107.847;-31.479;4.508;2.161;-1.788
5445821.398;-8.158;-12.740;-9.425;-91.568;-24.810;14.491;11.958;13.262
5445821.406;-22.389;-28.946;-20.862;-109.375;-33.900;-2.533;-9.015;1.751
5445821.414;-41.015;-48.429;-37.551;-128.001;-47.348;-26.487;-33.118;-34.422
5445821.422;-29.430;-34.161;-30.249;-110.529;-42.543;-9.723;-12.890;-19.558
5445821.430;-40.382;-44.033;-39.265;-119.358;-52.489;-10.170;-10.207;-17.360
5445821.438;-40.457;-45.374;-36.843;-120.141;-43.176;-8.643;-8.792;-14.640
5445821.446;-52.974;-57.928;-50.180;-129.901;-56.811;-22.873;-25.406;-21.122
5445821.454;-19.558;-24.363;-20.452;-97.230;-30.920;10.952;5.886;13.188
5445821.462;-45.560;-51.036;-48.019;-122.339;-61.281;-15.944;-19.744;-24.363
5445821.470;-46.194;-53.234;-45.523;-125.803;-52.266;-22.054;-26.040;-31.516
5445821.478;-24.363;-30.473;-22.650;-104.494;-30.026;-1.825;-6.333;-8.531
5445821.486;-27.791;-30.436;-26.971;-101.402;-34.608;4.917;1.714;-4.694
5445821.494;-15.795;-18.813;-15.832;-92.536;-23.581;11.511;7.600;5.439
5445821.502;-16.503;-17.881;-16.615;-90.115;-22.873;5.849;5.513;-5.141
5445821.510;-32.783;-34.012;-33.602;-101.440;-40.308;-9.127;-10.394;-21.644
5445821.518;-44.294;-48.615;-43.139;-119.768;-46.790;-6.668;-11.176;-14.864
5445821.526;-36.061;-40.382;-34.124;-112.019;-34.869;1.751;-1.863;-2.980
5445821.598;-29.169;-33.006;-29.802;-104.867;-34.124;5.290;3.688;-5.066
5445821.606;-23.432;-28.834;-24.997;-99.093;-28.834;6.072;8.345;-3.204
5445821.614;-13.188;-19.073;-15.087;-88.476;-15.199;7.302;7.004;6.445
5445821.622;-30.659;-39.004;-29.169;-110.678;-28.908;-7.376;-11.586;-14.007
5445821.630;-33.118;-41.611;-33.118;-115.186;-42.729;-2.868;-7.153;-16.727
5445821.638;-23.283;-30.622;-24.326;-100.881;-29.020;9.984;7.227;-1.229
5445821.646;-14.007;-20.042;-14.529;-88.848;-12.666;20.787;19.334;11.735
5445821.654;-17.919;-24.103;-18.254;-93.430;-15.199;20.415;21.122;13.262
5445821.662;-18.738;-25.891;-18.850;-92.313;-13.188;17.285;17.658;17.397
5445821.670;-35.726;-43.586;-37.812;-109.039;-34.310;-4.508;-5.215;-2.533
5445821.678;-52.899;-61.616;-55.507;-130.013;-54.725;-25.481;-27.381;-25.369
5445821.686;-39.376;-46.752;-44.815;-113.063;-44.070;-15.683;-11.995;-19.819
5445821.694;-30.696;-37.104;-35.986;-101.812;-29.169;-3.576;0.559;-7.525
5445821.702;-15.721;-20.824;-20.750;-86.427;-10.803;18.477;25.593;14.231
5445821.710;-18.440;-24.624;-25.816;-93.542;-21.346;13.486;16.019;1.341
5445821.718;-40.941;-46.492;-48.950;-111.796;-43.102;-4.284;-5.737;-19.372
5445821.726;-36.918;-41.537;-46.901;-105.463;-37.178;-4.619;-3.502;-15.534
5445821.734;-15.981;-23.618;-28.089;-91.083;-24.848;5.700;6.147;0.931
5445821.742;3.986;-4.135;-7.898;-70.818;1.751;17.248;17.248;9.350
5445821.750;-0.410;-6.333;-16.913;-71.898;-9.350;10.207;9.462;-2.198
5445821.758;8.792;-0.261;-7.637;-71.600;-3.390;24.289;23.022;15.609
5445821.766;17.136;7.302;1.155;-64.149;6.184;28.647;28.685;17.397
5445821.774;26.822;18.738;9.201;-51.670;14.231;28.126;25.481;17.621
5445821.782;17.658;9.425;1.267;-60.946;5.476;15.907;13.933;2.906
5445821.852;-3.912;-11.697;-20.452;-81.286;-13.970;-0.261;0.112;-16.652
5445821.860;11.101;0.745;-4.023;-69.924;1.602;16.615;15.907;3.390
5445821.868;21.942;10.319;5.886;-61.728;6.407;25.630;26.040;9.239
5445821.876;22.240;12.107;5.811;-60.834;3.725;21.979;16.317;4.768
5445821.884;24.587;13.784;9.164;-63.628;6.780;23.916;17.993;12.666
5445821.892;17.844;5.141;5.625;-75.623;10.282;12.070;4.992;3.092
5445821.900;17.695;3.614;7.190;-76.331;11.250;13.560;2.719;3.241
5445821.908;19.483;5.402;9.276;-73.239;8.270;17.174;6.594;3.614
5445821.916;27.008;12.219;18.366;-66.273;15.944;18.924;7.153;3.241
5445821.924;19.521;5.588;10.654;-73.723;7.637;12.107;0.224;-1.192
5445821.932;24.401;13.523;15.832;-64.000;10.952;22.389;13.374;8.903
5445821.940;25.854;14.082;20.750;-62.287;15.497;24.848;15.683;13.225
5445821.948;7.898;-5.104;5.104;-83.633;0.335;3.316;-6.892;-6.035
5445821.956;-3.316;-13.560;-8.456;-90.785;-15.199;-7.674;-17.881;-16.280
5445821.964;7.823;-2.086;2.645;-76.965;-2.645;3.949;-7.823;-3.725
5445821.972;6.407;-3.055;0.522;-77.151;-8.829;-0.261;-10.021;-11.511
5445821.980;11.325;0.149;6.855;-78.976;-6.109;0.447;-7.562;-9.984
5445821.988;13.486;3.725;12.517;-75.512;3.390;4.359;0.633;-2.123
5445821.996;6.258;-2.570;6.147;-80.243;-1.453;8.494;6.892;9.127
5445822.004;-10.319;-19.148;-14.082;-97.975;-29.951;-2.868;-7.860;-6.109
5445822.012;-27.344;-37.700;-32.037;-115.894;-45.858;-21.718;-31.628;-29.430
5445822.020;-8.717;-21.234;-14.491;-101.328;-21.085;-4.433;-14.082;-9.760
5445822.028;3.576;-7.935;-2.682;-86.837;-9.984;2.198;-4.545;-3.017
5445822.036;1.602;-9.350;-5.327;-89.929;-15.274;3.763;1.900;-2.682
5445821.988;-24.810;-38.482;-31.218;-120.439;-39.972;-22.613;-29.281;-24.922
5445821.996;-14.715;-28.536;-22.016;-110.678;-30.398;-16.503;-24.959;-20.973
5445822.004;-10.207;-21.942;-16.280;-99.018;-24.885;-9.537;-14.082;-12.815
5445822.012;-17.956;-30.734;-20.042;-106.357;-23.767;-16.578;-21.346;-15.646
5445822.020;-27.977;-38.147;-29.132;-113.361;-33.416;-25.965;-29.244;-31.069
5445822.028;-27.046;-38.743;-28.573;-112.802;-33.379;-17.844;-24.661;-24.810
5445822.036;-11.064;-23.134;-12.219;-96.932;-16.876;7.302;-0.335;-1.155
5445822.044;-34.459;-45.598;-36.024;-119.954;-47.050;-18.887;-28.536;-29.914
5445822.052;-30.845;-41.313;-31.032;-114.441;-36.433;-26.003;-34.124;-33.565
5445822.060;-21.830;-31.963;-20.601;-105.277;-23.060;-14.938;-22.203;-16.205
5445822.068;-14.789;-26.897;-12.517;-101.142;-18.515;-12.480;-14.678;-20.266
5445822.076;-2.719;-13.895;-1.714;-86.054;-10.803;-6.743;-9.537;-15.385
5445822.084;-4.247;-14.529;-2.235;-85.123;-10.468;-7.413;-11.399;-12.331
5445822.092;10.580;-0.149;15.274;-75.810;8.643;5.029;-0.410;-1.267
5445822.100;-5.811;-14.193;-4.284;-90.972;-15.944;-21.085;-27.046;-33.118
5445822.108;8.866;2.831;9.984;-75.623;-6.668;-17.732;-22.464;-26.599
5445822.116;58.450;53.905;62.957;-29.467;40.382;-3.912;-8.419;-10.245
5445822.124;89.370;90.636;91.195;1.565;58.338;-3.353;-6.557;-5.774
5445822.132;126.883;131.428;125.617;33.379;86.091;2.049;1.900;-1.192
5445822.140;164.956;170.767;166.968;67.949;124.127;15.683;12.629;19.446
5445822.148;159.070;169.575;156.648;67.018;106.618;-2.496;-1.378;-14.342
5445822.156;161.305;169.538;156.574;63.889;101.402;-11.735;-11.325;-25.220
5445822.164;160.486;167.787;157.207;62.026;105.724;-6.780;-10.096;-13.858
5445822.172;145.473;154.227;140.071;51.111;92.499;-2.719;-9.127;-2.012
5445822.153;144.131;154.413;135.563;51.968;96.038;13.523;10.431;9.649
5445822.161;129.938;137.351;119.470;37.253;85.905;13.597;6.482;5.923
5445822.169;105.053;111.647;93.244;17.136;57.518;-3.390;-7.600;-8.717
5445822.177;72.904;76.331;63.628;-19.409;32.410;-19.372;-21.607;-24.810
5445822.185;75.661;77.300;62.697;-15.609;37.625;-3.166;-3.166;-9.760
5445822.193;63.702;65.602;46.641;-22.575;26.710;3.092;4.768;-1.825
5445822.201;48.988;47.944;33.677;-37.439;16.801;1.155;3.166;-1.080
5445822.209;36.769;35.129;24.922;-46.790;17.956;6.631;8.307;6.817
5445822.217;7.674;5.066;-5.178;-75.027;-11.176;-9.947;-7.041;-13.746
5445822.225;-6.929;-11.101;-20.787;-87.321;-25.369;-14.268;-11.064;-16.354
5445822.233;-27.083;-34.347;-40.606;-111.982;-38.259;-29.057;-33.639;-29.691
5445822.241;-22.873;-34.943;-34.049;-115.559;-25.369;-14.193;-22.501;-19.781
5445822.249;-13.746;-25.593;-25.369;-103.191;-16.317;3.502;-6.743;-1.565
5445822.257;-17.248;-27.455;-33.528;-100.881;-29.951;3.614;-4.657;-2.682
5445822.265;-2.347;-12.778;-20.340;-86.315;-16.019;23.693;20.787;8.196
5445822.273;-18.850;-33.006;-33.043;-109.859;-26.450;2.608;2.496;-14.976
5445822.281;-19.781;-33.677;-36.806;-109.859;-31.963;-0.969;-3.092;-14.268
5445822.289;-31.143;-41.500;-51.707;-113.100;-43.511;-6.333;-7.413;-16.317
5445822.297;-15.311;-26.487;-34.757;-97.640;-27.195;6.407;7.749;-6.855
5445822.305;-20.787;-32.224;-39.861;-105.388;-28.908;3.353;5.513;-6.743
5445822.313;-17.844;-28.387;-38.557;-100.546;-27.530;9.984;9.425;3.725
5445822.321;-16.131;-29.057;-34.757;-99.652;-22.128;11.548;9.686;11.958
5445822.329;-14.640;-27.418;-34.422;-96.187;-23.581;2.123;2.310;-6.668
5445822.337;-16.950;-30.585;-37.178;-99.950;-26.748;-6.557;-4.433;-18.850
5445822.318;-14.082;-27.828;-34.943;-98.944;-24.997;-0.224;1.378;-12.927
5445822.326;-19.073;-31.702;-40.419;-102.893;-27.716;7.413;5.141;-7.302
5445822.334;-9.798;-21.942;-29.393;-92.126;-8.233;24.959;19.483;12.070
5445822.342;-17.025;-28.387;-39.153;-100.136;-21.905;14.417;9.164;2.943
5445822.350;-42.357;-51.782;-67.502;-124.052;-55.023;-7.413;-9.686;-20.079
5445822.358;-42.431;-52.080;-65.304;-123.754;-46.380;-5.402;-9.350;-12.182
5445822.366;-20.564;-28.685;-44.331;-94.771;-26.561;21.458;16.242;15.870
5445822.374;-40.606;-51.111;-63.479;-119.992;-44.107;4.619;-2.608;-6.445
5445822.382;-61.467;-71.377;-83.186;-141.636;-62.995;-12.591;-16.838;-24.587
5445822.390;-48.950;-58.450;-72.345;-127.777;-53.793;8.754;4.321;1.267
5445822.398;-60.797;-72.792;-80.317;-143.312;-59.679;-1.267;-6.407;-10.356
5445822.406;-64.522;-75.437;-80.764;-146.292;-63.069;-3.316;-11.586;-18.775
5445822.414;-45.523;-54.277;-60.610;-124.574;-42.766;16.578;7.972;1.192
5445822.422;-51.111;-60.499;-65.640;-129.230;-45.560;11.884;4.135;-1.155
5445822.430;-31.181;-39.190;-45.747;-106.730;-25.071;28.200;22.799;13.225
5445822.438;-58.971;-69.104;-72.382;-141.412;-57.109;-6.743;-11.586;-22.836
5445822.446;-59.567;-70.892;-70.930;-145.286;-58.077;-17.285;-20.936;-26.561
5445822.454;-60.126;-72.494;-69.030;-145.808;-52.489;-17.025;-19.334;-23.618
5445822.462;-44.890;-55.470;-57.146;-129.230;-44.182;0.261;-3.986;-0.373
5445822.470;-63.404;-72.643;-76.331;-144.877;-67.912;-6.557;-12.666;-13.113
5445822.478;-61.654;-72.420;-70.632;-145.771;-58.338;-1.229;-7.711;-17.397
5445822.486;-50.142;-60.834;-55.060;-135.079;-41.537;4.657;-1.527;-12.070
5445822.494;-46.566;-55.917;-52.489;-130.609;-43.549;9.052;3.278;-7.264
5445822.502;-39.674;-48.131;-44.666;-120.737;-33.751;17.025;11.139;4.806
5445822.589;-42.878;-50.776;-47.237;-121.668;-37.849;12.927;6.668;6.147
5445822.597;-51.484;-63.702;-54.315;-138.097;-46.119;-4.917;-13.970;-6.184
5445822.605;-34.310;-45.076;-37.178;-118.650;-29.467;5.998;0.224;3.204
5445822.613;-57.295;-69.588;-58.860;-145.361;-50.776;-18.589;-21.346;-30.771
5445822.621;-55.060;-67.018;-58.524;-140.630;-53.570;-11.250;-16.131;-20.340
5445822.629;-29.020;-38.408;-34.980;-108.443;-32.745;11.772;6.221;-1.416
5445822.637;-36.918;-46.641;-40.531;-118.725;-33.341;0.782;-4.992;-9.164
5445822.645;-24.103;-34.496;-27.157;-106.804;-18.440;1.304;-1.453;-4.396
5445822.653;-24.587;-34.347;-29.691;-106.692;-23.209;-1.118;-4.247;-6.258
5445822.661;-28.498;-41.835;-32.037;-116.043;-26.263;-10.319;-9.947;-16.950
5445822.669;-22.277;-37.439;-26.040;-112.094;-20.340;-6.333;-8.717;-9.798
5445822.677;-15.236;-27.679;-21.458;-101.291;-15.534;7.078;4.061;2.608
5445822.685;-21.979;-30.808;-27.977;-101.924;-18.887;3.055;0.261;-2.310
5445822.693;-13.635;-23.171;-20.340;-94.175;-16.876;9.760;8.009;10.952
5445822.701;-34.049;-44.182;-39.376;-115.074;-35.390;-9.276;-7.488;-11.846
5445822.709;-45.933;-58.115;-48.913;-129.417;-40.382;-9.462;-5.327;-21.085
5445822.717;-42.245;-54.725;-42.468;-124.238;-32.820;-2.533;0.149;-10.245
5445822.725;-44.852;-54.352;-46.305;-120.178;-36.918;0.969;4.843;-1.900
5445822.733;-58.301;-65.118;-58.562;-128.374;-45.784;-3.502;-0.149;-5.178
5445822.741;-70.743;-77.635;-68.694;-140.592;-54.874;-10.058;-8.121;-8.009
5445822.749;-86.464;-92.760;-83.819;-154.562;-70.296;-12.480;-10.617;-13.374
5445822.757;-85.123;-91.605;-83.596;-151.582;-71.600;-10.356;-5.700;-17.472
5445822.765;-86.613;-92.983;-84.341;-151.694;-73.351;-9.537;-3.576;-17.285
5445822.773;-94.511;-99.279;-93.766;-156.537;-83.521;-14.529;-6.668;-23.544
5445822.797;-88.699;-96.411;-84.266;-154.637;-70.408;-7.786;1.118;-17.770
5445822.805;-86.911;-93.207;-82.105;-147.149;-67.540;-13.225;-4.396;-19.670
5445822.813;-86.464;-93.728;-82.180;-150.092;-62.846;-25.071;-20.750;-27.828
5445822.821;-83.894;-91.530;-77.970;-150.949;-60.163;-20.526;-18.254;-24.550
5445822.829;-68.769;-77.561;-59.642;-133.552;-43.623;-4.284;0.186;-6.929
5445822.837;-72.829;-80.466;-68.620;-134.557;-54.277;-4.135;-1.714;-11.921
5445822.845;-62.473;-72.457;-57.556;-128.187;-44.554;8.382;10.580;-4.172
5445822.853;-66.720;-76.406;-60.536;-129.864;-47.572;-5.290;-1.304;-14.193
5445822.861;-44.592;-54.911;-42.506;-109.971;-36.918;5.551;10.133;-3.017
5445822.869;-38.333;-53.756;-33.416;-115.596;-23.395;2.570;3.427;-0.335
5445822.877;-33.900;-46.194;-29.355;-105.612;-15.460;-2.943;-0.261;-2.533
5445822.885;-32.522;-40.196;-32.634;-97.975;-22.985;-12.591;-5.774;-12.927
5445822.893;-18.366;-26.152;-19.968;-88.215;-12.293;-8.382;-2.496;-1.714
5445822.901;-11.809;-17.434;-9.947;-81.211;-3.353;-8.345;-1.341;-3.874
5445822.909;-7.823;-12.405;-5.513;-76.815;-5.402;-17.621;-9.723;-18.440
5445822.917;10.356;7.302;14.715;-61.318;9.388;-19.111;-12.890;-22.240
5445822.925;52.750;55.283;57.109;-18.030;46.752;-4.992;2.719;-6.519
5445822.933;76.927;83.148;80.131;-1.118;59.344;-13.560;-7.935;-9.909
5445822.941;119.656;127.144;122.152;37.216;94.622;-7.376;-0.186;-1.527
5445822.949;132.844;140.667;133.738;45.970;101.179;-12.293;-3.986;-11.288
5445822.957;133.999;142.306;132.360;45.709;96.783;-24.103;-16.056;-21.420
5445822.965;150.613;157.580;149.123;60.685;115.111;-6.109;2.049;-4.061
5445822.973;137.202;145.063;133.999;51.446;102.110;-0.373;10.766;0.149
5445822.981;133.030;140.406;127.107;50.105;97.007;13.486;23.767;12.144
5445822.994;108.033;114.478;100.918;29.132;78.455;8.233;18.626;3.204
5445823.002;87.172;94.287;79.013;14.938;63.330;9.090;20.936;1.863
5445823.010;70.110;75.549;60.238;-3.688;47.050;4.508;16.391;-3.055
5445823.018;52.452;54.203;42.766;-23.879;35.949;4.210;13.821;4.172
5445823.026;41.574;41.090;33.416;-33.528;33.379;0.559;11.474;-1.416
5445823.034;33.863;33.155;23.805;-38.035;24.699;3.353;13.150;2.459
5445823.042;12.927;10.245;0.261;-56.550;5.364;-4.098;4.172;-4.992
5445823.050;9.350;4.470;-3.725;-61.691;9.611;-9.574;0.149;-8.829
5445823.058;8.084;2.757;-5.066;-62.510;15.609;-11.213;1.714;-2.347
5445823.066;20.675;15.497;6.631;-49.099;27.046;3.092;13.784;10.170
5445823.074;6.780;-0.708;-8.643;-67.502;10.021;-2.496;2.496;-5.588
5445823.082;10.468;1.937;-5.737;-64.410;14.976;3.651;9.388;-5.476
5445823.090;21.718;14.417;-0.186;-52.303;19.781;13.411;20.713;2.719
5445823.098;11.995;1.900;-10.952;-66.645;16.019;8.605;14.044;0.559
5445823.106;-3.427;-14.901;-25.034;-81.882;0.522;5.811;7.935;-7.972
5445823.114;7.115;-3.949;-11.325;-70.259;11.735;24.922;25.257;7.227
5445823.122;8.866;0.447;-9.760;-60.759;15.721;29.057;31.441;15.721
5445823.130;1.006;-7.823;-18.701;-71.414;9.388;21.122;23.171;12.368
5445823.138;-12.852;-23.246;-31.665;-86.017;-2.235;7.898;9.127;-0.335
5445823.146;-18.664;-27.940;-35.055;-88.811;-3.204;8.494;11.027;2.906
5445823.154;-5.960;-14.231;-24.512;-74.618;0.335;21.569;27.493;16.429
5445823.162;-27.157;-36.806;-45.411;-96.932;-17.434;3.837;7.302;-0.149
5445823.170;-37.067;-47.386;-52.601;-109.822;-23.246;2.906;1.825;-0.671
5445823.178;-20.936;-28.275;-37.625;-91.568;-7.190;21.122;19.819;12.927
5445823.216;-24.699;-29.802;-41.723;-91.828;-11.176;16.019;14.044;5.811
5445823.224;-20.489;-28.871;-36.806;-91.083;-7.898;15.534;13.821;6.482
5445823.232;-18.515;-28.312;-35.316;-90.674;-8.233;12.703;12.033;5.849
5445823.240;-4.284;-14.082;-18.515;-74.692;7.972;27.269;28.647;21.942
5445823.248;-19.073;-29.467;-29.206;-90.189;-3.465;17.732;16.317;12.815
5445823.256;-20.973;-30.026;-31.218;-91.419;-9.611;13.486;11.697;9.127
5445823.264;2.645;-7.823;-8.009;-70.520;10.319;28.051;23.358;26.189
5445823.272;-2.719;-14.491;-15.423;-80.578;1.974;18.142;14.938;11.101
5445823.280;-9.872;-21.607;-21.346;-84.527;-4.880;12.591;9.350;7.078
5445823.288;3.688;-7.264;-5.737;-70.296;9.649;26.450;21.234;23.618
5445823.296;12.964;1.937;4.061;-61.281;18.142;35.353;32.112;34.571
5445823.304;2.347;-6.892;-8.494;-70.408;3.651;26.710;22.762;24.810
5445823.312;-8.605;-16.391;-19.036;-78.082;-6.743;22.799;18.924;22.016
5445823.320;-6.147;-16.391;-14.864;-79.572;-4.359;24.810;24.252;22.389
5445823.328;-7.264;-17.621;-15.236;-80.466;-4.582;17.993;13.709;10.878
5445823.336;-11.362;-21.905;-17.509;-85.235;-3.017;12.554;3.986;12.517
5445823.344;0.373;-10.021;-7.041;-70.445;4.061;16.056;7.562;17.844
5445823.352;-4.582;-15.497;-11.027;-77.263;1.602;7.525;1.490;5.625
5445823.360;-3.874;-14.268;-10.617;-74.618;4.061;11.809;9.015;8.643
5445823.368;-15.348;-23.954;-23.916;-82.962;-9.276;8.717;8.866;2.012
5445823.376;3.353;-2.347;-7.600;-59.642;7.451;26.524;25.816;17.583
5445823.384;3.204;-3.874;-6.296;-62.771;10.394;29.951;26.003;22.575
5445823.392;0.112;-8.866;-9.611;-69.812;9.313;25.928;20.862;22.277
5445823.400;-11.846;-22.799;-21.271;-86.315;-5.215;9.537;9.499;4.768
5445823.383;-24.922;-32.671;-34.049;-93.021;-17.807;-2.161;-1.192;-3.874
5445823.391;-13.560;-15.609;-26.152;-71.563;-13.374;10.431;10.654;5.662
5445823.399;-15.497;-18.142;-26.226;-75.325;-8.270;11.921;10.841;9.052
5445823.407;-14.305;-18.142;-21.420;-76.629;-4.768;14.529;12.666;14.193
5445823.415;-5.029;-5.960;-13.970;-65.565;-7.041;5.811;5.662;-2.608
5445823.423;24.289;28.089;15.683;-32.745;16.876;5.700;6.668;-4.508
5445823.431;69.961;77.486;64.522;10.654;56.438;17.546;20.638;12.331
5445823.439;99.130;108.480;97.044;30.696;81.100;12.182;13.337;12.591
5445823.447;121.146;134.818;117.943;51.334;93.915;2.198;3.241;6.929
5445823.455;144.988;160.113;140.741;73.500;111.349;2.608;7.637;3.316
5445823.463;146.031;159.554;144.467;67.465;112.280;-3.874;2.161;-4.545
5445823.471;157.133;170.879;155.009;76.368;123.605;7.339;6.557;7.376
5445823.479;154.227;165.477;151.061;71.563;121.258;9.835;7.153;11.586
5445823.487;145.212;154.413;141.449;63.367;117.607;13.225;12.293;10.990
5445823.495;127.852;135.601;121.258;52.415;104.085;7.562;7.451;6.668
5445823.503;99.093;108.406;87.172;31.181;72.718;-7.004;-4.917;-5.104
5445823.511;97.416;106.581;82.478;30.510;72.159;-0.820;0.969;11.995
5445823.519;68.098;75.661;54.054;-0.522;51.521;-15.385;-10.282;-10.096
5445823.527;52.527;60.387;35.763;-12.591;33.975;-15.162;-9.723;-13.188
5445823.535;37.700;45.523;17.956;-21.830;26.301;-16.876;-12.033;-12.442
5445823.543;32.000;38.408;10.878;-25.965;23.879;-11.064;-3.017;-7.860
5445823.551;18.962;21.085;-0.894;-47.311;11.623;-19.073;-11.437;-12.815
5445823.559;-0.261;-0.112;-18.552;-66.981;-1.192;-30.585;-27.195;-19.819
5445823.567;-13.411;-12.815;-29.206;-76.219;-8.792;-30.622;-29.169;-22.687
5445823.563;-10.766;-8.792;-29.616;-68.434;-7.488;-20.824;-19.260;-16.354
5445823.571;-14.864;-14.231;-34.831;-72.420;-11.325;-18.105;-12.256;-18.775
5445823.579;-16.131;-16.056;-38.631;-71.786;-11.921;-9.872;-6.445;-16.205
5445823.587;-14.603;-15.274;-37.141;-71.377;-6.147;1.565;-1.043;-2.906
5445823.595;-30.100;-29.467;-52.489;-84.415;-21.271;2.161;0.149;-4.768
5445823.603;-37.812;-37.588;-59.903;-92.126;-26.301;4.731;5.625;-4.098
5445823.611;-50.142;-52.303;-70.222;-107.437;-30.957;4.582;4.992;0.186
5445823.619;-64.932;-68.620;-82.776;-119.805;-42.245;-0.782;-0.708;0.782
5445823.627;-82.888;-86.650;-100.881;-134.632;-60.201;-17.062;-16.280;-20.489
5445823.635;-72.941;-77.188;-92.871;-123.084;-54.277;-13.746;-11.846;-17.621
5445823.643;-68.210;-74.022;-87.619;-119.880;-45.076;-10.431;-6.519;-12.182
5445823.651;-77.039;-82.962;-96.224;-130.981;-52.080;-18.515;-13.933;-22.613
5445823.659;-90.301;-97.379;-108.108;-141.673;-66.273;-24.438;-20.973;-24.699
5445823.667;-87.656;-94.548;-105.798;-138.581;-63.628;-23.246;-20.154;-22.054
5445823.675;-86.129;-90.264;-107.251;-132.211;-64.522;-25.108;-18.962;-23.730
5445823.683;-70.855;-76.406;-90.413;-117.533;-47.684;-10.729;-6.780;-5.402
5445823.691;-88.364;-96.560;-106.730;-138.395;-63.628;-34.198;-28.908;-32.000
5445823.699;-74.692;-84.527;-93.579;-127.703;-50.180;-22.352;-15.199;-20.415
5445823.707;-65.379;-74.767;-85.942;-117.980;-45.970;-7.264;-2.980;-7.115
5445823.715;-64.075;-73.202;-84.415;-118.092;-41.761;-7.749;-4.023;-7.898
5445823.723;-55.321;-65.379;-74.767;-110.716;-30.063;4.508;8.382;11.027
5445823.731;-67.689;-77.672;-88.885;-120.029;-47.497;-5.737;-1.192;-0.671
5445823.739;-74.767;-86.650;-95.591;-129.640;-52.303;-12.442;-7.041;-6.780
5445823.747;-68.694;-83.968;-91.866;-129.491;-47.423;-10.841;-3.949;-7.376
5445823.726;-62.250;-76.853;-87.209;-123.717;-39.563;-7.860;0.224;-8.978
5445823.734;-49.323;-60.350;-76.294;-105.165;-27.195;11.809;18.328;12.107
5445823.742;-55.395;-65.751;-82.031;-110.902;-32.261;1.304;4.545;3.353
5445823.750;-66.422;-76.555;-93.579;-119.805;-45.598;-16.987;-14.901;-22.091
5445823.758;-49.993;-57.556;-79.609;-99.801;-37.327;-4.098;-2.831;-10.133
5445823.766;-35.428;-44.107;-62.659;-90.487;-20.005;9.201;9.462;11.697
5445823.774;-28.834;-37.029;-54.762;-81.249;-13.597;4.731;5.290;13.076
5445823.782;-48.392;-54.576;-74.804;-98.236;-33.453;-21.197;-20.340;-18.999
5445823.790;-52.266;-57.332;-79.237;-100.322;-39.525;-24.512;-23.320;-23.171
5445823.798;-46.119;-51.893;-70.632;-95.367;-34.012;-17.434;-17.546;-10.170
5445823.806;-42.431;-50.142;-63.032;-93.840;-24.214;-6.519;-4.396;-4.023
5445823.814;-41.798;-50.254;-59.344;-92.685;-20.973;2.161;2.235;4.619
5445823.822;-47.907;-55.358;-63.851;-94.511;-27.865;-1.863;0.931;0.112
5445823.830;-70.073;-76.965;-82.627;-114.515;-42.804;-18.626;-16.801;-16.578
5445823.838;-90.413;-99.167;-97.789;-139.587;-56.550;-23.358;-20.526;-14.938
5445823.846;-101.812;-110.306;-106.059;-150.986;-65.900;-32.373;-30.696;-22.240
5445823.854;-101.812;-107.326;-106.245;-142.045;-69.663;-25.928;-25.518;-19.185
5445823.862;-96.746;-104.234;-101.067;-139.773;-66.012;-24.177;-20.936;-18.999
5445823.870;-89.034;-96.560;-93.170;-134.371;-58.524;-17.583;-15.274;-8.754
5445823.878;-97.528;-103.675;-101.663;-139.438;-72.122;-21.569;-17.025;-15.236
5445823.886;-103.414;-107.288;-107.586;-141.300;-79.274;-32.298;-25.295;-32.112
5445823.894;-93.542;-99.763;-92.983;-134.371;-61.803;-25.705;-22.277;-24.028
5445823.902;-84.639;-93.654;-83.223;-129.081;-53.309;-22.277;-19.781;-17.732
5445823.910;-90.934;-98.608;-90.636;-136.346;-65.863;-30.436;-26.822;-28.871
5445823.878;-76.331;-82.999;-78.119;-119.433;-54.576;-25.257;-22.091;-23.544
5445823.886;-53.234;-60.946;-55.879;-97.491;-32.894;-7.898;-2.943;-7.115
5445823.894;-59.865;-69.514;-61.616;-106.059;-39.488;-15.534;-8.941;-12.442
5445823.902;-56.252;-66.496;-59.232;-102.706;-38.147;-17.434;-9.499;-15.199
5445823.910;-51.931;-58.077;-57.705;-92.797;-39.227;-15.534;-5.811;-10.729
5445823.918;-68.583;-76.406;-73.239;-112.988;-55.619;-34.869;-26.673;-28.834
5445823.926;-51.334;-61.244;-53.905;-97.565;-33.341;-19.446;-11.697;-15.609
5445823.934;-46.417;-55.209;-51.446;-93.877;-33.714;-12.033;-8.158;-7.637
5445823.942;-37.178;-46.343;-43.809;-85.905;-28.126;-6.929;-3.837;-4.061
5445823.950;-36.508;-47.050;-41.574;-86.203;-24.065;-6.072;0.373;-4.880
5445823.958;-34.757;-45.188;-40.159;-83.707;-24.959;-1.378;5.998;0.484
5445823.966;-30.138;-39.972;-36.657;-79.572;-23.656;-4.880;1.304;-4.880
5445823.974;-21.756;-32.522;-26.226;-71.675;-9.984;-2.384;8.270;-4.619
5445823.982;-33.490;-45.300;-37.700;-83.968;-25.928;-18.999;-10.878;-16.838
5445823.990;-22.054;-32.820;-25.332;-72.494;-13.262;-16.727;-10.654;-10.133
5445823.998;-15.944;-26.487;-17.509;-68.061;-1.937;-13.262;-3.949;-3.017
5445824.006;-30.398;-40.121;-31.628;-80.131;-17.360;-22.277;-16.466;-10.841
5445824.014;-29.169;-40.010;-27.418;-79.125;-11.735;-17.509;-11.399;-8.866
5445824.022;-46.380;-56.587;-43.660;-96.448;-28.126;-33.081;-26.487;-22.873
5445824.030;-31.777;-37.700;-31.851;-74.133;-20.824;-19.632;-12.331;-13.262
5445824.038;-24.736;-29.989;-27.455;-64.112;-14.827;-14.491;-8.494;-10.319
5445824.046;-29.355;-36.210;-31.851;-73.910;-19.930;-14.417;-9.537;-6.929
5445824.054;-37.327;-45.635;-37.923;-83.931;-25.779;-21.011;-15.795;-17.770
5445824.062;-53.309;-61.914;-54.352;-100.099;-45.709;-37.290;-27.977;-30.994
5445824.072;-54.687;-62.771;-53.868;-102.073;-46.007;-33.565;-23.656;-22.501
5445824.080;-52.750;-61.393;-50.254;-98.497;-34.310;-33.155;-28.424;-17.546
5445824.088;-57.444;-64.820;-55.097;-101.104;-38.892;-31.963;-24.810;-25.816
5445824.096;-43.884;-52.936;-37.998;-89.705;-22.054;-8.196;0.410;-3.017
5445824.104;-39.861;-50.031;-32.745;-84.750;-14.454;-8.978;-2.198;-9.127
5445824.112;-39.451;-46.268;-35.986;-77.337;-19.297;-12.107;-4.172;-14.715
5445824.120;-29.951;-36.955;-28.647;-66.794;-11.809;-4.470;4.508;-0.037
5445824.128;-44.890;-53.048;-45.374;-83.372;-28.796;-18.068;-5.551;-18.664
5445824.136;-40.084;-48.950;-40.568;-81.845;-25.295;-15.274;-3.539;-15.609
5445824.144;-21.942;-29.355;-24.103;-61.877;-10.058;-0.522;9.798;4.508
5445824.152;-23.544;-30.920;-25.146;-62.771;-10.729;0.447;13.076;7.153
5445824.160;-50.105;-57.817;-48.839;-90.040;-31.963;-29.579;-20.713;-22.985
5445824.168;-39.265;-48.578;-36.582;-84.974;-20.228;-27.157;-20.415;-19.558
5445824.176;-29.951;-40.084;-27.642;-77.896;-13.448;-17.844;-9.947;-10.617
5445824.184;-36.508;-45.821;-34.198;-83.335;-22.352;-24.214;-19.632;-18.068
5445824.192;-47.311;-56.960;-44.480;-91.977;-32.298;-30.398;-26.450;-20.862
5445824.200;-27.679;-37.849;-22.687;-74.767;-8.717;-11.884;-3.353;-2.831
5445824.208;-37.141;-44.666;-34.571;-80.019;-24.922;-22.613;-9.574;-19.521
5445824.216;-32.708;-40.494;-28.796;-76.704;-16.280;-16.354;-4.619;-12.405
5445824.224;-51.595;-58.338;-46.566;-93.132;-30.957;-20.266;-12.368;-18.403
5445824.232;-51.111;-55.395;-45.113;-88.625;-28.610;-13.001;-7.078;-12.293
5445824.240;-40.866;-46.603;-32.149;-78.492;-14.305;3.427;9.388;5.774
5445824.248;-53.532;-58.636;-48.019;-90.562;-30.883;-4.135;1.937;-0.075
5445824.256;-66.608;-71.898;-62.175;-104.941;-44.741;-16.429;-16.987;-5.439
5445824.284;-50.627;-58.077;-45.896;-92.126;-28.275;-10.990;-14.193;2.794
5445824.292;-50.552;-53.234;-50.217;-82.590;-33.453;-19.856;-15.460;-11.213
5445824.300;-51.595;-55.805;-48.764;-86.874;-29.281;-21.383;-12.331;-12.368
5445824.308;-49.137;-55.805;-46.119;-90.897;-23.246;-18.664;-4.247;-12.405
5445824.316;-40.829;-45.151;-37.737;-78.939;-14.715;-12.070;7.041;-7.972
5445824.324;-51.372;-56.662;-49.993;-91.977;-30.510;-22.575;-5.364;-19.409
5445824.332;-58.264;-63.889;-56.997;-99.577;-36.843;-23.656;-9.947;-18.105
5445824.340;-54.091;-61.765;-54.166;-96.671;-34.906;-16.391;-4.917;-3.874
5445824.348;-44.666;-52.676;-43.884;-86.464;-22.426;-10.319;0.447;4.582
5445824.356;-48.615;-54.613;-47.088;-88.923;-25.146;-14.231;-5.476;-5.998
5445824.364;-56.103;-62.883;-53.346;-98.497;-31.367;-18.217;-8.345;-11.623
5445824.372;-65.267;-73.425;-58.934;-109.151;-32.187;-19.632;-10.766;-14.491
5445824.380;-63.665;-70.110;-58.040;-104.383;-32.447;-13.672;-5.960;-11.213
5445824.388;-68.136;-73.239;-63.330;-104.792;-39.116;-20.601;-11.176;-14.789
5445824.396;-79.609;-82.850;-77.039;-115.670;-53.383;-33.565;-24.028;-24.177
5445824.404;-68.918;-70.967;-66.310;-103.079;-36.918;-24.252;-12.182;-17.509
5445824.412;-42.990;-45.039;-41.910;-74.729;-14.305;0.782;11.437;7.786
5445824.420;-43.623;-47.684;-38.780;-78.753;-8.978;2.757;9.984;5.960
5445824.428;-57.034;-59.716;-54.613;-89.779;-29.914;-2.570;1.751;-5.811
5445824.436;-44.443;-46.343;-43.958;-74.990;-21.681;9.872;10.952;7.264
5445824.444;-44.815;-46.343;-44.927;-77.225;-26.152;4.508;6.296;1.453
5445824.452;-42.878;-45.635;-41.313;-76.890;-23.618;-2.272;2.012;-2.086
5445824.460;-13.262;-16.429;-7.972;-49.435;14.827;16.578;21.644;24.363
5445824.468;-13.001;-14.603;-9.201;-45.933;10.915;11.660;16.652;19.632
5445824.476;-10.580;-12.368;-8.270;-44.778;4.619;4.433;9.276;7.786
5445824.484;4.023;-1.676;9.947;-35.912;20.005;2.682;7.488;8.158
5445824.492;-0.559;-8.643;8.903;-44.517;20.042;0.075;1.341;8.047
5445824.500;-4.433;-11.511;3.576;-48.280;11.958;5.439;8.121;17.509
5445824.508;-2.719;-9.239;3.912;-45.672;9.984;4.657;5.439;9.872
5445824.516;-8.903;-13.672;-4.806;-46.194;-2.384;-4.508;-4.768;-4.694
5445824.524;-13.635;-20.452;-6.258;-54.501;-1.825;-13.001;-10.207;-12.927
5445824.532;0.075;-8.941;10.841;-47.199;18.142;-6.743;-4.470;2.757
5445824.540;17.546;10.617;26.897;-25.220;30.324;0.633;5.066;8.121
5445824.548;14.380;7.115;24.512;-29.579;24.326;-0.298;4.955;4.955
5445824.556;-1.006;-9.127;10.468;-43.511;11.176;-11.921;-7.525;-1.192
5445824.564;-11.884;-19.670;2.049;-50.999;4.284;-18.254;-11.846;-10.133
5445824.572;7.860;-0.857;25.034;-34.422;27.344;1.565;5.364;10.468
5445824.580;14.193;6.594;31.479;-27.120;26.710;13.784;16.876;17.881
5445824.588;11.809;6.631;27.642;-24.065;19.446;16.168;18.813;11.548
5445824.596;10.207;6.668;25.630;-23.954;21.309;10.468;12.405;9.090
5445824.604;10.207;6.966;26.003;-25.555;20.862;2.496;4.880;3.763
5445824.612;21.942;19.297;38.743;-13.001;31.926;8.419;11.064;14.715
5445824.620;30.138;28.722;47.199;-5.811;37.402;6.557;11.511;19.707
5445824.628;40.084;39.749;58.562;7.376;46.566;11.176;17.844;20.377
5445824.636;34.757;36.918;54.911;5.998;41.910;-1.341;8.196;1.900
5445824.644;37.514;43.996;56.475;10.580;38.557;-9.276;-0.335;-5.960
5445824.652;55.060;65.565;73.612;26.971;45.747;-8.084;-0.335;-3.912
5445824.660;103.861;116.229;122.860;72.345;87.321;9.201;17.546;12.890
5445824.612;116.341;130.795;135.228;79.535;92.909;-2.459;5.998;-4.619
5445824.620;140.220;158.399;158.846;104.196;112.541;3.688;10.394;-1.304
5445824.628;145.845;167.750;165.217;113.174;118.390;-4.359;1.714;-6.594
5445824.636;154.227;175.238;171.885;120.066;124.760;-0.447;4.880;5.662
5445824.644;147.037;165.738;161.976;109.002;113.808;3.166;7.823;11.809
5445824.652;107.400;126.474;119.582;72.382;77.114;-16.354;-7.227;-8.196
5445824.660;104.271;125.170;115.074;75.400;79.870;-5.886;5.290;5.104
5445824.668;89.668;110.716;98.795;64.187;69.551;-9.723;0.522;-1.639
5445824.676;62.101;81.062;72.569;36.024;46.380;-27.530;-20.228;-22.985
5445824.684;58.003;73.127;69.886;30.585;48.280;-13.411;-7.860;-3.651
5445824.692;47.311;61.132;58.934;21.979;40.010;-9.649;-2.086;0.186
5445824.700;34.347;46.939;46.529;7.860;30.436;-17.174;-8.121;-12.517
5445824.708;33.379;45.784;42.990;9.798;25.257;-14.342;-7.972;-9.537
5445824.716;28.759;38.370;37.327;1.788;22.873;-2.235;4.657;5.625
5445824.724;15.721;24.885;23.097;-7.600;9.686;-3.800;4.806;1.341
5445824.732;-0.596;7.078;6.780;-22.203;-5.364;-17.844;-12.331;-15.683
5445824.740;11.735;18.813;22.985;-6.817;21.607;-5.104;-0.708;0.633
5445824.748;0.224;6.370;8.568;-19.893;5.290;-10.096;-6.966;-3.912
5445824.756;-15.981;-9.574;-9.984;-34.347;-14.007;-13.225;-11.437;-9.201
5445824.764;-13.188;-7.674;-7.786;-28.685;-11.474;0.633;4.396;4.768
5445824.772;-23.693;-17.732;-15.609;-37.886;-18.366;4.061;9.462;2.272
5445824.780;-24.252;-17.881;-15.795;-38.818;-15.050;17.881;24.773;7.898
5445824.788;-17.472;-10.580;-9.760;-29.169;-5.625;29.244;37.998;21.756
5445824.796;-42.357;-36.024;-33.043;-52.787;-25.369;-1.304;6.072;-1.676
5445824.748;-43.288;-37.588;-33.677;-53.830;-24.103;-3.912;1.304;-3.129
5445824.756;-57.481;-50.627;-48.168;-62.324;-37.663;-12.890;-8.531;-15.795
5445824.764;-56.885;-51.707;-45.151;-63.218;-34.012;-9.127;-5.364;-6.817
5445824.772;-43.958;-42.804;-29.169;-56.587;-16.876;-0.633;3.725;5.253
5445824.780;-41.313;-39.637;-26.822;-52.415;-12.554;-2.682;5.700;-0.298
5445824.788;-45.598;-43.660;-32.783;-54.874;-21.234;-11.586;0.447;-8.494
5445824.796;-44.890;-43.288;-33.453;-54.911;-20.266;-8.047;1.192;-3.949
5445824.804;-33.639;-31.926;-22.314;-41.090;-8.978;4.955;13.486;8.084
5445824.812;-33.528;-32.187;-24.363;-40.345;-13.970;1.937;12.219;2.421
5445824.820;-31.218;-29.616;-21.681;-35.651;-8.419;5.439;12.070;4.135
5445824.828;-40.270;-40.680;-28.349;-50.440;-13.001;7.078;8.531;7.860
5445824.836;-53.048;-52.527;-40.606;-61.654;-25.816;1.453;-0.112;9.201
5445824.844;-46.566;-47.684;-34.310;-56.624;-15.646;4.694;1.378;10.505
5445824.852;-61.877;-63.926;-49.844;-70.669;-30.957;-12.815;-9.537;-9.239
5445824.860;-58.934;-57.518;-48.243;-61.803;-30.585;-15.199;-6.184;-8.792
5445824.868;-51.558;-49.025;-40.382;-51.782;-22.054;-9.127;2.459;-2.794
5445824.876;-52.080;-49.919;-40.531;-51.819;-21.830;-9.835;1.229;-3.204
5445824.884;-48.839;-46.007;-40.531;-46.156;-23.544;-8.792;0.484;-4.880
5445824.892;-48.801;-44.517;-44.070;-44.703;-25.742;-9.350;-2.794;-8.233
5445824.900;-29.206;-26.040;-24.922;-27.232;-7.749;9.052;9.649;15.944
5445824.908;-42.468;-41.872;-36.545;-44.405;-20.340;-2.757;1.788;-1.229
5445824.916;-48.280;-45.896;-42.021;-43.511;-23.022;-11.213;-1.974;-6.445
5445824.924;-40.345;-36.806;-33.230;-30.510;-11.101;-6.258;3.278;-0.075
5445824.932;-42.841;-42.021;-32.745;-37.476;-9.537;-6.892;1.751;-1.714
5445824.913;-48.578;-48.392;-36.880;-44.815;-14.044;-12.778;-6.594;-0.522
5445824.921;-47.199;-46.566;-36.471;-41.537;-16.093;-19.222;-9.350;-12.629
5445824.929;-27.791;-27.679;-16.913;-22.613;3.651;-8.568;6.780;-2.310
5445824.937;-13.970;-16.689;-3.316;-14.976;16.689;2.831;16.317;9.984
5445824.945;-19.260;-20.117;-8.494;-14.938;13.784;-3.278;9.574;3.651
5445824.953;-53.681;-51.558;-47.572;-44.815;-29.132;-33.453;-22.948;-28.685
5445824.961;-49.248;-48.131;-43.735;-42.841;-24.773;-30.324;-21.942;-20.191
5445824.969;-29.653;-27.269;-21.979;-18.217;0.633;-7.078;5.290;1.341
5445824.977;-37.141;-34.496;-28.871;-25.295;-4.731;-8.196;4.508;-1.006
5445824.985;-54.128;-52.303;-45.039;-45.858;-19.334;-22.985;-12.219;-13.150
5445824.993;-49.844;-49.509;-40.904;-43.996;-13.188;-16.019;-6.258;-7.674
5445825.001;-50.142;-49.025;-42.543;-43.400;-15.460;-5.588;3.278;0.186
5445825.009;-42.692;-39.190;-35.539;-29.914;-8.494;1.229;11.586;6.035
5445825.017;-40.308;-34.943;-33.639;-21.569;-7.600;2.347;11.660;3.539
5445825.025;-35.614;-32.596;-27.195;-21.681;-1.080;6.370;13.709;7.078
5445825.033;-47.684;-46.566;-39.078;-38.557;-13.225;-10.133;-3.316;-10.654
5445825.041;-51.595;-49.137;-42.543;-39.265;-17.434;-13.709;-4.135;-10.096
5445825.049;-63.777;-59.716;-55.730;-46.603;-32.149;-22.836;-12.107;-19.521
5445825.057;-49.248;-42.729;-41.462;-30.547;-17.621;-12.890;-1.378;-8.680
5445825.065;-44.443;-38.259;-36.247;-29.989;-13.970;-9.798;2.645;-4.992
5445825.073;-41.686;-36.806;-32.969;-28.312;-11.176;-10.394;-4.321;-3.390
5445825.081;-41.015;-34.645;-32.037;-26.971;-8.494;-14.268;-4.992;-18.030
5445825.089;-42.133;-34.533;-32.857;-26.375;-13.150;-11.921;-4.061;-14.007
5445825.097;-24.028;-15.572;-15.795;-6.147;1.602;4.247;11.809;8.084
5445825.107;-30.883;-22.538;-21.309;-15.013;-2.831;-1.155;5.551;3.465
5445825.115;-29.281;-23.320;-17.248;-17.434;-0.522;1.341;5.513;9.052
5445825.123;-30.808;-27.753;-16.019;-24.699;0.037;2.272;7.115;8.270
5445825.131;-29.914;-27.157;-15.236;-26.114;-1.825;5.662;11.884;5.811
5445825.139;-42.841;-38.370;-28.275;-37.700;-15.646;2.272;8.307;3.278
5445825.147;-48.056;-42.655;-31.330;-40.121;-15.050;-5.662;1.416;0.261
5445825.155;-28.387;-22.985;-12.256;-19.521;-0.261;6.743;8.419;18.813
5445825.163;-19.930;-13.188;-4.582;-9.984;4.768;4.247;6.333;17.583
5445825.171;-23.544;-20.228;-5.625;-21.309;5.178;-6.296;-3.912;3.427
5445825.179;-38.184;-34.496;-20.601;-35.390;-10.505;-23.916;-19.781;-21.197
5445825.187;-27.455;-23.730;-12.703;-22.724;-9.015;-6.370;1.043;-4.694
5445825.195;-18.440;-14.491;-3.986;-13.374;1.974;-0.857;7.711;1.900
5445825.203;-22.538;-16.689;-11.139;-13.672;-4.955;-4.396;5.364;-3.688
5445825.211;-31.404;-26.934;-19.521;-25.295;-14.976;-7.339;5.327;-6.035
5445825.219;-16.093;-14.678;-0.782;-11.995;6.258;7.339;14.789;13.262
5445825.227;-8.978;-8.903;6.072;-9.239;11.995;8.643;12.517;15.683
5445825.235;-11.660;-11.884;2.235;-13.039;5.998;4.917;12.293;15.683
5445825.243;-28.722;-25.854;-17.919;-25.742;-11.958;-17.323;-8.531;-12.591
5445825.251;-21.569;-18.924;-11.362;-19.670;-4.433;-21.793;-13.337;-15.721
5445825.259;-17.732;-15.795;-5.253;-13.337;1.974;-16.391;-5.215;-9.723
5445825.267;-20.750;-19.148;-7.153;-15.758;-1.565;-17.174;-10.058;-5.774
5445825.275;-13.001;-10.878;-0.931;-9.425;2.868;-3.316;-0.447;6.780
5445825.283;-27.120;-22.054;-16.950;-19.334;-15.497;-9.462;-1.974;-11.772
5445825.291;-20.564;-16.801;-6.407;-12.256;-0.484;1.341;14.007;-1.192
5445825.303;-15.199;-13.337;1.751;-10.841;12.293;13.784;23.469;18.217
5445825.311;-29.132;-27.791;-11.027;-23.730;1.490;0.596;6.072;2.943
5445825.319;-33.118;-28.461;-15.199;-19.595;-6.370;1.602;6.109;6.631
5445825.327;-27.157;-22.687;-9.872;-14.864;-3.055;3.129;9.649;10.468
5445825.335;-29.877;-28.089;-9.760;-23.916;-4.433;-14.231;-2.868;-7.637
5445825.343;-21.122;-17.025;-1.155;-9.686;1.676;-11.250;1.788;-9.723
5445825.351;-38.333;-34.086;-18.515;-26.710;-17.993;-25.295;-16.838;-24.214
5445825.359;-14.454;-8.196;5.998;-2.719;9.909;-8.568;-2.272;-1.341
5445825.367;4.061;15.274;23.767;22.016;22.091;2.161;8.158;17.062
5445825.375;37.327;52.340;57.556;55.470;47.684;10.505;19.632;24.661
5445825.383;57.034;77.114;73.537;75.884;53.756;-6.929;3.986;1.527
5445825.391;89.966;111.610;106.134;98.571;78.902;-12.629;-5.886;-5.737
5445825.399;103.600;125.170;120.960;104.494;87.246;-21.048;-15.162;-14.044
5445825.407;129.752;149.757;144.430;124.760;104.085;-19.297;-14.156;-10.803
5445825.415;162.013;183.433;177.659;158.064;137.202;-9.164;-3.241;-0.782
5445825.423;171.624;199.452;186.041;167.713;144.057;-3.651;4.321;7.823
5445825.431;158.772;184.290;173.338;152.886;130.571;-6.333;0.447;8.233
5445825.439;151.880;175.647;165.887;146.329;123.456;-5.886;2.608;4.955
5445825.447;117.272;137.873;128.075;113.100;88.736;-22.873;-13.895;-21.458
5445825.455;101.216;120.327;110.045;101.998;76.517;-17.136;-8.605;-15.981
5445825.463;106.655;126.101;112.541;112.616;85.421;0.708;8.643;7.600
5445825.471;103.116;122.339;106.953;108.480;84.043;8.605;18.068;18.589
5445825.479;80.504;99.726;84.527;86.166;62.659;-3.092;9.313;11.288
5445825.487;59.418;77.449;65.863;65.491;48.764;-8.382;7.860;4.061
5445825.527;42.096;58.897;49.397;52.117;38.482;-11.101;5.551;0.149
5445825.535;26.897;40.866;36.657;35.577;31.143;-12.256;1.304;-1.192
5445825.543;9.350;22.314;20.601;19.260;14.231;-20.564;-6.929;-10.617
5445825.551;-3.651;11.027;3.092;14.901;-7.339;-26.934;-12.890;-12.890
5445825.559;0.894;11.586;12.368;15.087;7.525;-7.711;6.147;8.345
5445825.567;-6.519;1.751;7.153;4.135;8.047;-6.147;7.562;1.974
5445825.575;-32.559;-27.008;-17.732;-25.034;-17.285;-15.683;-9.649;-5.551
5445825.583;-38.184;-32.857;-22.948;-31.777;-22.165;-17.062;-15.683;-9.499
5445825.591;-34.496;-28.498;-16.689;-26.114;-11.809;-7.004;-4.545;-3.502
5445825.599;-28.014;-20.564;-12.591;-14.454;-9.350;3.316;9.462;0.931
5445825.607;-33.453;-28.014;-18.217;-19.595;-12.517;0.559;9.574;-3.614
5445825.615;-48.764;-39.414;-38.594;-28.946;-33.714;-11.995;-4.955;-8.494
5445825.623;-42.766;-32.634;-35.316;-23.097;-32.820;-11.548;0.149;-7.413
5445825.631;-33.788;-27.604;-21.718;-18.664;-12.293;-0.857;12.293;10.319
5445825.639;-35.204;-28.610;-22.501;-18.887;-11.511;-5.737;6.333;6.668
5445825.647;-45.523;-42.729;-31.106;-35.651;-19.483;-24.624;-10.394;-22.501
5445825.655;-50.068;-46.454;-37.774;-38.296;-27.195;-21.346;-7.935;-17.434
5445825.663;-39.265;-33.267;-30.547;-22.016;-21.644;-7.190;3.763;-5.998
5445825.671;-38.072;-32.261;-28.983;-19.372;-18.999;-2.272;8.270;-1.714
5445825.679;-37.067;-31.143;-27.157;-19.036;-14.231;0.224;11.139;-1.341
5445825.687;-43.735;-38.669;-34.310;-28.871;-23.730;-10.096;1.676;-10.468
5445825.695;-39.600;-35.353;-31.292;-25.630;-21.495;-7.413;6.184;-1.602
5445825.703;-27.791;-24.736;-21.420;-14.715;-10.803;0.522;10.207;16.838
5445825.711;-18.440;-15.870;-12.517;-7.637;-2.533;1.378;12.405;8.047
5445825.695;-25.332;-24.177;-17.546;-16.503;-4.396;-7.823;4.843;-6.035
5445825.703;-26.040;-27.232;-16.503;-22.128;-4.880;-1.676;8.196;2.682
5445825.711;-35.912;-37.327;-27.381;-28.722;-16.876;-11.846;-1.453;-14.603
5445825.719;-15.385;-14.901;-10.878;-8.382;-2.421;-11.288;-0.075;-13.039
5445825.727;11.474;12.256;16.615;13.337;25.406;12.442;24.848;14.044
5445825.735;8.270;9.686;12.070;14.678;20.526;13.895;22.799;17.770
5445825.743;-23.171;-22.724;-16.168;-17.583;-6.370;-9.350;-3.129;-8.531
5445825.751;-15.609;-16.205;-8.494;-8.866;3.763;-0.894;6.333;3.353
5445825.759;-5.998;-3.614;1.788;3.465;10.207;14.566;20.899;19.558
5445825.767;-39.525;-35.539;-30.175;-24.997;-23.656;-12.964;-3.912;-13.001
5445825.775;-44.443;-42.431;-34.049;-31.553;-29.430;-17.695;-9.798;-15.870
5445825.783;-31.628;-31.702;-18.068;-21.234;-10.319;-3.390;3.017;-0.447
5445825.791;-41.686;-41.723;-26.897;-31.330;-19.483;-8.158;-2.198;-1.602
5445825.799;-32.336;-29.691;-19.036;-18.701;-13.895;-3.316;0.447;2.980
5445825.807;-30.026;-24.736;-18.515;-11.064;-20.042;-2.608;-0.484;3.725
5445825.815;-26.934;-25.630;-10.878;-16.429;-8.233;-2.570;0.149;6.631
5445825.823;-35.539;-34.273;-18.254;-27.120;-14.789;-9.425;-1.788;0.969
5445825.831;-24.512;-22.203;-4.806;-11.995;-3.129;-4.433;4.619;9.313
5445825.839;-33.416;-30.734;-11.809;-20.601;-11.660;-14.119;-4.135;-0.447
5445825.847;-52.005;-48.615;-30.510;-37.104;-32.634;-31.516;-23.283;-23.171
5445825.855;-40.121;-36.322;-16.280;-27.157;-20.564;-19.409;-14.119;-13.001
5445825.863;-25.257;-22.613;-2.645;-13.933;-8.717;-3.986;-1.080;6.407
5445825.871;-16.652;-13.262;7.153;-3.055;0.782;-0.559;3.763;6.966
5445825.879;-18.254;-11.921;5.849;0.000;-3.725;-8.456;0.484;-4.470
5445825.843;1.639;6.035;25.220;19.073;12.219;4.023;12.666;11.064
5445825.851;6.296;9.090;28.796;21.607;13.188;2.310;8.494;4.135
5445825.859;-7.600;-3.278;16.429;9.313;1.639;-9.164;-6.258;-5.551
5445825.867;-22.277;-21.011;5.588;-11.325;-9.164;-12.964;-11.399;-7.711
5445825.875;-4.284;-3.763;24.997;4.806;10.952;9.686;12.890;19.185
5445825.883;-16.056;-15.087;12.890;-7.302;-3.502;-6.892;-2.384;-6.557
5445825.891;-18.179;-17.360;10.394;-6.743;-9.499;-10.878;-8.456;-4.694
5445825.899;-12.182;-10.617;14.380;-1.080;-6.631;5.476;5.253;14.044
5445825.907;-9.649;-8.047;17.509;-0.633;-0.559;15.572;16.056;16.205
5445825.915;3.874;5.364;28.834;11.511;7.972;7.078;10.394;1.788
5445825.923;7.786;9.388;32.261;15.385;9.201;3.166;6.817;-0.969
5445825.931;6.966;7.115;33.714;12.331;13.299;8.084;10.133;7.600
5445825.939;1.639;3.614;28.908;8.792;9.388;7.376;10.170;7.935
5445825.947;-6.594;-3.055;21.383;2.682;0.112;0.969;5.253;3.912
5445825.955;1.937;3.725;32.261;10.505;10.431;4.321;8.047;11.735
5445825.963;5.029;5.811;36.098;10.207;14.938;2.123;5.476;7.823
5445825.971;-5.402;-2.682;22.389;3.986;2.086;-5.066;-0.149;0.894
5445825.979;-3.055;-0.745;25.965;8.047;8.196;5.178;10.245;13.746
5445825.987;6.966;11.697;33.863;23.656;16.429;16.913;23.358;21.160
5445825.995;-2.533;0.261;23.544;6.519;2.794;7.488;10.654;5.029
5445826.003;2.906;3.204;31.553;8.531;7.078;17.919;20.303;19.409
5445826.011;-10.952;-11.735;16.801;-5.327;-11.586;1.155;4.508;6.035
5445826.019;-14.789;-14.566;11.884;-6.929;-9.723;-8.009;-4.061;-0.410
5445826.027;3.502;0.447;34.161;6.668;19.446;4.694;10.319;19.111
5445825.995;0.149;-5.215;30.547;-0.037;13.672;4.396;11.809;21.197
5445826.003;-1.751;-6.817;29.616;-2.943;12.442;5.215;10.580;18.515
5445826.011;5.178;1.602;36.769;6.706;17.546;16.019;20.079;27.008
5445826.019;-0.298;-2.906;30.510;3.986;9.723;13.225;17.062;21.569
5445826.027;-8.047;-10.468;24.028;-4.135;2.310;4.061;3.539;9.947
5445826.035;8.531;4.768;41.686;9.313;21.011;16.987;20.191;23.060
5445826.043;5.402;2.570;39.153;6.892;20.042;11.809;20.042;21.495
5445826.051;5.700;3.688;37.998;9.127;17.434;12.852;21.867;24.922
5445826.059;6.109;5.104;34.384;10.952;13.895;9.909;19.297;18.775
5445826.067;-0.447;-1.043;29.951;3.912;11.623;-1.565;3.576;9.425
5445826.075;2.682;2.719;33.118;11.399;16.317;4.061;9.984;10.617
5445826.083;-0.671;0.708;27.493;12.368;8.009;11.437;13.672;20.340
5445826.091;-9.127;-7.041;17.583;7.115;-1.602;15.199;19.148;25.146
5445826.099;12.629;15.274;42.170;24.959;24.140;35.688;41.910;43.400
5445826.107;4.359;8.754;35.614;20.154;21.830;21.867;27.381;27.344
5445826.115;-24.214;-20.675;1.825;-8.456;-17.248;-11.586;-6.817;-8.866
5445826.123;-14.417;-12.666;14.193;-3.017;-2.049;-3.427;1.751;2.831
5445826.131;1.788;3.390;29.057;10.952;13.411;5.811;13.560;6.407
5445826.139;-0.149;2.123;22.464;11.437;5.290;1.900;9.499;5.141
5445826.147;4.135;7.786;27.493;19.930;12.703;9.425;18.813;16.540
5445826.155;8.978;13.784;31.479;27.344;15.497;13.039;19.781;20.117
5445826.163;5.476;10.207;26.673;20.824;6.035;13.150;20.824;22.650
5445826.171;11.921;16.019;32.000;22.128;16.764;21.867;25.891;29.765
5445826.179;4.284;8.307;24.140;14.603;9.835;9.015;10.394;13.970
5445826.294;22.650;27.530;41.537;35.837;25.034;23.805;27.008;26.561
5445826.302;36.322;39.674;54.240;47.535;36.694;26.822;27.716;33.453
5445826.310;26.748;28.312;45.709;34.273;27.977;10.617;12.890;14.976
5445826.318;34.682;34.980;54.874;42.245;37.551;11.772;17.472;15.795
5445826.326;38.333;38.445;54.650;44.219;33.192;13.858;19.521;20.303
5445826.334;45.449;45.151;62.138;51.595;43.549;18.999;25.854;27.828
5445826.342;45.188;43.474;63.926;51.185;53.570;14.454;18.626;25.518
5445826.350;36.955;35.092;54.911;39.972;41.761;7.413;9.499;13.821
5445826.358;39.935;40.606;54.426;45.709;36.918;10.729;12.368;15.162
5445826.366;57.817;59.418;73.016;64.634;59.381;26.040;27.791;33.975
5445826.374;57.407;59.828;70.445;66.161;54.911;22.464;23.134;27.083
5445826.382;49.733;50.180;65.565;54.799;51.111;14.417;16.317;15.087
5445826.390;52.601;53.532;69.402;57.295;55.246;15.236;18.701;22.948
5445826.398;53.383;55.395;68.657;61.430;53.532;14.901;17.323;27.604
5445826.406;49.584;51.744;64.112;55.432;48.056;11.474;12.219;20.079
5445826.414;55.991;58.301;70.035;62.063;52.936;16.876;17.658;26.785
5445826.422;43.549;47.609;55.954;55.060;40.196;3.800;6.370;7.488
5445826.430;46.231;47.870;59.977;54.464;47.460;9.462;11.958;12.852
5445826.438;60.834;62.585;76.033;68.918;65.826;21.122;20.377;32.857
5445826.446;54.315;57.593;67.502;68.992;55.507;14.827;16.019;22.650
5445826.454;53.942;56.960;65.006;69.179;53.830;16.652;19.670;20.042
5445826.462;58.971;60.648;67.204;68.620;55.730;19.707;22.613;24.699
5445826.470;66.981;70.594;75.437;79.796;64.820;24.587;26.524;27.344
5445826.478;73.761;77.374;82.441;88.066;71.377;29.355;32.820;31.330
5445826.487;79.684;84.378;86.986;97.193;73.202;32.708;37.812;40.755
5445826.495;79.796;82.739;91.083;91.344;79.833;35.688;36.173;46.566
5445826.503;64.373;70.110;72.494;80.094;56.885;26.636;23.916;32.857
5445826.511;66.869;73.127;76.666;86.017;65.565;28.424;27.008;32.634
5445826.519;74.841;82.292;86.427;96.150;73.574;40.196;40.606;46.901
5445826.527;71.824;77.337;86.650;89.295;73.351;45.598;43.027;47.460
5445826.535;46.790;53.458;61.244;65.789;47.609;25.816;22.464;21.011
5445826.543;46.194;54.985;58.301;67.949;43.139;28.871;25.630;27.530
5445826.551;48.168;58.524;59.269;72.718;40.904;34.682;27.418;38.669
5445826.559;28.275;36.582;42.990;46.268;21.830;16.838;11.027;25.295
5445826.567;23.022;30.808;40.084;42.133;20.377;7.339;3.912;15.050
5445826.575;39.674;47.870;57.556;60.275;39.451;19.148;17.621;18.366
5445826.583;42.878;50.329;62.250;61.654;42.804;20.675;19.744;20.079
5445826.591;33.192;40.010;54.240;51.744;33.006;11.623;6.706;16.652
5445826.599;39.302;45.486;59.642;54.352;32.559;26.375;18.813;30.287
5445826.607;55.023;60.797;79.982;65.491;54.836;41.649;32.969;46.007
5445826.615;56.736;63.851;82.888;70.482;54.352;41.090;34.906;45.374
5445826.623;19.372;24.810;46.454;29.653;14.007;-1.229;-5.364;-1.602
5445826.631;31.665;39.227;56.401;46.343;22.054;2.906;-3.800;3.651
5445826.639;52.229;60.126;76.182;67.651;36.806;21.011;15.832;25.444
5445826.647;51.148;57.966;78.529;61.542;44.294;25.295;17.956;30.585
5445826.655;55.768;60.871;84.788;60.201;49.248;33.975;25.369;36.173
5445826.663;44.219;49.286;74.208;50.999;39.563;27.232;20.824;28.424
5445826.671;53.458;59.269;82.403;63.889;42.617;35.428;31.330;32.671
5445826.682;39.190;45.523;69.365;49.509;26.226;22.762;15.534;18.664
5445826.690;32.336;40.419;62.212;43.735;21.271;17.732;13.076;15.944
5445826.698;28.908;36.098;63.516;38.408;29.393;17.770;15.534;21.271
5445826.706;33.677;41.537;68.843;42.357;32.261;22.426;21.383;25.444
5445826.714;35.465;42.543;69.477;43.139;30.994;19.558;16.056;15.497
5445826.722;36.322;40.568;73.165;42.841;37.514;24.922;17.993;20.601
5445826.730;30.622;34.794;68.881;37.663;29.989;26.710;20.489;22.352
5445826.738;25.108;29.765;62.250;28.573;24.140;26.263;20.601;23.022
5445826.746;18.440;22.575;55.321;21.532;21.532;13.784;10.990;12.368
5445826.754;22.724;26.710;57.109;26.934;22.389;13.933;13.225;12.405
5445826.762;25.406;30.510;60.908;29.802;29.244;13.784;12.144;12.368
5445826.770;31.553;36.694;66.459;35.539;34.757;17.770;11.809;19.297
5445826.778;23.469;27.940;58.897;27.306;27.604;10.356;3.204;13.188
5445826.786;26.748;31.590;59.977;31.963;28.908;13.486;7.823;19.111
5445826.794;27.269;31.032;58.375;28.722;27.344;20.377;10.133;26.450
5445826.802;20.191;24.401;50.925;21.271;18.254;20.787;12.256;17.621
5445826.810;17.732;22.613;49.360;21.718;17.993;18.999;12.107;13.039
5445826.818;28.796;33.006;60.275;32.336;26.524;30.957;30.138;27.977
5445826.826;20.042;25.518;48.541;25.071;16.503;24.289;27.865;22.799
5445826.834;14.864;20.936;43.400;22.873;14.901;20.564;22.873;20.377
5445826.842;0.931;3.874;31.069;3.241;3.800;-3.949;-7.786;2.645
5445826.850;-8.680;-4.768;21.756;-7.711;-7.413;-20.228;-26.114;-10.990
5445826.858;25.854;29.430;55.805;22.277;24.959;15.162;8.680;22.613
5445826.866;19.185;23.693;47.274;19.744;18.850;15.348;9.499;23.618
5445826.891;1.490;7.041;27.493;7.674;-2.868;2.012;0.298;7.525
5445826.899;1.304;6.035;27.604;5.588;-2.943;-2.123;-2.049;3.651
5445826.907;-5.923;-0.149;18.887;1.714;-14.231;-13.821;-14.007;-7.637
5445826.915;-3.465;4.210;19.595;9.872;-13.150;-15.236;-12.033;-9.798
5445826.923;-9.313;-4.806;19.595;-1.863;-6.892;-18.999;-13.635;-14.827
5445826.931;8.345;9.313;40.270;8.605;16.056;-2.645;-0.633;4.806
5445826.939;16.317;16.205;44.629;15.050;13.448;13.597;11.697;20.601
5445826.947;8.754;8.568;35.726;9.201;8.605;15.385;11.325;19.446
5445826.955;0.857;3.614;26.785;5.439;1.900;8.307;4.992;8.531
5445826.963;-0.782;2.719;25.928;5.849;0.894;8.680;1.565;10.803
5445826.971;-3.763;-1.155;26.263;0.820;2.943;3.465;-3.614;7.898
5445826.979;12.964;15.609;41.388;17.583;15.236;9.649;4.768;19.781
5445826.987;14.380;17.062;39.674;19.185;13.001;5.513;4.210;12.033
5445826.995;10.729;14.640;35.167;19.781;7.413;5.178;7.339;8.866
5445827.003;-6.445;-3.614;22.762;1.490;-0.112;-2.123;-0.149;-2.049
5445827.011;-12.331;-10.207;15.087;-9.537;-8.270;0.224;-1.229;-1.006
5445827.019;-5.923;-2.757;20.191;0.894;-5.327;10.990;8.307;13.262
5445827.027;-11.735;-8.158;13.895;-0.596;-11.362;7.823;6.258;10.207
5445827.035;-9.090;-3.800;15.236;0.745;-10.282;16.578;16.391;18.403
5445827.043;-1.043;4.731;24.661;10.356;-0.149;19.893;20.601;22.985
5445827.051;-18.999;-12.591;4.284;-5.588;-24.363;-8.345;-6.855;-6.370
5445827.059;-7.488;-1.602;14.715;3.465;-10.096;-1.714;-1.229;3.874
5445827.067;0.000;7.190;20.787;15.311;2.459;3.353;3.502;12.480
5445827.075;-11.958;-4.545;5.476;2.868;-18.179;-6.929;-8.382;3.912
5445827.193;-8.456;-5.625;11.921;-5.476;-9.686;-10.766;-10.207;-4.433
5445827.201;10.617;17.174;29.318;21.271;8.792;3.837;6.221;5.476
5445827.209;1.565;8.717;17.956;13.858;-4.694;6.296;5.774;7.488
5445827.217;-10.990;-3.166;5.960;2.049;-16.429;-6.855;-6.258;-5.066
5445827.225;3.427;11.846;17.919;14.603;-1.565;4.657;6.929;4.657
5445827.233;-0.335;8.084;13.411;10.580;-6.370;-2.384;-0.224;-2.496
5445827.241;-3.353;4.359;11.176;7.935;-8.270;-5.811;-4.843;1.639
5445827.249;9.164;16.987;20.377;21.197;-0.931;1.714;3.874;4.843
5445827.257;11.288;17.099;23.209;17.583;2.123;3.427;0.522;7.302
5445827.265;12.107;16.876;23.618;15.050;2.123;5.066;3.427;4.508
5445827.273;1.453;8.158;6.855;10.133;-20.154;-0.410;0.075;-3.055
5445827.281;7.898;15.348;13.821;17.881;-11.846;12.778;11.511;14.566
5445827.289;11.064;18.738;16.615;20.079;-2.123;12.182;8.419;14.603
5445827.297;17.509;24.997;23.879;25.034;8.419;14.491;11.660;17.844
5445827.305;16.652;26.785;20.899;30.547;5.849;11.586;9.127;15.870
5445827.313;10.617;21.048;14.864;25.891;-0.522;6.855;5.290;13.635
5445827.321;2.608;12.405;8.829;17.695;-7.115;2.794;2.049;9.760
5445827.329;-0.931;9.723;6.147;14.193;-7.413;-4.210;-6.296;4.880
5445827.337;-4.023;8.717;1.118;15.087;-10.841;-7.041;-7.674;-2.682
5445827.345;-5.737;6.594;-2.198;13.784;-14.603;-4.172;-4.768;-6.035
5445827.353;8.531;17.807;14.529;24.885;2.496;12.219;9.947;9.947
5445827.361;21.495;32.261;28.871;37.849;16.093;27.642;22.762;24.699
5445827.369;13.374;20.973;21.905;20.713;5.104;21.942;15.013;18.962
5445827.377;4.098;11.027;10.654;10.058;-8.419;8.531;1.416;6.668
5445827.402;-2.719;6.147;4.545;10.431;-7.860;-4.172;-8.717;-4.768
5445827.410;1.453;9.835;9.909;13.523;-4.321;-5.253;-10.729;-2.049
5445827.418;8.270;17.472;18.291;19.856;3.092;1.416;-3.017;4.955
5445827.426;5.737;15.423;15.311;17.583;0.298;-4.172;-12.182;0.186
5445827.434;-2.198;7.674;4.210;10.878;-11.846;-6.966;-14.044;-3.949
5445827.442;3.129;9.425;11.697;10.096;-4.321;0.820;-4.880;1.937
5445827.450;9.984;19.036;19.036;20.489;1.043;8.456;1.490;7.376
5445827.458;5.774;13.225;14.678;11.623;-11.101;10.952;2.310;12.480
5445827.466;-11.846;-5.513;0.522;-8.829;-23.060;-9.090;-18.850;-5.551
5445827.474;-9.425;-0.261;4.210;0.708;-11.139;-14.380;-22.687;-14.119
5445827.482;1.118;12.964;10.543;13.262;-10.133;-2.645;-9.835;0.820
5445827.490;-2.161;7.302;8.456;3.986;-13.001;-16.689;-27.344;-13.299
5445827.498;15.162;23.805;24.699;21.197;-2.123;0.633;-5.849;0.261
5445827.506;5.439;12.331;15.609;10.952;-13.225;-2.757;-7.227;-8.307
5445827.514;9.015;15.162;20.936;12.368;-9.462;-2.272;-13.113;-3.390
5445827.522;31.851;37.327;45.076;31.926;14.417;17.397;5.290;17.993
5445827.530;25.555;31.330;35.241;26.301;-3.316;9.574;2.608;6.929
5445827.538;24.214;28.834;36.024;21.197;3.427;1.229;-2.943;-0.969
5445827.546;31.330;36.284;41.611;28.461;7.227;7.376;2.608;3.874
5445827.554;49.509;54.017;61.095;45.747;24.959;11.623;6.072;8.494
5445827.562;74.394;81.696;85.980;69.924;45.560;13.970;7.674;9.574
5445827.570;90.301;101.812;105.351;82.329;56.662;2.570;-4.359;1.043
5445827.578;122.786;141.002;138.767;111.759;80.764;3.725;-3.576;4.023
5445827.586;162.385;185.594;175.647;151.135;108.816;3.912;0.633;0.969
5445827.507;186.563;212.342;199.638;171.885;128.150;-0.447;-0.633;-2.868
5445827.515;209.324;236.817;222.921;190.139;148.229;1.974;0.000;4.992
5445827.523;239.126;266.209;250.749;216.104;167.936;19.558;16.987;28.610
5445827.531;231.229;255.108;241.511;200.272;159.517;0.782;-6.445;2.608
5445827.539;224.449;248.253;232.793;195.876;159.517;11.288;3.837;10.319
5445827.547;194.609;220.090;194.348;177.696;120.811;1.453;0.149;-1.788
5445827.555;177.920;201.389;175.759;164.248;104.979;0.037;0.857;-9.760
5445827.563;162.199;181.161;163.466;142.865;108.890;-4.061;-6.221;-8.009
5445827.571;133.030;151.023;135.116;116.192;88.066;-8.903;-12.480;-6.929
5445827.579;101.365;119.321;99.652;89.742;55.730;-17.546;-21.271;-14.603
5445827.587;88.699;105.537;87.805;81.360;44.368;-13.746;-17.770;-7.488
5445827.595;79.386;95.405;80.019;74.357;42.766;-4.098;-7.190;1.751
5445827.603;63.367;78.529;63.181;57.854;30.696;-5.066;-10.245;-2.421
5445827.611;32.261;46.231;32.932;28.387;4.098;-25.630;-28.908;-24.699
5445827.619;27.940;39.041;30.361;20.042;-2.086;-21.569;-23.209;-22.240
5445827.627;18.366;28.908;24.028;11.511;-0.596;-10.841;-14.566;-7.153
5445827.635;22.128;31.963;26.301;16.838;2.198;2.310;-1.714;-3.800
5445827.643;22.314;30.920;25.965;14.827;-0.298;12.256;7.674;1.378
5445827.651;6.929;12.591;13.746;-4.694;-8.978;8.605;-0.484;-0.820
5445827.659;9.127;15.125;15.534;-1.863;-5.737;19.111;9.090;4.359
5445827.667;8.829;13.113;14.156;-4.061;-8.084;27.828;18.068;12.703
5445827.675;3.874;9.313;9.350;-6.370;-8.233;32.000;22.836;17.993
5445827.683;-12.480;-5.141;-9.388;-19.483;-26.897;12.070;4.955;-3.688
5445827.691;-9.649;-4.396;-5.104;-20.415;-21.607;10.394;2.682;-1.155
5445827.672;-7.413;-5.178;-1.229;-24.065;-15.721;5.700;-0.633;-2.608
5445827.680;-21.383;-16.838;-14.491;-34.794;-24.736;-1.229;-5.551;-7.078
5445827.688;-16.280;-8.717;-14.640;-23.991;-19.893;1.490;-1.155;-4.843
5445827.696;-12.331;-5.551;-10.729;-20.787;-15.162;1.006;-1.676;-5.662
