Timestamp,AFz,AF3,AF4,AF7,AF8,Pz,P3,P4,2024-05-16 11:44:42.574,fs=125
5445102.064;10.431;13.150;-19.968;36.396;-23.022;-1.453;16.727;5.849
5445102.072;11.660;14.938;-20.266;40.419;-21.160;4.694;22.911;13.486
5445102.080;7.451;10.394;-22.538;34.571;-22.389;-1.453;18.217;10.021
5445102.088;11.362;15.870;-17.211;40.196;-16.540;-4.955;16.019;10.245
5445102.096;18.701;22.613;-10.207;45.560;-6.482;-1.714;18.552;15.050
5445102.104;5.513;10.505;-21.309;35.912;-20.787;-15.125;4.321;-0.410
5445102.112;1.006;6.184;-24.103;31.888;-24.624;-17.472;1.825;-2.719
5445102.120;-2.012;1.378;-26.524;22.464;-24.773;-20.973;-3.725;-6.221
5445102.128;-0.447;2.459;-22.948;25.183;-21.979;-24.624;-8.978;-7.749
5445102.136;3.800;6.631;-17.695;29.840;-19.595;-18.887;-2.496;-5.327
5445102.144;10.654;14.491;-11.139;35.912;-15.087;-7.786;10.282;1.751
5445102.152;8.866;13.188;-13.337;33.714;-19.670;-6.407;11.772;0.224
5445102.160;3.837;7.637;-14.417;29.318;-20.750;-3.166;14.603;2.868
5445102.168;0.484;5.662;-17.099;30.249;-20.005;-0.373;15.497;4.396
5445102.176;-4.619;0.000;-22.873;24.587;-24.028;-3.017;10.580;3.353
5445102.184;-6.445;-1.080;-23.842;21.644;-25.816;-4.470;8.382;4.321
5445102.192;-5.402;1.714;-23.209;25.332;-25.705;-7.562;7.153;2.943
5445102.200;-10.058;-3.912;-28.536;18.552;-28.871;-20.564;-5.290;-5.774
5445102.208;-3.539;2.459;-21.309;23.767;-24.363;-17.062;-3.465;-2.682
5445102.216;-4.992;-0.857;-20.452;19.372;-26.524;-21.495;-7.488;-10.468
5445102.224;-0.261;2.570;-16.503;21.011;-23.283;-23.618;-9.798;-13.337
5445102.232;13.337;17.248;1.267;35.912;-5.439;-9.947;5.700;1.080
5445102.240;15.311;17.732;5.253;36.545;-2.384;-7.972;9.723;-0.931
5445102.248;9.835;10.505;0.000;27.008;-4.247;-8.196;9.798;-0.298
5445102.259;8.941;9.127;-0.782;25.518;-4.694;-5.178;16.093;7.115
5445102.267;4.880;7.041;-6.929;24.810;-11.511;-13.262;6.035;-1.974
5445102.275;13.188;15.721;0.596;32.037;-4.470;-14.342;2.645;-1.453
5445102.283;16.280;18.366;3.241;34.384;-1.006;-11.735;6.855;4.247
5445102.291;9.798;13.560;-1.267;29.951;-6.557;-15.795;0.186;-2.645
5445102.299;10.021;15.236;-2.421;31.181;-6.035;-11.772;4.396;-1.900
5445102.307;10.170;16.950;-3.278;33.006;-8.456;-8.643;7.711;-1.490
5445102.315;19.670;26.748;0.969;42.506;-2.272;-0.708;14.305;6.743
5445102.323;22.464;29.393;7.711;41.388;5.662;0.969;16.093;8.456
5445102.331;17.732;24.214;5.253;41.090;2.235;-6.296;7.227;3.725
5445102.339;14.864;17.770;-0.335;34.235;-0.820;-10.692;4.731;-1.937
5445102.347;16.838;18.887;4.396;33.863;2.794;-6.743;9.686;3.576
5445102.355;18.813;21.346;7.749;34.943;7.674;0.186;16.391;10.580
5445102.363;10.394;12.554;0.820;26.897;-1.602;-0.969;13.299;11.921
5445102.371;9.127;10.766;0.298;26.785;-0.373;-0.931;14.976;9.760
5445102.379;5.849;6.631;-5.104;20.340;-3.837;-7.637;7.674;-1.341
5445102.387;-1.490;0.075;-12.591;13.411;-8.158;-14.342;-0.820;-7.413
5445102.395;0.149;0.037;-6.668;11.995;-0.969;-16.876;-3.278;-9.686
5445102.403;-5.066;-6.743;-10.617;2.906;-6.929;-20.750;-9.052;-11.660
5445102.411;-4.284;-4.731;-11.958;4.992;-6.668;-14.566;-5.849;-6.594
5445102.419;1.490;1.788;-7.153;11.735;-3.539;-0.969;8.903;5.066
5445102.427;6.817;6.743;2.570;15.348;4.023;8.531;18.962;11.697
5445102.435;2.123;1.863;-4.210;10.766;-1.751;1.490;15.348;1.155
5445102.443;-10.394;-8.829;-18.589;3.874;-16.466;-11.958;2.608;-10.356
5445102.469;-9.686;-6.445;-17.919;5.774;-16.503;-9.760;5.104;-5.178
5445102.477;0.671;-1.341;-4.061;3.614;1.378;-11.250;1.974;-3.986
5445102.485;-1.155;-4.992;-4.061;-1.676;2.496;-16.466;-5.700;-7.488
5445102.493;4.619;2.645;-1.527;5.960;5.066;-11.437;-1.453;-4.247
5445102.501;-0.410;-1.192;-9.350;1.900;-2.906;-14.678;-3.241;-8.866
5445102.509;-6.109;-7.898;-11.995;-6.333;-5.998;-16.764;-5.849;-10.245
5445102.517;-3.204;-6.445;-7.562;-5.439;-0.037;-20.750;-8.680;-10.841
5445102.525;7.972;6.072;3.800;8.121;10.431;-18.440;-3.502;-8.792
5445102.533;3.353;2.421;-2.198;3.688;3.353;-21.495;-5.513;-12.629
5445102.541;1.937;0.149;-7.972;0.224;-1.006;-21.830;-6.407;-16.764
5445102.549;3.912;0.894;-7.823;1.267;1.602;-16.652;-2.645;-12.480
5445102.557;4.396;1.453;-4.210;1.155;4.657;-14.678;-2.049;-8.978
5445102.565;1.676;-0.820;-4.470;-1.900;3.316;-17.956;-7.562;-10.021
5445102.573;2.049;-0.149;-4.880;-1.304;3.316;-16.950;-8.643;-5.551
5445102.581;-4.545;-6.072;-11.362;-9.052;-2.123;-17.546;-7.115;-7.786
5445102.589;-4.582;-5.402;-12.442;-7.525;-1.863;-9.835;1.565;-2.608
5445102.597;2.533;2.421;-7.264;2.272;2.757;-2.757;9.686;5.774
5445102.605;2.831;3.390;-8.494;1.863;1.229;-10.282;5.513;-4.619
5445102.613;0.820;0.261;-6.184;-3.092;3.651;-16.838;0.261;-15.162
5445102.621;2.086;-0.037;-5.476;-1.080;7.600;-18.291;-2.272;-18.887
5445102.629;8.866;7.004;1.080;5.662;13.076;-11.101;2.608;-9.760
5445102.637;2.421;0.000;-5.402;-3.688;8.158;-10.766;1.006;-4.657
5445102.645;-10.207;-12.368;-18.664;-15.087;-1.639;-15.311;-3.874;-9.611
5445102.653;-18.403;-21.160;-27.195;-22.985;-10.133;-18.999;-9.909;-13.672
5445102.678;-25.705;-29.095;-32.783;-29.616;-17.360;-25.369;-17.546;-19.744
5445102.686;-22.128;-24.252;-31.739;-24.997;-17.397;-22.724;-13.672;-18.850
5445102.694;-17.695;-22.203;-26.785;-23.805;-9.723;-21.122;-11.027;-18.440
5445102.702;-6.631;-12.256;-15.385;-14.678;4.657;-12.778;-3.353;-9.276
5445102.710;-11.921;-16.578;-20.526;-18.924;0.335;-18.552;-9.723;-15.460
5445102.718;-10.058;-13.709;-22.985;-14.156;-2.086;-14.491;-5.662;-14.044
5445102.726;-18.068;-21.867;-28.983;-22.836;-13.225;-10.170;-0.149;-10.580
5445102.734;-24.699;-30.845;-32.857;-30.696;-14.827;-12.219;-2.943;-11.101
5445102.742;-34.869;-41.649;-42.170;-40.494;-22.426;-16.354;-9.798;-15.162
5445102.750;-29.430;-34.012;-38.110;-33.304;-17.285;-8.792;-4.955;-7.525
5445102.758;-16.913;-18.664;-26.748;-18.142;-4.321;-0.335;3.055;-0.596
5445102.766;-13.411;-14.678;-24.810;-15.832;-2.198;-0.894;3.837;-1.974
5445102.774;-13.970;-16.652;-23.879;-17.993;-1.714;-3.166;1.974;-5.290
5445102.782;-19.930;-22.650;-29.169;-25.183;-7.078;-9.760;-3.055;-8.307
5445102.790;-20.042;-22.762;-28.871;-26.152;-6.147;-13.001;-5.141;-13.150
5445102.798;-19.670;-22.054;-27.940;-25.146;-6.557;-14.752;-5.290;-17.509
5445102.806;-17.360;-20.862;-28.238;-21.346;-6.482;-7.935;1.378;-14.976
5445102.814;-16.168;-21.309;-27.381;-24.475;-1.416;-3.725;3.465;-8.196
5445102.822;-18.664;-23.469;-29.430;-26.897;-0.522;-6.892;-3.763;-8.717
5445102.830;-23.097;-27.344;-31.665;-31.181;-5.588;-13.299;-9.462;-14.417
5445102.838;-23.507;-27.418;-33.043;-31.069;-9.760;-12.740;-7.823;-13.486
5445102.846;-24.922;-26.934;-35.614;-29.914;-10.692;-12.480;-7.153;-12.182
5445102.854;-29.132;-30.845;-41.835;-31.926;-16.950;-12.368;-8.047;-10.654
5445102.862;-30.361;-32.410;-43.437;-32.820;-16.727;-8.792;-5.476;-8.382
5445102.903;-37.514;-39.451;-49.360;-40.308;-21.532;-11.697;-8.270;-12.033
5445102.911;-44.219;-45.151;-52.750;-48.131;-26.934;-15.385;-13.784;-16.466
5445102.919;-40.270;-38.706;-44.778;-37.551;-23.171;-9.537;-9.201;-11.176
5445102.927;-26.897;-25.928;-30.063;-25.406;-9.760;-0.894;2.906;-1.788
5445102.935;-26.859;-27.269;-31.143;-26.971;-8.494;-4.545;0.298;-4.582
5445102.943;-31.106;-31.590;-35.241;-31.292;-15.572;-11.660;-9.723;-12.144
5445102.951;-22.836;-23.879;-23.879;-26.710;-4.619;-2.645;-3.092;-3.614
5445102.959;-21.234;-22.687;-21.532;-24.699;-1.676;-2.384;-1.416;-5.700
5445102.967;-23.879;-25.854;-26.673;-31.367;-8.531;-5.476;-5.700;-9.425
5445102.975;-31.143;-33.192;-31.590;-39.712;-14.454;-10.505;-12.331;-11.697
5445102.983;-35.800;-37.663;-32.634;-42.655;-14.156;-12.890;-13.225;-15.311
5445102.991;-39.078;-40.755;-34.422;-44.629;-15.274;-11.027;-9.686;-16.987
5445102.999;-37.178;-39.227;-32.671;-42.319;-15.236;-13.523;-8.978;-19.670
5445103.007;-29.169;-31.590;-27.567;-32.671;-7.078;-16.093;-10.729;-20.489
5445103.015;-20.973;-23.246;-18.254;-25.593;0.186;-13.225;-7.488;-19.856
5445103.023;-16.056;-16.727;-12.219;-18.477;3.092;-7.749;-1.006;-12.927
5445103.031;-20.936;-22.687;-16.727;-24.326;-0.298;-13.821;-4.582;-18.254
5445103.039;-23.991;-24.512;-21.495;-24.103;-4.694;-16.056;-5.551;-23.693
5445103.047;-25.108;-25.779;-25.071;-26.748;-6.706;-7.637;1.378;-13.374
5445103.055;-26.524;-29.802;-21.048;-33.230;-1.639;-8.605;-2.235;-10.505
5445103.063;-26.561;-30.585;-18.254;-35.465;1.527;-13.076;-7.004;-12.517
5445103.071;-27.120;-30.249;-19.595;-34.608;1.304;-10.915;-2.719;-14.566
5445103.079;-29.355;-31.777;-23.060;-36.582;-1.937;-13.113;-5.364;-19.260
5445103.087;-26.487;-30.100;-17.658;-36.843;5.513;-10.356;-4.806;-13.560
5445103.055;-29.951;-33.230;-18.142;-41.649;6.557;-10.096;-5.476;-10.766
5445103.063;-40.270;-42.431;-29.877;-50.031;-6.072;-16.689;-11.288;-21.085
5445103.071;-40.568;-40.643;-33.490;-44.703;-9.760;-16.689;-11.884;-19.260
5445103.079;-39.861;-39.376;-31.628;-42.915;-5.551;-14.491;-11.660;-17.434
5445103.087;-37.476;-36.210;-29.989;-39.376;-3.614;-8.605;-6.258;-12.517
5445103.095;-34.608;-32.745;-26.487;-38.184;-0.410;-7.190;-6.817;-11.884
5445103.103;-36.694;-34.757;-28.200;-40.382;-3.614;-14.864;-12.703;-19.632
5445103.111;-44.554;-42.692;-36.173;-48.764;-11.027;-24.661;-20.675;-27.716
5445103.119;-46.976;-45.858;-38.035;-51.223;-12.219;-20.862;-16.503;-26.226
5445103.127;-40.680;-39.563;-35.726;-44.703;-12.964;-11.660;-6.221;-19.483
5445103.135;-34.086;-33.937;-27.455;-38.147;-3.502;-9.388;-4.880;-15.423
5445103.143;-32.522;-34.161;-26.487;-40.084;-2.086;-9.947;-5.327;-16.652
5445103.151;-32.075;-35.539;-26.673;-43.511;-3.017;-11.697;-4.321;-17.881
5445103.159;-30.547;-30.994;-23.097;-37.663;2.608;-6.780;1.974;-13.597
5445103.167;-30.957;-31.292;-23.730;-36.769;2.794;-6.706;0.112;-11.809
5445103.175;-33.490;-35.763;-26.077;-39.786;1.006;-7.898;-3.800;-14.380
5445103.183;-37.812;-40.717;-30.138;-46.492;-2.272;-6.035;-4.433;-14.976
5445103.191;-39.861;-39.749;-32.224;-46.529;-2.310;-0.671;1.080;-11.101
5445103.199;-33.230;-32.932;-25.891;-41.164;-1.453;2.310;4.321;-8.978
5445103.207;-28.200;-33.267;-22.054;-39.525;0.484;-3.129;-2.198;-11.176
5445103.215;-29.914;-32.559;-19.670;-38.072;6.147;-5.625;-4.992;-13.337
5445103.223;-39.823;-39.972;-26.599;-45.225;0.410;-11.399;-7.153;-20.675
5445103.231;-40.270;-39.786;-32.485;-46.343;-2.533;-11.921;-6.258;-20.154
5445103.239;-45.225;-45.113;-45.337;-48.913;-8.941;-13.560;-9.760;-22.873
5445103.248;-41.984;-39.749;-36.545;-47.758;-13.001;-15.609;-12.778;-24.289
5445103.256;-36.806;-31.367;-29.877;-39.227;-7.115;-5.327;-3.390;-14.007
5445103.264;-35.092;-32.447;-28.983;-41.313;-3.949;-1.267;0.149;-11.176
5445103.272;-32.112;-33.490;-21.793;-41.835;2.608;1.676;0.894;-5.849
5445103.280;-30.398;-33.267;-22.389;-42.729;4.321;3.204;0.224;-3.055
5445103.288;-41.537;-45.225;-33.528;-55.358;-7.898;-16.801;-17.360;-24.810
5445103.296;-37.104;-39.153;-30.287;-47.870;-5.774;-17.360;-16.913;-26.226
5445103.304;-36.918;-36.731;-31.814;-45.225;-5.402;-17.472;-16.503;-26.114
5445103.312;-37.625;-37.253;-33.565;-45.858;-2.608;-17.174;-15.125;-24.624
5445103.320;-38.259;-40.308;-28.051;-48.354;-0.522;-14.752;-13.150;-22.165
5445103.328;-37.551;-41.537;-27.157;-49.993;0.112;-15.087;-13.895;-25.108
5445103.336;-33.192;-37.700;-23.805;-47.274;3.055;-9.909;-9.350;-19.260
5445103.344;-32.261;-35.875;-21.942;-46.864;6.966;-4.992;-6.296;-11.995
5445103.352;-35.465;-38.780;-23.730;-48.727;3.092;-3.316;-6.370;-9.723
5445103.360;-42.655;-46.156;-32.410;-55.395;-7.339;-7.972;-12.927;-15.013
5445103.368;-40.270;-43.176;-32.857;-51.819;-4.731;-7.227;-10.096;-16.093
5445103.376;-37.551;-37.588;-30.510;-43.213;-3.166;-9.201;-8.903;-18.924
5445103.384;-43.064;-42.245;-34.049;-47.721;-5.476;-17.695;-15.981;-26.710
5445103.392;-42.878;-44.480;-36.843;-50.180;-7.898;-16.652;-14.305;-26.077
5445103.400;-47.386;-48.056;-43.102;-54.650;-13.523;-15.758;-13.560;-23.954
5445103.408;-46.566;-46.268;-43.586;-52.750;-15.907;-18.589;-17.732;-26.897
5445103.416;-39.451;-39.935;-34.720;-46.790;-7.153;-13.486;-14.901;-21.346
5445103.424;-32.522;-33.341;-25.518;-42.915;2.906;-6.966;-9.798;-14.566
5445103.432;-33.155;-32.745;-26.003;-43.586;2.757;-9.239;-10.468;-18.328
5445103.518;-26.487;-24.997;-21.048;-33.714;8.121;-2.123;-3.055;-13.821
5445103.526;-24.810;-24.326;-21.458;-34.757;8.270;0.633;0.075;-10.878
5445103.534;-25.220;-26.152;-25.071;-37.141;6.519;-2.645;-4.135;-15.236
5445103.542;-25.257;-26.673;-24.214;-37.551;4.619;-2.570;-3.800;-16.242
5445103.550;-18.664;-19.521;-14.901;-30.175;16.131;5.029;5.253;-7.153
5445103.558;-31.888;-33.118;-27.306;-45.039;1.974;-4.843;-3.837;-18.068
5445103.566;-39.376;-39.823;-36.322;-49.025;-7.115;-12.517;-11.921;-21.756
5445103.574;-36.098;-36.173;-33.379;-43.623;-2.906;-11.995;-13.150;-20.526
5445103.582;-30.883;-30.510;-25.593;-38.818;5.104;-2.906;-4.880;-14.156
5445103.590;-28.908;-34.682;-25.295;-44.517;7.115;2.757;0.633;-9.425
5445103.598;-26.375;-29.765;-25.854;-41.947;4.470;4.247;1.229;-8.233
5445103.606;-27.530;-27.269;-24.997;-41.276;2.235;4.061;-1.304;-8.903
5445103.614;-22.203;-22.091;-18.179;-36.024;9.425;6.929;3.725;-7.004
5445103.622;-23.432;-24.177;-18.999;-37.514;8.866;7.227;8.456;-6.407
5445103.630;-34.720;-34.235;-29.542;-44.107;-1.453;1.788;0.857;-10.319
5445103.638;-38.557;-39.004;-34.384;-47.535;-6.258;2.682;-3.800;-9.462
5445103.646;-36.284;-36.806;-30.138;-47.907;-4.172;0.559;-5.253;-14.454
5445103.654;-31.106;-30.585;-24.140;-42.245;-2.645;4.396;0.335;-13.448
5445103.662;-30.920;-31.404;-23.991;-42.394;-1.639;2.384;-2.310;-15.572
5445103.670;-23.618;-24.512;-15.087;-33.937;10.245;5.290;1.118;-12.256
5445103.678;-21.011;-21.867;-14.976;-31.888;8.233;11.250;8.941;-6.743
5445103.686;-29.653;-31.739;-21.569;-43.027;-1.341;4.806;3.353;-13.895
5445103.694;-26.412;-28.498;-19.781;-39.339;4.135;7.376;4.843;-9.425
5445103.702;-16.689;-17.770;-11.064;-28.983;12.144;20.117;16.280;6.743
5445103.772;-20.526;-20.079;-10.356;-28.946;8.419;17.174;11.399;4.582
5445103.780;-26.710;-25.816;-15.758;-34.720;3.241;6.184;1.080;-9.127
5445103.788;-28.983;-28.759;-16.801;-37.439;2.496;0.522;-3.502;-14.752
5445103.796;-31.777;-32.112;-18.068;-41.574;0.671;-2.757;-6.147;-17.695
5445103.804;-27.530;-27.157;-15.199;-36.210;4.694;2.831;-1.192;-13.113
5445103.812;-26.897;-23.581;-14.193;-30.287;4.023;4.955;0.373;-10.096
5445103.820;-24.661;-20.564;-14.715;-28.349;2.570;5.476;0.261;-8.605
5445103.828;-22.948;-24.475;-14.454;-35.428;4.955;3.912;-0.373;-13.374
5445103.836;-23.544;-26.114;-12.591;-38.445;7.339;4.917;0.559;-13.113
5445103.844;-23.022;-23.283;-11.213;-35.651;7.153;4.321;-2.049;-11.958
5445103.852;-25.779;-25.481;-14.938;-36.918;3.316;1.788;-4.172;-13.299
5445103.860;-21.793;-22.091;-10.245;-33.565;6.370;2.570;-2.235;-12.293
5445103.868;-24.550;-26.375;-12.033;-38.035;1.639;-1.490;-6.780;-17.881
5445103.876;-26.859;-27.195;-16.242;-37.961;-2.421;-2.496;-10.878;-16.205
5445103.884;-25.705;-25.295;-14.193;-35.875;2.161;-2.794;-12.033;-15.795
5445103.892;-25.630;-25.630;-15.832;-33.565;-2.123;-3.427;-12.591;-16.578
5445103.900;-24.214;-26.301;-13.821;-36.731;1.267;1.043;-7.451;-14.342
5445103.908;-25.332;-29.989;-15.758;-44.070;2.161;2.272;-4.508;-15.832
5445103.916;-22.650;-27.046;-13.597;-39.786;2.235;3.502;-3.874;-16.540
5445103.924;-24.289;-26.673;-11.846;-37.700;-0.820;-1.192;-7.488;-20.340
5445103.932;-26.599;-29.355;-16.168;-39.898;-3.912;-2.794;-9.798;-19.632
5445103.940;-26.859;-29.169;-18.030;-42.543;-3.204;1.937;-4.470;-12.182
5445103.948;-26.599;-26.897;-18.030;-39.451;-2.198;3.874;-4.210;-6.557
5445103.956;-26.636;-24.959;-21.197;-36.471;-5.998;0.522;-8.792;-13.039
5445103.952;-29.989;-31.218;-22.799;-45.225;-9.537;-4.955;-13.635;-21.942
5445103.960;-29.020;-29.691;-22.054;-42.953;-11.511;-1.974;-12.740;-19.670
5445103.968;-27.716;-29.169;-22.352;-41.611;-10.096;7.711;-2.049;-11.995
5445103.976;-30.212;-31.590;-22.091;-41.388;-10.729;7.637;2.459;-12.480
5445103.984;-27.567;-28.759;-19.781;-37.923;-7.823;6.445;0.447;-13.970
5445103.992;-19.819;-21.346;-10.245;-33.490;1.229;8.978;2.198;-11.958
5445104.000;-18.030;-20.564;-9.127;-33.267;2.719;9.984;1.155;-11.958
5445104.008;-16.801;-19.856;-8.792;-32.671;5.700;16.540;5.513;-7.339
5445104.016;-10.915;-14.752;-3.576;-28.461;8.419;25.183;13.560;3.278
5445104.024;-17.472;-18.366;-12.740;-33.453;-1.118;21.569;10.133;0.447
5445104.032;-22.165;-21.905;-19.148;-34.943;-6.706;17.956;9.201;-5.774
5445104.040;-26.561;-25.593;-25.891;-39.078;-10.431;16.987;8.754;-4.210
5445104.048;-27.642;-27.642;-20.526;-41.127;-4.210;17.658;6.855;-1.974
5445104.056;-27.716;-26.673;-17.360;-37.514;-1.267;15.944;2.496;-2.719
5445104.064;-23.171;-21.309;-13.933;-31.143;-3.465;17.062;0.857;-2.608
5445104.072;-15.944;-15.385;-9.909;-27.940;1.304;18.366;4.321;-1.565
5445104.080;-21.756;-22.352;-16.913;-35.539;-3.725;8.568;-2.868;-9.611
5445104.088;-23.730;-25.108;-18.142;-36.918;-5.215;7.935;-3.651;-8.307
5445104.096;-22.799;-24.326;-19.558;-36.992;-6.035;11.474;-0.410;-4.657
5445104.104;-21.942;-21.048;-21.346;-34.422;-8.494;11.921;1.118;-6.892
5445104.112;-20.005;-19.595;-20.303;-33.416;-7.227;14.417;4.098;-4.955
5445104.120;-23.991;-25.593;-21.681;-40.643;-7.339;7.115;-3.949;-8.419
5445104.128;-24.699;-27.344;-21.048;-43.400;-5.886;5.513;-4.694;-8.531
5445104.136;-22.687;-24.140;-23.469;-39.563;-5.588;10.431;1.267;-7.562
5445104.117;-23.581;-22.985;-20.862;-35.800;-6.892;17.025;7.190;-3.614
5445104.125;-25.555;-27.344;-18.962;-42.133;-3.353;12.778;2.086;-8.568
5445104.133;-27.157;-30.212;-21.756;-45.337;-3.390;9.499;-0.447;-10.170
5445104.141;-22.389;-23.842;-18.701;-36.992;-2.943;12.256;0.447;-5.886
5445104.149;-20.228;-23.134;-14.640;-36.657;1.863;8.605;-2.757;-7.413
5445104.157;-16.764;-21.234;-14.640;-34.496;4.992;8.456;0.186;-6.594
5445104.165;-8.456;-12.666;-4.880;-26.897;13.597;13.523;4.545;0.671
5445104.173;-13.858;-16.578;-5.141;-32.596;11.250;6.892;-1.304;-6.557
5445104.181;-7.600;-10.766;0.708;-26.412;18.440;11.511;0.149;-2.235
5445104.189;-7.935;-12.964;-1.155;-29.542;15.385;10.096;-3.912;-4.768
5445104.197;-14.827;-20.266;-11.548;-35.092;5.774;6.147;-6.258;-10.133
5445104.205;-14.044;-17.956;-11.474;-30.547;5.774;9.276;-0.931;-6.668
5445104.213;4.135;3.055;3.055;-10.207;14.566;17.658;8.196;0.596
5445104.221;4.955;3.278;3.465;-10.170;13.560;18.105;9.723;-3.837
5445104.229;4.284;3.316;1.006;-8.307;11.399;19.856;12.033;-1.602
5445104.237;2.980;2.459;-1.602;-8.754;8.754;22.762;14.640;1.229
5445104.245;5.402;6.109;-0.894;-5.588;9.686;22.426;13.001;-1.155
5445104.253;5.476;7.488;-1.527;-3.651;13.895;22.873;14.976;0.969
5445104.261;-1.565;0.596;-5.737;-10.766;5.849;22.277;13.523;2.198
5445104.269;-8.158;-7.339;-10.394;-15.423;2.757;18.142;8.121;2.831
5445104.277;-9.425;-10.617;-16.093;-19.856;1.378;17.248;6.407;1.527
5445104.285;-8.047;-10.505;-15.199;-21.607;1.192;20.042;11.027;-1.229
5445104.293;-2.719;-4.433;-9.239;-15.981;3.017;26.077;16.876;0.186
5445104.301;-1.080;-2.235;-8.978;-12.480;2.794;30.249;19.334;5.923
5445104.298;-9.388;-11.623;-17.583;-19.781;-1.043;24.736;15.497;-0.820
5445104.306;-8.866;-14.231;-13.746;-24.438;1.118;23.879;14.193;-0.745
5445104.314;-2.161;-9.462;-1.192;-20.601;8.680;26.263;14.640;2.645
5445104.322;3.688;-2.161;4.955;-11.921;15.981;28.983;20.228;8.419
5445104.330;-4.172;-9.052;-2.086;-16.987;7.600;27.530;20.489;9.760
5445104.338;-17.062;-23.395;-14.752;-29.951;-5.178;17.807;10.617;1.490
5445104.346;-15.870;-21.644;-13.039;-27.642;-2.012;13.411;6.184;-3.912
5445104.354;-13.746;-18.477;-10.058;-25.593;1.118;9.350;3.055;-7.302
5445104.362;-3.017;-6.519;1.080;-14.380;9.015;10.841;6.072;-6.296
5445104.370;4.843;2.980;10.207;-3.465;12.219;17.323;12.778;-2.459
5445104.378;4.135;2.235;8.419;-2.198;10.692;20.899;15.236;-1.080
5445104.386;3.316;0.745;6.706;-4.694;10.431;22.650;14.417;-0.633
5445104.394;-2.161;-6.035;3.390;-14.529;8.568;19.409;9.239;-5.625
5445104.402;-3.092;-7.711;6.706;-16.131;11.995;15.460;5.364;-5.811
5445104.410;-3.725;-8.270;5.998;-16.019;10.841;11.325;2.086;-8.233
5445104.418;-7.488;-10.431;3.204;-18.664;6.780;12.144;3.017;-6.966
5445104.426;-13.225;-13.709;-3.539;-22.352;0.931;13.560;4.247;-6.407
5445104.434;-12.070;-15.423;-6.594;-24.028;0.112;13.225;2.682;-7.451
5445104.442;-8.941;-13.188;-1.453;-21.867;0.596;14.938;5.253;-5.849
5445104.450;-9.052;-12.033;0.000;-19.036;2.459;17.621;8.903;-2.645
5445104.458;-10.990;-13.001;1.080;-19.595;3.017;20.377;11.250;1.043
5445104.466;-13.113;-13.933;-1.937;-19.595;1.378;22.128;12.107;-0.484
5445104.474;-8.419;-8.978;4.135;-14.044;6.482;30.063;20.266;5.029
5445104.482;-4.768;-7.041;6.333;-12.293;8.456;29.467;21.048;2.906
5445104.478;-1.453;-4.917;10.058;-9.872;12.331;32.224;21.160;6.780
5445104.486;-2.049;-6.333;9.947;-9.947;13.486;24.289;12.964;0.075
5445104.494;-5.476;-9.127;6.668;-13.784;10.692;21.979;10.245;-3.390
5445104.502;-2.086;-6.147;11.176;-15.460;13.784;27.679;15.870;2.719
5445104.510;-4.396;-7.860;9.909;-16.168;10.915;31.590;20.117;8.754
5445104.518;-3.576;-8.903;6.482;-16.466;11.399;25.891;13.672;4.619
5445104.526;5.960;-0.596;14.082;-10.841;20.750;22.464;10.170;0.335
5445104.534;12.070;8.829;28.573;-0.633;25.257;24.252;13.821;-1.527
5445104.542;17.360;13.299;32.559;2.123;27.344;25.518;15.795;2.570
5445104.550;14.566;6.035;27.902;-4.843;22.426;17.732;8.605;-2.421
5445104.558;12.480;4.582;25.705;-5.104;24.848;18.887;7.860;-1.490
5445104.566;12.964;5.998;25.779;-5.253;27.306;22.762;12.778;1.267
5445104.574;18.254;11.250;29.877;1.900;29.951;28.685;18.850;5.700
5445104.582;20.787;14.603;32.522;7.004;34.608;31.963;21.644;9.649
5445104.590;5.327;0.037;14.864;-8.233;18.664;27.083;16.391;4.210
5445104.598;2.310;-2.906;13.635;-11.809;14.342;31.181;19.297;7.302
5445104.606;2.719;-3.651;14.603;-13.709;18.477;32.410;20.303;6.296
5445104.614;4.284;-1.751;16.391;-13.635;20.079;36.024;24.997;7.935
5445104.622;2.310;-3.651;13.858;-15.870;17.434;39.116;25.481;10.803
5445104.630;5.215;-1.863;14.752;-16.429;18.552;45.784;30.361;18.440
5445104.638;9.239;2.533;14.603;-12.554;17.844;48.429;35.688;25.667
5445104.646;-1.378;-7.115;8.605;-21.756;7.190;35.949;27.791;14.827
5445104.654;-7.078;-11.101;3.204;-23.469;3.092;27.344;20.526;6.780
5445104.662;-8.009;-12.442;0.745;-24.959;6.035;26.412;20.042;7.860
5445104.704;-13.709;-16.466;-7.376;-29.132;0.857;19.111;12.219;4.657
5445104.712;1.378;-3.874;7.637;-16.950;10.729;24.140;15.795;8.456
5445104.720;13.635;5.439;23.656;-9.537;22.091;29.616;20.824;12.331
5445104.728;9.723;2.086;20.452;-14.082;20.154;29.877;20.377;9.537
5445104.736;9.350;1.565;18.142;-14.678;18.775;35.390;24.550;14.454
5445104.744;7.525;2.608;12.703;-10.952;12.703;38.520;27.306;16.615
5445104.752;6.892;4.061;12.964;-10.952;13.337;43.996;31.628;18.179
5445104.760;3.204;-0.186;9.723;-15.832;10.692;44.443;30.585;17.248
5445104.768;5.215;0.671;8.978;-15.125;10.580;47.758;31.479;22.054
5445104.776;4.284;-1.043;7.339;-16.168;11.474;49.807;33.751;22.538
5445104.784;-5.662;-9.909;-5.700;-20.675;-2.086;50.515;32.596;21.197
5445104.792;-11.884;-15.721;-3.576;-25.816;-7.227;46.343;29.430;14.976
5445104.800;-12.591;-15.907;-4.321;-26.524;-4.172;42.729;27.344;10.841
5445104.808;-11.660;-15.087;-5.551;-27.791;-3.055;43.325;27.418;11.772
5445104.816;-10.766;-14.789;-4.433;-27.865;1.118;42.021;24.959;8.903
5445104.824;-8.233;-12.107;-1.490;-23.805;5.178;42.953;25.705;11.586
5445104.832;-6.706;-8.345;-1.825;-17.993;7.786;46.492;27.567;15.125
5445104.840;-0.820;-4.172;4.470;-13.188;10.692;49.174;29.951;17.993
5445104.848;7.190;1.937;11.511;-7.786;17.323;51.223;31.926;20.750
5445104.856;12.442;7.525;14.342;-5.253;25.332;49.993;31.181;17.881
5445104.864;15.460;10.990;13.858;-2.459;28.796;50.850;32.447;20.526
5445104.872;13.411;9.164;16.578;-4.470;27.120;48.056;28.685;19.632
5445104.880;11.548;6.482;16.913;-6.855;23.395;49.882;30.510;22.911
5445104.888;9.984;3.390;13.895;-12.107;20.377;46.790;27.008;21.234
5445104.913;13.486;7.860;20.564;-7.711;30.100;45.225;26.077;18.403
5445104.921;16.987;13.448;20.340;0.298;32.932;43.064;24.959;13.486
5445104.929;13.262;9.499;12.927;-5.737;27.381;39.823;19.558;8.866
5445104.937;9.499;3.576;11.325;-13.374;24.885;34.906;13.076;7.451
5445104.945;8.978;1.676;11.474;-14.752;22.911;33.863;11.139;9.350
5445104.953;8.196;1.304;8.419;-15.758;19.148;36.843;13.821;10.133
5445104.961;9.909;3.725;7.190;-11.325;23.618;44.107;21.309;16.913
5445104.969;6.892;1.527;5.588;-10.654;20.936;42.282;18.813;14.864
5445104.977;4.098;-1.639;7.004;-16.019;19.521;40.606;16.168;12.815
5445104.985;1.080;-4.470;4.247;-17.621;16.466;41.761;16.689;12.517
5445104.993;7.190;1.863;8.345;-11.735;20.042;43.251;19.446;14.417
5445105.001;9.015;3.316;8.531;-9.388;18.962;33.826;10.356;4.768
5445105.009;15.460;10.990;15.907;-2.645;26.003;37.327;13.374;4.470
5445105.017;18.477;14.417;18.142;1.565;30.100;41.723;16.727;10.394
5445105.025;13.709;8.531;14.305;-3.614;26.561;41.574;14.454;12.219
5445105.033;13.672;6.817;18.626;-7.190;26.524;43.064;14.715;15.758
5445105.041;13.448;7.451;19.856;-5.476;24.959;45.896;17.397;16.727
5445105.049;19.297;13.262;26.077;0.149;30.585;53.607;25.146;24.363
5445105.057;13.821;7.860;19.185;-5.327;26.487;50.105;22.687;18.403
5445105.065;13.448;6.631;20.638;-6.333;27.083;51.558;26.114;18.291
5445105.073;7.562;1.751;17.770;-10.468;22.650;50.738;24.587;16.056
5445105.081;6.072;0.335;16.429;-12.666;24.028;47.944;19.819;15.348
5445105.089;3.017;-3.017;10.878;-14.119;13.039;37.774;9.537;5.141
5445105.097;4.880;-1.043;10.952;-12.293;15.423;33.341;5.662;1.490
5445105.093;7.264;2.459;11.735;-9.723;19.372;33.788;6.370;3.316
5445105.101;13.076;9.201;23.916;-3.092;24.848;42.059;13.560;9.611
5445105.109;17.062;13.374;28.238;2.608;28.498;44.890;17.546;11.697
5445105.117;18.217;14.231;29.281;2.831;28.275;42.766;15.907;11.660
5445105.125;17.211;12.703;29.169;2.570;28.089;38.221;12.480;4.061
5445105.133;16.540;12.927;27.716;3.092;29.132;35.092;9.947;1.900
5445105.141;12.852;7.860;23.879;-2.272;26.077;28.871;2.943;-0.149
5445105.149;9.835;3.763;21.607;-7.637;22.687;26.710;-0.633;-1.453
5445105.157;14.305;9.909;25.332;-1.825;24.922;33.602;5.215;4.955
5445105.165;13.784;9.611;21.234;-1.974;22.314;32.559;3.651;4.433
5445105.173;14.715;9.164;23.060;-3.800;23.991;34.273;5.551;4.359
5445105.181;21.383;14.342;32.559;1.825;32.894;43.884;15.013;10.356
5445105.189;15.162;7.935;21.607;-3.837;24.736;42.170;14.082;10.058
5445105.197;5.737;-1.267;19.334;-13.858;18.366;37.774;8.121;5.402
5445105.205;8.382;-0.037;21.085;-11.809;17.621;39.302;10.394;4.284
5445105.213;11.921;3.800;20.824;-8.978;15.832;44.368;15.162;8.754
5445105.221;12.033;5.402;20.564;-7.898;20.787;52.303;22.575;16.019
5445105.229;1.639;-3.800;11.697;-13.299;13.709;46.417;15.795;7.190
5445105.237;3.278;-1.788;13.262;-12.107;12.480;47.497;18.030;8.605
5445105.245;3.912;-0.373;11.995;-11.213;12.591;43.176;15.683;5.923
5445105.253;10.431;5.513;17.844;-4.508;16.317;48.950;20.191;13.225
5445105.261;13.746;6.370;21.309;-4.843;20.191;49.435;21.942;12.554
5445105.269;1.751;-5.923;9.835;-18.179;13.001;35.614;8.792;0.224
5445105.277;5.662;-1.378;17.695;-15.870;19.036;42.729;12.033;8.717
5445105.244;11.548;5.141;18.701;-6.966;18.291;50.217;18.962;13.225
5445105.252;20.191;14.305;24.103;2.794;20.266;53.644;23.656;14.827
5445105.260;18.589;11.623;29.616;-0.931;23.842;47.646;17.062;11.139
5445105.268;13.784;7.600;25.630;-4.694;21.197;44.517;11.995;8.307
5445105.276;11.250;7.339;17.360;-4.247;11.362;46.380;12.927;11.362
5445105.284;14.566;9.909;18.068;-2.123;13.299;46.864;15.236;11.027
5445105.292;16.876;12.591;21.309;-0.261;18.142;45.821;15.348;10.282
5445105.300;15.870;12.703;18.664;1.304;14.864;43.251;13.150;5.178
5445105.308;14.231;9.462;16.168;-3.688;14.156;48.131;18.738;5.215
5445105.316;9.760;4.284;12.703;-7.004;11.846;49.137;19.893;8.792
5445105.324;8.829;2.719;9.499;-7.711;11.176;48.615;19.260;9.798
5445105.332;11.176;5.849;14.044;-6.668;11.660;51.148;21.011;13.076
5445105.340;1.900;-3.539;8.456;-16.578;8.568;39.190;7.004;3.614
5445105.348;5.290;-0.186;11.660;-13.299;11.064;41.835;9.537;6.594
5445105.356;13.076;8.047;18.924;-4.582;17.323;53.942;21.718;14.864
5445105.364;15.423;9.276;21.234;-5.327;18.999;54.166;21.383;13.523
5445105.372;22.911;17.062;26.152;1.378;26.859;52.415;19.819;16.689
5445105.380;21.011;15.050;25.965;-1.974;24.959;47.572;17.397;8.158
5445105.388;15.050;8.196;19.595;-8.531;16.466;40.680;10.319;0.596
5445105.396;12.442;6.668;18.142;-6.966;18.254;42.319;9.798;9.350
5445105.404;8.903;3.166;15.497;-11.027;15.572;41.798;9.425;7.637
5445105.412;6.184;-0.186;11.176;-16.503;13.560;42.059;8.754;9.462
5445105.420;8.084;2.868;11.250;-14.827;15.646;46.939;14.678;14.193
5445105.428;1.676;-2.421;3.055;-15.348;4.806;37.402;7.674;2.868
5445105.409;-4.657;-9.984;-2.049;-23.469;-0.931;25.667;-3.353;-7.637
5445105.417;2.012;-4.023;2.906;-19.521;5.811;25.332;-4.061;-8.456
5445105.425;9.239;3.874;11.213;-10.841;14.938;28.424;-1.267;-6.221
5445105.433;15.236;8.792;13.635;-8.680;17.062;31.292;1.676;-4.284
5445105.441;28.536;22.277;26.859;4.768;30.622;45.784;14.529;12.219
5445105.449;29.653;23.507;29.840;5.737;33.304;52.005;17.881;19.260
5445105.457;25.481;18.589;28.051;1.788;27.455;42.319;9.835;4.247
5445105.465;27.195;22.277;28.871;6.109;31.032;35.875;6.706;-3.390
5445105.473;29.616;21.681;30.920;2.086;36.173;34.273;4.880;-4.694
5445105.481;37.923;25.034;34.869;5.066;40.755;36.992;7.600;1.751
5445105.489;42.692;29.206;39.414;7.935;47.013;37.588;7.674;4.023
5445105.497;37.886;25.369;36.694;7.115;41.276;32.969;2.459;2.421
5445105.505;29.653;19.073;26.487;3.241;29.914;30.883;-0.857;-1.751
5445105.513;21.048;11.325;17.136;-5.439;22.314;30.734;-4.843;-3.204
5445105.521;23.022;12.852;20.601;-5.998;28.200;34.757;-4.359;2.161
5445105.529;20.973;12.293;19.185;-5.811;28.536;36.098;-2.161;5.998
5445105.537;3.278;-3.986;1.229;-19.930;10.505;18.962;-15.870;-9.835
5445105.545;5.849;-0.335;2.533;-16.652;10.915;18.999;-15.013;-8.270
5445105.553;15.162;8.829;6.333;-8.270;17.509;26.003;-8.009;-4.098
5445105.561;20.303;14.044;12.554;-3.651;22.352;29.542;-3.353;-5.886
5445105.569;24.512;18.924;22.836;0.782;27.344;38.743;5.625;0.112
5445105.577;19.632;14.789;16.578;-2.608;23.022;35.763;1.267;-2.533
5445105.585;18.254;13.448;13.039;-8.233;20.154;36.508;0.931;-0.410
5445105.593;21.197;16.838;18.924;-3.651;22.985;39.153;3.055;5.439
5445105.587;16.168;11.772;17.174;-7.041;18.664;35.390;0.075;-0.186
5445105.595;16.950;13.076;17.509;-5.029;18.887;40.606;6.035;5.066
5445105.603;19.260;16.689;20.154;-2.049;21.048;41.947;6.184;4.359
5445105.611;24.810;19.073;25.071;2.421;26.301;45.113;9.425;4.843
5445105.619;27.083;21.569;28.722;3.502;28.089;52.862;17.323;11.027
5445105.627;17.770;12.517;19.670;-5.178;17.881;45.337;9.798;-0.261
5445105.635;20.452;16.093;24.438;-0.224;24.140;45.076;9.127;2.757
5445105.643;18.999;14.938;26.785;-3.278;25.481;39.190;5.662;-0.559
5445105.651;16.876;13.039;22.091;-2.831;20.377;36.322;3.614;-3.912
5445105.659;12.890;8.941;19.297;-7.972;17.509;33.490;-1.900;-2.459
5445105.667;18.030;13.150;24.922;-7.041;24.550;36.769;0.298;2.086
5445105.675;23.022;17.248;33.304;-3.763;32.000;38.370;4.768;3.725
5445105.683;20.750;15.944;29.951;-1.751;27.157;36.992;7.115;-0.075
5445105.691;26.189;21.495;35.651;4.619;31.739;37.849;7.898;3.502
5445105.699;25.295;20.601;34.533;6.631;31.330;31.255;1.229;-6.147
5445105.707;29.877;23.767;38.482;9.723;32.447;34.161;4.061;-3.651
5445105.715;29.095;23.469;40.531;9.872;31.143;34.869;5.104;-3.688
5445105.723;26.971;22.687;37.998;8.494;33.863;37.141;7.153;0.447
5445105.731;26.785;21.532;32.857;7.860;27.940;35.129;6.035;2.459
5445105.739;22.352;19.744;29.169;6.706;17.770;33.490;6.147;3.092
5445105.747;17.397;13.374;31.441;-1.714;21.607;26.226;-0.149;-2.310
5445105.755;26.375;17.360;46.380;-5.811;39.116;20.824;-6.668;-4.470
5445105.763;22.240;11.921;44.368;-16.876;40.345;17.881;-10.282;-8.419
5445105.771;20.154;9.164;42.580;-20.377;40.717;18.664;-10.841;-8.903
5445105.779;9.425;-2.459;33.490;-34.124;32.336;19.372;-11.176;-8.866
5445105.787;9.499;-3.241;35.167;-35.577;35.949;25.369;-6.072;-3.539
5445105.795;4.806;-8.158;29.951;-38.706;35.539;21.532;-9.760;-11.846
5445105.803;-2.272;-14.566;24.736;-44.107;29.542;20.973;-9.760;-11.660
5445105.828;-3.688;-16.689;24.103;-48.205;28.089;25.667;-7.078;-8.158
5445105.836;5.253;-8.792;32.000;-39.637;36.508;39.339;3.241;3.427
5445105.844;8.680;-4.992;35.353;-35.614;40.010;41.910;5.476;5.960
5445105.852;10.766;-1.974;37.774;-33.118;43.549;43.698;7.972;6.817
5445105.860;6.706;-7.302;37.253;-36.433;38.184;39.004;5.774;0.335
5445105.868;9.015;-7.637;35.316;-37.178;34.347;31.777;0.745;-8.717
5445105.876;19.372;5.104;43.213;-24.661;43.139;46.715;16.615;3.614
5445105.884;24.177;10.766;43.996;-19.297;48.317;56.848;26.450;17.174
5445105.892;16.131;3.166;36.582;-25.071;40.308;50.366;19.781;9.239
5445105.900;10.654;-1.490;35.018;-29.244;37.104;43.176;11.176;3.763
5445105.908;11.772;1.416;35.651;-26.599;37.029;41.090;8.121;6.892
5445105.916;7.190;-2.570;29.616;-28.983;32.708;30.845;-0.633;-4.433
5445105.924;10.990;2.272;31.665;-22.091;36.694;29.877;0.708;-6.258
5445105.932;17.993;10.133;37.774;-13.001;44.778;40.121;8.494;4.433
5445105.940;14.603;4.806;33.788;-18.030;41.164;39.674;6.184;7.488
5445105.948;14.119;0.559;35.875;-23.209;37.141;35.912;0.820;5.700
5445105.956;13.635;0.969;35.912;-24.848;40.419;34.571;0.745;1.118
5445105.964;14.715;2.049;38.818;-29.206;44.703;36.508;2.943;3.390
5445105.972;18.589;4.023;42.357;-28.498;50.142;42.580;7.749;8.456
5445105.980;13.933;-2.198;35.651;-33.751;43.772;38.631;2.682;4.619
5445105.988;10.803;-3.427;33.304;-33.267;40.270;37.886;0.894;5.849
5445105.996;7.115;-5.886;28.685;-34.608;36.359;35.837;-1.453;6.221
5445106.004;7.004;-6.743;27.716;-34.235;37.290;32.522;-3.986;6.109
5445106.012;16.764;3.539;34.794;-22.203;47.795;39.004;2.421;12.070
5445105.977;14.454;0.969;34.273;-26.450;46.007;30.883;-5.960;4.731
5445105.985;1.639;-9.947;25.705;-36.955;34.757;20.191;-15.534;-7.823
5445105.993;0.410;-13.486;20.787;-39.376;31.330;26.040;-8.121;-1.751
5445106.001;6.780;-6.482;24.922;-30.994;35.241;38.967;4.806;10.841
5445106.009;10.841;-1.341;27.157;-25.667;38.818;44.294;9.127;13.411
5445106.017;3.092;-8.307;18.962;-32.559;31.181;41.537;5.513;10.356
5445106.025;0.186;-12.405;18.738;-36.806;31.181;38.557;3.502;8.233
5445106.033;-4.470;-17.583;14.752;-42.394;29.728;27.828;-6.519;0.559
5445106.041;-3.539;-16.987;13.150;-42.468;28.834;21.644;-12.666;-1.155
5445106.049;2.906;-10.952;21.271;-35.428;36.955;25.779;-8.978;1.341
5445106.057;2.831;-10.878;21.793;-35.763;40.345;30.175;-5.178;2.608
5445106.065;13.113;-0.335;32.671;-25.406;48.205;40.643;4.321;11.362
5445106.073;8.680;-3.427;28.126;-26.338;42.543;34.086;-0.484;4.992
5445106.081;7.935;-4.396;25.518;-29.765;39.898;28.722;-5.029;-0.373
5445106.089;16.093;2.868;30.287;-21.644;41.798;30.808;-2.012;2.086
5445106.097;16.429;3.129;28.014;-20.377;44.703;32.485;-1.788;6.743
5445106.105;14.156;1.453;28.946;-22.091;44.815;36.173;-0.037;11.250
5445106.113;9.201;-2.570;22.911;-23.507;36.359;26.822;-9.425;-0.969
5445106.121;1.639;-8.829;14.976;-31.516;26.859;17.770;-19.148;-9.388
5445106.129;10.654;-0.708;23.581;-23.358;39.972;19.707;-16.801;-8.792
5445106.137;25.928;14.342;38.929;-9.425;52.229;32.447;-3.651;3.204
5445106.145;32.485;21.644;45.709;-2.645;54.240;41.649;5.215;10.729
5445106.153;27.828;18.179;42.617;-8.047;53.421;41.649;5.662;9.947
5445106.161;19.893;8.829;35.949;-19.446;50.217;38.184;1.751;7.078
5445106.187;18.291;5.439;32.298;-21.607;46.641;35.241;-2.757;3.502
5445106.195;13.225;2.384;25.481;-24.624;41.276;27.977;-13.188;-0.075
5445106.203;13.672;3.614;26.971;-23.358;41.686;24.214;-16.838;-6.184
5445106.211;19.409;9.388;35.577;-14.007;49.323;30.026;-10.505;-0.447
5445106.219;18.403;7.786;33.453;-17.434;45.709;28.424;-11.250;-5.253
5445106.227;19.595;9.574;34.980;-15.870;49.993;28.349;-11.101;-6.035
5445106.235;20.489;12.107;34.384;-12.740;48.093;36.098;-2.608;0.745
5445106.243;16.652;8.494;32.149;-15.646;40.792;34.273;-4.582;-4.619
5445106.251;17.099;7.004;39.376;-17.360;45.486;36.098;-5.215;1.043
5445106.259;10.096;0.559;32.261;-22.724;36.508;30.361;-11.846;0.559
5445106.267;0.000;-7.041;21.048;-28.089;25.593;24.736;-16.391;-6.482
5445106.275;5.849;-3.837;25.332;-24.587;31.292;28.014;-11.437;-0.745
5445106.283;10.282;0.894;31.553;-18.664;36.545;27.269;-10.394;0.261
5445106.291;11.288;4.768;34.310;-14.082;37.700;31.255;-5.290;-2.049
5445106.299;11.250;6.855;35.278;-11.101;38.482;33.006;-3.837;0.931
5445106.307;3.912;-0.745;27.865;-18.366;29.504;19.372;-17.434;-12.778
5445106.315;4.396;-1.565;29.616;-19.222;32.224;14.752;-23.097;-16.242
5445106.323;1.900;-3.912;26.524;-21.718;29.877;14.603;-24.065;-15.646
5445106.331;5.886;-0.894;32.783;-20.303;34.235;23.432;-14.491;-6.594
5445106.339;12.033;2.868;41.947;-16.764;40.941;25.518;-10.133;-4.992
5445106.347;18.701;8.643;48.205;-10.915;45.188;32.522;-4.321;2.384
5445106.355;21.495;11.362;48.801;-6.519;44.815;34.496;-3.800;4.321
5445106.363;22.128;11.623;49.770;-7.525;44.517;29.951;-6.966;-0.112
5445106.371;14.156;3.017;43.511;-15.683;40.494;21.309;-13.709;-10.915
5445106.353;9.872;1.378;38.929;-18.477;33.416;21.830;-12.331;-11.064
5445106.361;12.293;3.166;38.445;-16.280;31.404;31.181;-4.955;-1.006
5445106.369;12.666;5.588;40.084;-11.697;32.634;36.545;-0.931;3.614
5445106.377;16.801;8.643;49.360;-9.499;41.537;38.557;1.192;7.227
5445106.385;12.219;3.241;43.102;-14.044;35.875;29.691;-7.153;-0.037
5445106.393;15.125;5.960;43.102;-10.319;34.198;29.877;-6.668;-2.272
5445106.401;15.832;8.792;44.145;-7.264;36.918;36.433;-0.931;5.402
5445106.409;10.096;4.880;37.961;-11.027;31.926;36.769;-1.006;5.811
5445106.417;4.359;-0.484;29.914;-15.944;24.997;32.783;-4.843;-0.037
5445106.425;3.278;-1.378;33.677;-19.222;25.555;32.037;-6.519;-1.304
5445106.433;4.321;-0.894;33.975;-19.260;28.461;35.316;-3.241;1.863
5445106.441;8.494;2.831;37.737;-15.125;31.479;40.308;0.820;9.164
5445106.449;4.210;-2.570;34.496;-20.824;28.573;35.465;-3.353;6.706
5445106.457;3.576;-3.837;32.969;-22.165;32.149;34.831;-2.384;5.886
5445106.465;2.272;-5.737;34.310;-22.724;29.877;32.894;-3.725;2.533
5445106.473;-0.261;-8.084;29.318;-24.773;24.661;27.604;-8.307;-0.857
5445106.481;3.204;-2.496;32.485;-21.942;29.542;33.006;-0.820;6.929
5445106.489;4.061;-0.373;33.230;-18.813;29.951;32.894;0.075;3.502
5445106.497;5.104;-2.533;30.324;-19.148;26.897;29.765;-2.868;1.751
5445106.505;7.413;-0.671;33.155;-17.546;33.006;32.708;-1.229;5.253
5445106.513;2.608;-3.874;29.095;-19.893;28.238;26.710;-6.594;-1.267
5445106.521;-3.353;-9.835;26.077;-26.189;21.271;20.824;-11.362;-7.190
5445106.529;-3.316;-10.580;25.705;-24.252;22.203;21.271;-9.388;-5.737
5445106.537;-0.857;-8.456;25.854;-23.246;25.518;20.191;-11.437;-3.614
5445106.489;-1.416;-8.680;25.742;-23.507;23.246;13.262;-18.291;-8.047
5445106.497;1.043;-6.370;27.455;-22.426;27.083;11.362;-19.893;-10.841
5445106.505;7.898;0.857;35.204;-14.827;33.714;19.930;-11.548;-5.141
5445106.513;0.782;-6.333;27.902;-21.122;28.014;12.740;-18.328;-12.740
5445106.521;-14.044;-19.372;11.176;-32.187;11.064;5.811;-25.705;-19.334
5445106.529;-10.915;-20.079;13.672;-34.049;11.176;12.331;-18.887;-13.039
5445106.537;-0.410;-8.568;24.997;-22.165;19.968;20.042;-12.219;-2.272
5445106.545;5.849;0.894;29.951;-9.872;23.954;29.393;-3.427;7.562
5445106.553;8.307;4.508;29.840;-4.992;28.722;34.161;3.427;8.419
5445106.561;7.749;4.508;28.908;-4.023;29.430;33.788;3.763;6.780
5445106.569;4.545;1.229;25.593;-6.631;25.555;29.542;0.708;5.290
5445106.577;0.596;-2.645;19.670;-10.468;20.377;22.650;-5.327;0.708
5445106.585;2.049;-1.602;20.899;-12.331;19.893;21.085;-9.239;-1.416
5445106.593;3.763;-0.149;22.128;-9.798;22.165;22.762;-9.201;-1.825
5445106.601;1.341;-1.080;19.446;-10.617;20.713;18.999;-12.256;-5.998
5445106.609;2.943;-0.559;23.730;-11.139;23.842;21.644;-9.909;-1.341
5445106.617;0.857;-2.198;20.675;-11.735;22.016;21.793;-8.568;-1.192
5445106.625;4.023;0.149;22.240;-12.740;24.699;26.487;-3.204;2.906
5445106.633;4.582;-1.639;23.991;-14.007;23.730;20.154;-8.941;-0.596
5445106.641;2.310;0.000;17.695;-6.258;16.205;13.672;-15.497;-1.490
5445106.649;-2.049;-2.645;8.717;-5.513;6.557;18.328;-11.176;3.092
5445106.657;-7.898;-7.562;1.304;-8.084;0.820;12.703;-16.503;-3.017
5445106.665;-10.952;-8.605;-2.347;-6.482;-2.347;5.029;-21.532;-12.182
5445106.673;-10.803;-8.456;-3.874;-6.594;-5.588;4.210;-19.968;-18.626
5445106.699;-8.084;-6.221;-1.602;-4.396;-4.284;8.866;-15.274;-11.511
5445106.707;-2.757;-1.006;3.204;1.043;4.135;17.248;-8.754;-1.825
5445106.715;-5.998;-3.651;-0.671;-1.043;2.012;17.062;-10.729;-4.470
5445106.723;-11.250;-6.743;-9.835;-5.029;-6.333;17.025;-11.250;-8.382
5445106.731;-9.499;-5.551;-9.239;-4.210;-5.290;17.844;-11.437;-5.551
5445106.739;-6.892;-1.714;0.335;1.118;0.931;20.228;-7.711;-2.123
5445106.747;-2.757;0.335;1.639;4.433;4.098;19.632;-5.327;-4.992
5445106.755;-6.296;-2.980;-4.433;1.527;4.210;18.850;-4.321;-9.052
5445106.763;-7.749;-3.800;-5.737;-1.304;2.272;26.152;3.390;-2.906
5445106.771;-12.107;-8.270;-11.846;-6.631;-4.619;27.493;6.072;-1.416
5445106.779;-15.274;-9.947;-14.491;-8.047;-5.998;26.561;6.184;2.347
5445106.787;-12.405;-5.886;-11.995;-3.688;-4.843;32.745;11.623;11.772
5445106.795;-13.672;-6.855;-13.709;-3.390;-6.594;27.381;5.513;9.574
5445106.803;-10.356;-2.459;-7.860;0.447;0.633;24.438;3.614;9.611
5445106.811;-8.419;-3.874;-10.096;-3.837;-0.224;20.675;1.453;4.582
5445106.819;-8.978;-5.513;-11.474;-4.247;-2.086;16.205;-2.310;-2.421
5445106.827;-12.666;-9.686;-13.784;-9.350;-2.682;11.362;-8.605;-7.413
5445106.835;-12.517;-10.356;-9.723;-9.649;-2.757;11.027;-10.207;-3.465
5445106.843;-12.927;-10.617;-8.009;-8.866;-0.484;5.923;-14.603;-7.898
5445106.851;-15.683;-12.070;-10.729;-10.170;-0.112;3.390;-16.652;-9.537
5445106.859;-19.930;-15.460;-14.603;-9.090;-6.668;3.166;-18.850;-10.543
5445106.867;-21.234;-17.993;-16.429;-12.480;-8.456;7.302;-16.391;-6.445
5445106.875;-23.432;-19.707;-19.372;-14.752;-9.909;7.749;-15.534;-4.657
5445106.883;-23.022;-18.291;-14.119;-14.082;-9.947;6.966;-15.832;-4.545
5445106.834;-30.622;-24.959;-19.856;-19.707;-18.328;-0.894;-21.793;-13.784
5445106.842;-34.645;-27.977;-20.750;-19.856;-17.844;-1.304;-21.718;-14.529
5445106.850;-21.234;-18.328;-11.437;-10.878;-8.270;9.611;-12.405;-4.694
5445106.858;-13.560;-11.064;-1.453;-6.035;-1.639;15.721;-5.513;0.261
5445106.866;-18.179;-13.597;-5.849;-8.717;-8.158;8.531;-10.766;-8.382
5445106.874;-16.280;-9.686;-3.204;-3.763;-9.201;8.196;-11.064;-6.706
5445106.882;-15.534;-9.499;-3.837;-4.359;-10.915;2.272;-15.385;-9.909
5445106.890;-11.995;-7.898;1.974;-4.061;-3.651;3.874;-12.331;-5.998
5445106.898;-8.605;-4.955;8.196;-0.782;1.118;9.276;-7.451;-1.490
5445106.906;-11.995;-6.519;4.135;-0.857;-3.092;10.468;-6.817;-0.335
5445106.914;-13.635;-8.941;2.757;-5.029;-4.135;11.660;-6.780;2.719
5445106.922;-11.511;-7.562;5.141;-4.806;-4.508;16.093;-1.825;9.798
5445106.930;-11.623;-8.643;8.047;-7.600;-1.304;14.454;-3.353;7.227
5445106.938;-19.558;-19.334;1.602;-16.950;-4.843;2.012;-15.199;-5.625
5445106.946;-17.658;-18.254;1.118;-14.864;-5.662;-0.298;-16.131;-7.041
5445106.954;-16.838;-14.529;3.614;-8.866;-4.396;2.906;-12.517;-6.072
5445106.962;-18.105;-12.517;7.749;-7.115;-1.639;6.855;-7.041;-1.974
5445106.970;-17.174;-10.021;7.674;-5.513;-2.570;11.809;-2.198;2.384
5445106.978;-22.464;-15.199;0.447;-9.164;-7.115;3.874;-9.835;-3.241
5445106.986;-22.538;-16.652;-1.602;-12.331;-5.662;-0.261;-13.486;-5.476
5445106.994;-24.624;-20.899;-2.533;-16.429;-11.101;-3.986;-16.056;-7.860
5445107.002;-27.679;-23.469;-4.098;-20.042;-14.044;-8.978;-19.744;-13.113
5445107.010;-24.363;-18.738;-1.118;-16.168;-9.164;0.298;-11.027;-2.906
5445107.018;-24.103;-16.391;1.304;-14.268;-5.662;7.339;-5.029;5.215
5445107.012;-22.389;-16.429;-1.304;-15.572;-10.505;11.325;1.118;5.625
5445107.020;-19.148;-13.188;0.224;-9.574;-9.611;14.566;5.923;6.557
5445107.028;-24.624;-19.670;-4.508;-15.236;-11.250;6.892;-2.794;-3.316
5445107.036;-29.728;-25.146;-8.941;-21.979;-16.205;2.123;-7.711;-7.860
5445107.044;-28.461;-22.240;-5.737;-20.415;-13.374;2.608;-8.494;-1.118
5445107.052;-21.048;-13.821;2.123;-9.611;-6.855;1.788;-8.307;2.831
5445107.060;-22.575;-17.025;-1.192;-14.715;-7.711;-6.743;-17.136;-3.241
5445107.068;-22.985;-18.962;-3.949;-15.050;-9.947;-6.482;-17.695;-2.012
5445107.076;-21.197;-17.025;2.868;-11.846;-4.880;-1.527;-10.394;0.261
5445107.084;-24.401;-18.999;-0.037;-16.242;-3.241;-6.072;-14.678;-5.960
5445107.092;-22.799;-15.870;-1.602;-13.784;-5.513;-7.190;-15.758;-9.649
5445107.100;-23.246;-17.993;-0.261;-15.721;-6.668;-3.763;-11.735;-7.264
5445107.108;-34.422;-29.691;-11.325;-25.928;-18.030;-3.912;-12.033;-9.723
5445107.116;-34.496;-27.120;-14.566;-22.054;-20.191;-0.820;-11.437;-2.682
5445107.124;-35.502;-25.183;-17.434;-19.781;-22.128;-0.522;-12.182;0.484
5445107.132;-33.751;-24.736;-16.950;-21.607;-22.464;-0.559;-12.554;2.459
5445107.140;-31.628;-24.773;-10.915;-22.016;-19.073;-3.874;-14.156;-0.633
5445107.148;-32.224;-24.140;-12.144;-18.850;-19.558;-3.278;-11.250;-0.224
5445107.156;-34.347;-25.854;-16.093;-21.234;-23.507;-0.820;-8.009;0.484
5445107.164;-34.794;-26.822;-18.924;-24.624;-24.363;-5.253;-13.076;-5.178
5445107.172;-30.659;-22.873;-18.664;-22.240;-23.618;-4.917;-14.305;-2.533
5445107.180;-28.498;-19.968;-13.262;-17.434;-17.509;-7.562;-15.758;-8.941
5445107.188;-22.314;-12.629;-7.041;-10.654;-10.580;-1.863;-8.307;-5.141
5445107.196;-20.340;-9.723;-8.643;-7.786;-11.660;3.912;-2.384;-0.857
5445107.192;-20.899;-11.958;-9.052;-11.064;-9.090;3.166;-3.986;-0.633
5445107.200;-24.177;-15.609;-9.984;-15.683;-12.368;-2.943;-9.760;-8.754
5445107.208;-17.211;-8.084;-3.278;-7.227;-6.929;-0.633;-6.706;-3.278
5445107.216;-14.156;-3.874;-4.992;0.335;-8.978;-0.186;-7.823;-1.974
5445107.224;-17.583;-6.706;-11.176;-1.863;-10.692;-6.482;-13.821;-8.084
5445107.232;-15.199;-5.327;-4.545;-3.986;-4.210;-8.605;-13.821;-8.643
5445107.240;-7.749;-1.080;-0.857;0.745;-2.384;-5.513;-10.766;-5.960
5445107.248;-12.666;-5.476;-4.880;-3.912;-6.370;-11.101;-15.125;-12.815
5445107.256;-10.692;-2.012;-0.335;-0.112;0.559;-9.462;-12.964;-10.058
5445107.264;-6.109;3.017;0.335;4.955;0.782;-5.029;-7.674;-4.247
5445107.272;-2.086;6.631;-0.559;8.121;3.912;-1.900;-3.725;2.049
5445107.280;-3.316;5.402;0.894;4.359;7.600;-1.788;-4.694;3.688
5445107.288;-7.637;-0.633;0.969;-2.384;5.178;-7.600;-10.058;-3.614
5445107.296;-10.878;-3.166;-3.427;-2.533;2.012;-8.568;-9.201;-3.986
5445107.304;-14.007;-4.917;-9.127;-4.619;-2.794;-8.307;-10.431;-3.502
5445107.312;-16.764;-8.419;-11.474;-10.394;-4.284;-8.568;-12.852;-4.023
5445107.320;-11.399;-1.416;-5.998;-0.484;2.086;-5.327;-9.574;-1.527
5445107.328;-9.388;1.565;-6.296;4.210;1.006;-7.227;-8.829;-3.539
5445107.336;-18.552;-8.680;-15.609;-4.880;-7.376;-14.231;-14.007;-12.778
5445107.344;-24.401;-13.411;-20.713;-8.345;-13.188;-19.111;-17.248;-20.452
5445107.352;-23.320;-12.480;-19.111;-8.456;-9.462;-25.555;-24.475;-22.575
5445107.360;-11.623;-0.410;-9.350;3.465;-0.484;-21.867;-22.613;-16.429
5445107.368;-3.017;8.531;-3.800;12.182;4.023;-13.076;-14.529;-7.898
5445107.376;-5.327;5.476;-8.605;6.780;-0.149;-10.580;-10.021;-8.456
5445107.315;-7.823;3.465;-9.872;6.557;-2.570;-7.004;-5.439;-6.184
5445107.323;-15.274;-2.980;-18.068;0.559;-8.307;-11.474;-12.293;-9.276
5445107.331;-16.727;-4.508;-22.613;-1.639;-10.468;-9.350;-12.591;-5.811
5445107.339;-15.534;-5.811;-18.142;-3.576;-10.543;-7.115;-9.164;-3.688
5445107.347;-19.632;-9.723;-23.469;-6.929;-14.305;-9.313;-10.580;-7.972
5445107.355;-22.054;-10.245;-29.840;-6.780;-15.683;-7.227;-8.009;-4.396
5445107.363;-22.314;-10.431;-29.244;-6.966;-15.758;-1.229;-1.229;-0.112
5445107.371;-23.097;-11.027;-28.871;-6.780;-17.174;1.602;2.645;-0.969
5445107.379;-20.564;-9.537;-27.902;-6.743;-14.193;1.118;1.788;-2.533
5445107.387;-21.197;-10.729;-29.765;-10.431;-12.331;0.522;-2.608;-0.037
5445107.395;-18.291;-9.276;-24.922;-8.494;-8.605;3.316;-3.427;6.594
5445107.403;-17.211;-7.972;-22.575;-6.817;-5.588;2.347;-5.737;6.519
5445107.411;-15.534;-4.992;-23.507;-2.384;-7.823;2.496;-4.433;7.153
5445107.419;-18.850;-7.600;-30.585;-5.476;-13.374;-8.643;-9.499;-6.892
5445107.427;-12.219;-0.745;-19.744;2.198;-3.427;-5.141;-2.570;-7.488
5445107.435;-3.390;5.104;-9.537;8.829;7.898;4.284;6.147;3.278
5445107.443;-5.290;2.235;-12.890;4.321;7.078;3.725;5.141;3.502
5445107.451;-9.835;-1.080;-19.707;-0.224;0.335;-0.969;-0.112;-1.043
5445107.459;-12.219;-1.043;-24.214;1.006;-1.229;-5.327;-6.557;-3.353
5445107.467;-11.213;1.900;-23.320;6.258;-1.565;-10.319;-10.766;-7.302
5445107.475;-14.342;-2.980;-22.948;1.006;-1.974;-16.205;-15.460;-12.554
5445107.483;-10.841;0.559;-20.228;3.800;2.980;-9.574;-9.239;-4.843
5445107.491;-7.637;3.166;-17.583;6.631;3.800;-7.823;-6.855;-4.210
5445107.499;-10.841;-0.261;-21.532;1.378;0.522;-14.938;-13.486;-11.437
5445107.537;-7.972;2.682;-17.062;5.290;2.645;-12.703;-13.225;-8.456
5445107.545;-4.955;4.210;-15.013;5.625;3.502;-5.290;-5.178;-1.118
5445107.553;-2.123;6.370;-9.798;9.686;6.072;-2.086;-1.192;-0.186
5445107.561;0.447;9.313;-2.943;13.970;13.784;-2.012;-1.416;-2.347
5445107.569;-1.565;6.668;-2.608;10.394;15.534;1.155;-1.118;1.490
5445107.577;-6.407;1.825;-7.525;7.786;9.127;3.465;0.596;3.651
5445107.585;-19.260;-9.760;-17.919;-5.290;-4.396;-3.353;-4.321;-3.390
5445107.593;-19.073;-9.723;-17.658;-4.657;-7.190;-8.531;-8.158;-6.557
5445107.601;-7.451;4.210;-7.898;11.623;-1.341;-4.470;-4.061;-1.565
5445107.609;-2.123;9.052;0.820;14.827;6.557;-3.949;-5.141;0.037
5445107.617;-0.447;11.288;3.688;17.174;9.499;-4.880;-2.980;-0.857
5445107.625;-3.241;9.350;1.937;16.876;8.158;-2.608;2.161;1.304
5445107.633;-7.860;4.210;-1.863;12.740;3.241;-7.898;-1.378;-4.694
5445107.641;-11.250;1.527;-4.657;11.772;-0.633;-10.431;-4.768;-6.706
5445107.649;-12.070;0.633;-5.737;10.580;-1.267;-12.405;-7.674;-6.966
5445107.657;-13.821;-1.341;-8.233;8.456;-3.204;-10.729;-6.743;-4.731
5445107.665;-18.440;-7.898;-13.858;0.820;-8.605;-9.984;-6.333;-5.327
5445107.673;-16.838;-5.215;-8.196;5.178;-7.451;-6.035;-2.682;-0.894
5445107.681;-13.746;-1.080;-4.284;9.798;-3.874;-5.849;-1.304;-0.075
5445107.689;-14.566;-1.714;-1.155;9.499;-0.633;-9.760;-5.886;-3.055
5445107.697;-14.044;-1.192;-3.427;8.196;-1.341;-10.841;-6.594;-3.427
5445107.705;-15.795;-3.651;-7.749;5.662;-8.866;-11.139;-6.035;-4.917
5445107.713;-18.738;-7.115;-5.588;1.602;-9.798;-8.978;-3.055;-2.794
5445107.721;-18.515;-4.321;-5.104;5.960;-9.313;-3.912;2.757;4.098
5445107.763;-16.801;-5.364;-4.880;6.147;-11.288;-5.662;2.012;1.788
5445107.771;-21.607;-9.984;-8.792;0.745;-11.437;-11.101;-5.290;-2.533
5445107.779;-23.097;-10.356;-11.027;1.527;-14.566;-11.288;-6.780;-0.969
5445107.787;-24.922;-11.586;-15.646;-0.671;-18.999;-11.437;-7.004;-0.149
5445107.795;-18.701;-5.066;-8.792;4.247;-9.947;-5.253;-1.006;4.210
5445107.803;-17.770;-3.837;-4.992;6.407;-7.898;-2.570;-0.335;5.104
5445107.811;-14.752;-0.782;-1.043;9.015;-8.158;2.012;6.668;8.233
5445107.819;-9.425;4.359;3.874;13.001;-0.484;6.594;12.256;8.754
5445107.827;-7.898;6.445;2.682;17.807;0.037;3.912;9.760;4.955
5445107.835;-14.268;0.149;-3.316;14.231;-7.264;-5.513;-0.633;-1.490
5445107.843;-16.093;-1.714;-2.757;9.872;-7.600;-7.488;-2.272;-2.570
5445107.851;-8.009;5.178;4.135;12.480;2.570;2.384;7.525;5.998
5445107.859;-15.236;-1.900;-1.788;7.972;-4.172;-3.539;2.235;0.894
5445107.867;-18.328;-4.657;-6.594;6.035;-9.052;-9.872;-2.980;-6.407
5445107.875;-11.660;2.831;-1.527;14.603;-3.651;-1.974;3.465;3.800
5445107.883;-9.723;2.719;-1.974;12.852;-5.588;-3.092;2.645;0.708
5445107.891;-11.548;2.682;-4.768;11.213;-7.339;-7.451;1.602;-4.880
5445107.899;-15.981;-1.602;-9.798;6.668;-9.947;-11.958;-2.384;-7.637
5445107.907;-13.858;-0.969;-5.551;8.792;-6.258;-8.680;1.416;-3.017
5445107.915;-7.562;4.619;2.496;15.944;-0.298;-3.316;7.227;3.353
5445107.923;-5.253;6.668;2.608;17.472;2.570;-2.235;5.960;5.327
5445107.931;-11.325;0.820;-1.714;9.909;-1.602;-9.909;-4.433;-2.198
5445107.939;-12.070;-0.857;-1.490;6.445;-2.310;-9.052;-4.061;1.006
5445107.947;-9.052;2.906;2.086;12.368;2.421;-8.531;-1.341;3.800
5445107.943;-4.955;6.072;4.657;13.337;4.508;-4.880;2.421;7.413
5445107.951;-7.637;2.123;3.427;9.313;2.719;-7.004;0.708;2.943
5445107.959;-5.104;3.725;5.439;11.139;7.786;-4.545;3.390;4.247
5445107.967;-2.123;9.425;6.147;17.248;9.201;-2.682;4.582;6.296
5445107.975;-5.290;9.798;-1.118;18.887;-0.037;-9.052;-3.092;-1.155
5445107.983;-4.843;9.872;-7.376;17.546;-5.662;-9.723;-4.098;-1.602
5445107.991;-3.688;9.984;-2.459;20.377;0.559;-8.270;-1.937;3.092
5445107.999;-6.221;7.302;0.708;16.540;2.347;-8.605;0.224;1.267
5445108.007;-7.413;7.749;-2.347;15.534;-3.129;-4.619;5.364;3.763
5445108.015;-8.345;6.147;-6.445;14.752;-6.892;-3.502;7.041;4.396
5445108.023;-16.242;-2.533;-12.815;4.396;-0.782;-11.288;-1.453;-1.900
5445108.031;-11.846;-0.037;-6.668;2.831;6.333;-8.009;1.192;1.900
5445108.039;-3.688;7.637;1.341;7.078;11.101;-3.166;6.407;5.886
5445108.047;0.820;14.231;4.619;15.832;15.013;0.224;10.654;8.382
5445108.055;-1.788;12.182;-2.235;16.093;7.413;0.969;10.990;9.090
5445108.063;0.000;13.523;-3.353;14.715;5.886;4.470;15.087;13.933
5445108.071;-5.215;8.903;-9.388;8.531;3.241;1.416;12.517;10.952
5445108.079;2.757;18.328;2.831;18.999;11.586;-4.172;6.780;5.104
5445108.087;9.350;25.816;10.207;26.524;14.566;-1.565;7.898;9.015
5445108.095;18.552;32.224;12.778;30.026;15.944;-2.570;8.568;6.929
5445108.103;27.530;40.345;19.446;35.912;21.756;0.633;12.554;8.121
5445108.111;27.977;40.494;19.260;34.012;20.452;1.267;13.597;9.276
5445108.119;21.495;34.571;12.256;28.796;13.784;-0.112;10.952;10.617
5445108.127;13.225;25.854;2.421;20.824;5.998;-3.837;4.955;7.413
5445108.123;10.170;22.203;2.123;16.466;5.029;-7.413;2.496;1.378
5445108.131;14.938;26.710;6.072;22.613;11.921;1.527;10.617;8.382
5445108.139;12.517;23.618;1.155;21.271;5.476;6.407;13.933;14.231
5445108.147;10.207;22.016;-1.118;19.632;1.006;6.147;14.640;10.766
5445108.155;11.064;22.054;2.161;19.819;12.629;5.253;15.199;7.153
5445108.163;7.078;18.291;-0.671;16.615;8.456;-0.931;8.643;3.539
5445108.171;7.153;18.999;-1.118;17.807;7.898;-0.149;9.425;4.657
5445108.179;14.268;25.630;5.662;22.501;19.483;8.866;19.819;13.709
5445108.187;17.174;30.100;13.933;25.593;25.816;15.236;27.120;20.713
5445108.195;18.701;27.455;9.798;20.452;22.687;10.096;23.358;18.403
5445108.203;14.678;23.022;3.353;16.838;13.858;-0.075;16.503;11.101
5445108.211;14.864;23.991;5.476;19.185;12.927;-1.527;16.689;9.723
5445108.219;12.703;23.507;3.204;20.824;11.735;-4.470;11.548;7.935
5445108.227;11.586;22.836;1.974;18.924;12.368;-8.643;6.557;5.700
5445108.235;7.823;18.701;-4.433;17.844;8.419;-9.574;4.247;1.118
5445108.243;11.809;21.271;-2.794;22.575;7.935;0.075;14.417;8.866
5445108.251;7.711;18.179;-6.966;20.079;7.302;6.035;20.377;15.646
5445108.259;9.872;21.011;-3.912;21.681;10.431;5.700;18.962;15.981
5445108.267;21.383;32.410;6.296;30.324;17.472;1.825;14.827;12.480
5445108.275;23.134;31.367;11.474;26.934;22.538;0.969;12.033;10.580
5445108.283;33.267;39.414;22.538;32.485;32.298;5.923;16.727;15.497
5445108.291;28.573;33.379;17.583;28.573;26.822;2.757;13.970;12.368
5445108.299;21.346;27.679;8.456;25.406;22.911;1.937;13.188;12.591
5445108.307;23.320;29.691;11.660;27.791;24.550;9.201;18.924;22.538
5445108.424;20.862;27.977;7.227;27.344;20.452;2.831;12.740;19.521
5445108.432;14.901;21.681;-0.298;22.128;13.895;-12.331;0.447;4.359
5445108.440;15.162;21.718;3.614;21.532;17.509;-11.101;0.447;7.115
5445108.448;14.640;21.085;-0.820;20.191;17.397;-7.376;3.092;10.505
5445108.456;17.695;24.438;3.874;26.077;21.383;-0.745;9.537;13.895
5445108.464;20.787;27.157;10.133;27.046;26.524;9.164;18.552;20.564
5445108.472;12.964;19.446;2.384;16.578;19.222;6.817;16.466;14.827
5445108.480;7.935;14.976;-5.290;13.337;10.915;3.651;13.374;11.660
5445108.488;11.325;19.297;-2.570;21.122;14.119;9.425;21.160;17.211
5445108.496;14.566;22.724;0.857;23.618;17.881;11.101;24.103;19.483
5445108.504;12.703;21.569;1.751;23.805;17.099;8.829;23.358;17.956
5445108.512;12.368;23.767;2.794;25.779;16.429;7.749;24.475;14.715
5445108.520;24.028;34.571;12.852;38.929;23.544;10.282;26.934;20.638
5445108.528;25.332;35.428;12.331;39.898;23.134;4.768;19.968;19.111
5445108.536;26.487;37.998;14.789;41.761;23.842;7.041;21.271;21.681
5445108.544;24.773;36.284;16.093;39.563;22.277;7.115;20.862;21.607
5445108.552;18.775;29.840;12.666;29.989;16.689;1.639;14.640;15.087
5445108.560;15.646;25.444;15.385;22.165;19.744;0.298;12.703;14.491
5445108.568;14.901;23.358;15.683;20.638;21.905;0.745;13.821;14.156
5445108.576;10.058;18.738;10.282;19.185;13.411;-3.874;8.605;11.511
5445108.584;11.623;20.824;11.213;19.893;14.864;-2.980;8.419;12.927
5445108.592;12.182;21.644;11.399;20.675;17.360;-6.743;7.488;6.035
5445108.600;17.136;26.152;18.142;23.432;19.521;-8.717;7.562;2.757
5445108.608;13.560;20.564;16.913;17.062;18.142;-8.121;7.786;2.831
5445108.678;15.460;24.624;20.899;25.444;21.681;-3.390;12.182;6.594
5445108.686;23.693;31.590;22.464;31.888;21.160;0.894;14.640;12.256
5445108.694;25.183;33.192;23.879;34.869;24.028;-2.682;9.872;11.995
5445108.702;23.879;33.304;22.501;34.906;21.644;-5.402;6.780;12.442
5445108.710;22.724;33.118;21.011;32.261;19.111;-3.837;9.462;12.964
5445108.718;18.664;29.579;16.242;29.095;14.938;-1.192;12.368;12.293
5445108.726;13.933;23.395;9.835;24.252;8.903;-2.272;9.388;12.368
5445108.734;8.009;16.354;6.557;18.105;6.706;-4.023;6.631;10.133
5445108.742;11.921;20.303;14.566;19.930;13.672;-0.186;8.307;13.672
5445108.750;16.540;23.544;23.469;22.501;18.626;5.215;12.852;18.626
5445108.758;14.789;20.452;20.601;19.632;16.429;4.359;14.007;18.030
5445108.766;13.113;19.856;17.360;21.122;13.895;1.453;13.895;16.615
5445108.774;8.754;16.280;13.039;18.403;9.462;-4.321;10.654;9.611
5445108.782;9.127;16.838;10.096;21.011;8.456;-3.651;13.448;9.201
5445108.790;15.199;24.103;16.950;28.349;13.448;1.006;18.440;15.125
5445108.798;18.328;27.977;20.936;33.043;16.429;-1.490;16.727;12.740
5445108.806;17.993;27.344;18.664;30.510;14.156;-4.843;14.491;9.835
5445108.814;21.197;30.063;22.054;33.006;15.311;-4.396;14.268;12.852
5445108.822;20.750;28.387;21.867;28.796;16.019;-0.708;17.695;13.225
5445108.830;18.366;26.450;16.354;27.902;10.952;2.347;20.601;13.746
5445108.838;20.675;29.318;17.434;31.628;13.076;3.800;21.011;14.417
5445108.846;18.477;26.859;16.280;30.436;9.835;5.290;21.309;15.534
5445108.854;13.597;21.085;12.703;23.134;6.519;4.284;19.222;16.950
5445108.862;16.876;24.214;17.583;25.779;13.560;-1.080;14.789;11.101
5445108.827;15.423;23.432;14.268;26.636;11.995;-9.649;5.215;2.645
5445108.835;17.546;23.656;14.752;25.295;13.299;-9.574;4.619;2.198
5445108.843;20.638;28.312;16.950;30.473;17.509;-2.123;11.735;8.531
5445108.851;19.893;28.126;21.122;30.734;18.366;-2.496;9.872;9.127
5445108.859;22.352;29.281;26.524;32.261;23.916;-1.527;9.984;12.256
5445108.867;23.730;31.702;22.650;34.235;21.383;-1.602;11.101;11.884
5445108.875;27.902;37.327;23.209;39.227;18.552;-3.837;10.021;9.239
5445108.883;30.920;39.823;27.493;41.686;24.252;-6.258;8.680;9.201
5445108.891;29.616;37.253;27.791;37.104;25.854;-7.823;5.811;7.637
5445108.899;24.252;31.255;22.203;30.361;24.401;-6.035;5.476;9.350
5445108.907;21.756;28.834;20.079;31.032;24.512;-3.986;9.052;10.170
5445108.915;21.681;29.802;19.781;30.473;21.458;-4.172;8.903;11.809
5445108.923;23.581;33.192;18.738;34.086;22.426;-0.261;11.660;12.778
5445108.931;26.710;37.067;19.111;38.706;20.526;2.868;15.348;10.617
5445108.939;26.263;36.433;19.893;37.849;21.160;2.682;15.125;8.829
5445108.947;20.638;30.622;12.890;32.373;18.552;0.559;12.703;8.717
5445108.955;20.713;28.536;15.795;30.287;19.297;-1.080;10.356;9.499
5445108.963;19.856;26.934;16.354;26.375;19.111;-3.017;7.451;10.692
5445108.971;14.566;23.544;10.282;22.128;14.193;-3.129;4.917;10.915
5445108.979;19.111;25.220;10.282;23.581;14.566;0.112;6.817;12.890
5445108.987;21.122;26.450;13.448;26.226;17.621;3.353;12.070;13.262
5445108.995;17.360;24.959;12.182;24.103;19.073;2.570;11.697;12.144
5445109.003;14.976;22.799;8.307;22.016;17.285;-0.298;8.903;10.654
5445109.011;14.901;24.289;4.619;23.544;11.623;-0.671;8.680;12.927
5445108.977;8.196;19.185;-1.527;17.695;7.153;-0.149;7.413;15.274
5445108.985;17.174;23.730;8.792;19.632;22.203;-0.224;5.215;17.099
5445108.993;20.228;27.008;12.107;21.793;24.363;-1.900;2.570;16.354
5445109.001;24.922;31.739;16.466;28.759;24.959;-4.135;2.161;9.798
5445109.009;28.238;34.161;16.987;27.642;27.046;0.782;8.084;11.064
5445109.017;26.487;31.628;13.188;21.718;25.481;2.459;10.394;12.591
5445109.025;17.732;21.644;4.321;14.640;20.042;-6.519;3.539;3.241
5445109.033;20.079;24.103;7.302;18.217;24.773;-8.568;2.906;1.043
5445109.041;18.217;22.911;1.192;16.727;20.601;-8.233;1.192;4.433
5445109.049;14.678;18.440;0.708;11.548;16.876;-1.863;5.253;11.995
5445109.057;12.703;16.689;-0.708;10.170;15.199;5.476;9.313;19.297
5445109.065;9.276;14.938;-4.023;10.394;17.025;3.949;7.562;15.721
5445109.073;8.494;15.162;-3.614;11.101;15.348;-0.708;5.439;9.276
5445109.081;7.637;15.423;-7.264;12.554;11.511;-2.906;5.737;4.880
5445109.089;11.101;18.217;-4.806;15.460;13.895;2.012;12.591;8.829
5445109.097;9.984;18.366;-4.843;14.864;15.944;6.370;18.254;15.423
5445109.105;12.517;20.079;-3.055;16.838;16.503;7.302;17.285;15.721
5445109.113;15.348;21.271;-0.447;15.013;20.750;7.525;16.838;16.578
5445109.121;12.293;16.429;-6.445;11.586;18.328;2.161;11.213;15.944
5445109.129;2.980;6.780;-15.832;0.596;7.637;-10.990;-2.906;5.439
5445109.137;9.723;14.007;-5.029;8.643;15.795;-6.817;-1.304;11.884
5445109.145;16.652;20.079;0.857;14.119;23.320;-3.129;2.123;11.772
5445109.153;19.856;24.475;6.780;19.185;29.281;-2.049;3.874;10.841
5445109.161;23.469;26.040;7.972;17.993;33.900;-1.714;7.153;9.872
5445109.158;21.085;24.177;2.272;16.652;25.071;-2.198;6.743;11.586
5445109.166;23.656;27.157;1.006;20.713;26.748;1.043;7.898;17.434
5445109.174;16.466;19.521;-8.792;14.603;22.054;-6.221;1.416;9.127
5445109.182;12.442;15.832;-6.892;10.766;18.328;-12.815;-3.949;1.974
5445109.190;11.250;14.827;-13.188;9.313;13.188;-12.033;-4.061;2.831
5445109.198;8.792;11.921;-16.466;6.929;13.448;-10.729;-2.161;4.321
5445109.206;10.207;13.448;-10.394;10.952;18.254;-4.470;3.986;9.723
5445109.214;14.044;16.466;-8.084;13.597;20.601;-1.788;7.376;10.841
5445109.222;17.770;19.446;-7.488;14.082;21.942;-4.135;4.657;10.617
5445109.230;21.942;24.959;-3.502;19.148;24.103;-8.047;-0.037;9.723
5445109.238;19.036;23.432;-4.582;16.056;23.134;-14.827;-6.482;2.384
5445109.246;18.328;22.277;-5.290;17.174;26.673;-13.448;-4.284;2.757
5445109.254;19.446;24.512;-3.763;20.154;29.057;-8.903;2.198;5.178
5445109.262;19.930;22.352;-7.153;18.552;23.469;-10.729;0.037;2.645
5445109.270;17.136;20.862;-7.674;17.136;17.658;-14.044;-4.321;3.651
5445109.278;10.766;14.789;-13.411;12.778;13.001;-16.242;-8.158;0.633
5445109.286;8.978;12.442;-16.354;8.717;12.964;-11.809;-5.774;3.912
5445109.294;3.390;6.780;-23.358;0.410;7.264;-15.460;-8.866;-1.751
5445109.302;4.619;9.798;-15.423;6.780;9.127;-12.629;-6.370;-3.427
5445109.310;12.815;17.136;-3.614;12.778;19.856;-4.359;1.974;3.837
5445109.318;8.233;13.113;-7.860;9.127;14.342;-10.915;-4.284;-1.043
5445109.326;11.362;14.678;-7.115;10.915;14.007;-9.499;-4.433;-0.075
5445109.334;14.156;17.434;-0.075;13.933;21.346;-7.153;-2.682;4.247
5445109.342;16.503;20.079;3.390;17.025;21.569;-5.588;-3.688;7.935
5445109.383;17.360;20.601;3.427;20.340;21.011;-3.986;-2.831;8.456
5445109.391;15.348;20.005;6.407;18.403;24.848;-2.533;-0.820;11.660
5445109.399;11.958;15.497;2.570;14.007;19.334;-4.135;-2.682;10.170
5445109.407;9.164;10.170;-0.484;7.413;14.268;-5.700;-4.768;8.233
5445109.415;10.654;10.207;3.502;5.513;18.589;-5.439;-3.800;8.084
5445109.423;11.101;11.139;8.754;4.806;20.489;-4.247;-2.161;9.090
5445109.431;10.766;11.921;8.792;7.935;17.211;-5.178;-1.006;6.706
5445109.439;13.597;16.503;7.413;15.385;14.305;-6.147;0.596;3.874
5445109.447;15.534;17.956;9.313;16.056;20.340;-4.880;1.825;7.711
5445109.455;5.700;9.164;-0.224;6.072;12.778;-11.139;-4.694;1.006
5445109.463;0.857;3.986;0.224;3.278;9.909;-10.990;-4.470;1.341
5445109.471;6.407;8.829;7.935;8.233;16.354;-12.778;-8.494;0.000
5445109.479;16.168;18.328;17.434;16.987;26.412;-6.557;-3.800;3.465
5445109.487;17.472;19.111;20.526;15.646;28.536;-1.937;2.384;5.141
5445109.495;14.789;18.179;18.701;14.976;26.263;0.298;4.135;7.600
5445109.503;17.360;17.546;18.999;13.560;28.387;-0.149;2.459;10.990
5445109.511;19.819;19.260;21.011;15.907;29.057;1.304;4.210;14.454
5445109.519;19.632;20.564;22.203;16.913;28.014;1.676;7.525;14.380
5445109.527;12.778;13.188;15.758;9.537;20.415;-8.084;0.671;4.880
5445109.535;8.568;9.499;15.087;7.041;17.434;-7.711;0.671;5.066
5445109.543;5.886;7.749;12.778;3.278;15.497;-6.594;-0.633;6.184
5445109.551;9.835;10.356;14.007;6.109;18.664;-10.282;-2.682;2.570
5445109.559;13.411;14.827;19.483;11.064;23.209;-6.743;-0.149;5.402
5445109.567;8.754;10.356;15.795;6.333;20.638;-12.591;-7.786;0.671
5445109.532;7.004;9.425;11.660;5.253;17.323;-12.554;-8.009;4.023
5445109.540;7.078;9.947;12.852;4.247;17.248;-9.388;-3.353;5.215
5445109.548;10.915;14.268;18.217;10.505;24.959;-9.276;-1.751;3.576
5445109.556;13.523;17.807;16.727;13.448;21.160;-5.886;2.086;4.396
5445109.564;8.456;14.268;9.388;8.903;13.411;-1.825;5.662;7.115
5445109.572;8.903;12.778;18.030;5.215;29.057;-8.047;-1.863;1.639
5445109.580;14.901;15.311;26.785;4.433;38.259;-8.233;-2.533;2.682
5445109.588;22.165;17.732;33.043;3.092;44.182;-11.548;-7.004;2.868
5445109.596;18.850;16.205;29.728;0.000;40.531;-16.391;-11.139;-3.874
5445109.604;16.093;14.305;27.716;-1.304;39.414;-12.033;-6.035;-0.298
5445109.612;17.993;17.099;29.989;0.931;42.841;-7.190;-0.969;6.333
5445109.620;15.646;14.938;26.375;-2.086;41.164;-14.640;-8.047;-1.863
5445109.628;17.062;16.913;24.773;-1.527;39.898;-21.756;-14.789;-6.296
5445109.636;22.762;22.799;31.032;4.433;47.125;-11.362;-5.402;4.061
5445109.644;22.613;22.240;35.763;4.806;50.589;-0.931;2.906;10.841
5445109.652;16.317;15.981;29.728;0.410;43.623;-5.364;-2.533;5.141
5445109.660;15.274;16.540;27.940;0.112;42.580;-4.359;-1.490;4.023
5445109.668;14.715;15.199;23.469;-1.863;39.153;-0.186;1.118;6.929
5445109.676;14.976;16.578;26.077;-3.465;42.766;7.860;8.494;15.460
5445109.684;5.402;8.754;19.893;-10.431;36.359;2.086;4.061;11.288
5445109.692;5.253;7.451;20.675;-9.164;41.388;-0.484;3.874;11.846
5445109.700;11.921;11.623;24.065;-7.041;43.586;2.198;7.115;16.056
5445109.708;5.439;6.072;15.013;-14.119;34.608;-6.631;-0.969;6.184
5445109.716;4.880;7.451;13.821;-11.660;34.384;-7.264;-1.080;5.327
5445109.671;12.927;15.795;21.905;-1.602;39.414;0.075;5.737;12.890
5445109.679;17.695;20.079;23.320;1.825;42.878;-0.820;3.278;12.480
5445109.687;18.999;21.681;28.908;2.831;46.082;-1.080;2.421;11.288
5445109.695;12.331;14.752;22.352;-4.694;40.382;-9.201;-5.774;0.931
5445109.703;17.919;19.968;22.650;-0.335;43.139;-4.843;0.298;5.998
5445109.711;19.781;21.383;27.418;1.714;44.256;0.373;8.680;13.225
5445109.719;11.250;13.225;17.770;-4.247;34.012;-4.023;2.347;7.600
5445109.727;11.958;13.076;14.268;-4.880;31.479;-3.874;0.186;8.829
5445109.735;10.096;13.188;12.480;-7.600;29.467;-8.568;-4.806;5.588
5445109.743;10.692;15.534;11.735;-5.290;33.863;-5.998;-2.421;6.072
5445109.751;12.368;16.131;15.125;-3.912;41.649;0.410;3.427;11.511
5445109.759;9.574;11.772;15.013;-8.121;38.035;-3.688;-0.633;6.482
5445109.767;5.476;9.499;7.674;-7.711;27.530;-4.880;-1.863;3.316
5445109.775;10.952;15.050;12.442;-3.912;31.330;0.969;3.688;8.270
5445109.783;10.617;15.311;9.835;-1.676;32.522;-2.123;1.937;7.153
5445109.791;10.133;15.162;7.153;0.633;34.533;-2.198;1.341;8.754
5445109.799;10.021;12.852;8.270;-1.676;33.639;-1.043;1.118;8.456
5445109.807;12.666;13.672;11.623;-2.012;36.210;1.565;2.868;8.941
5445109.815;6.445;8.121;5.551;-7.227;32.745;-6.035;-6.035;5.290
5445109.823;8.270;12.368;5.811;-3.539;33.677;-6.109;-6.706;7.041
5445109.831;14.491;15.944;7.115;0.410;35.018;-11.809;-9.537;1.267
5445109.839;16.466;19.036;4.396;5.066;35.577;-18.328;-13.076;-3.017
5445109.847;17.472;21.011;6.594;6.407;38.818;-17.323;-10.654;-0.410
5445109.855;19.446;24.773;10.356;12.144;40.084;-13.411;-4.619;2.384
5445109.832;18.850;25.406;9.686;16.093;41.127;-21.234;-9.984;-7.190
5445109.840;21.420;27.120;12.219;15.385;47.572;-17.472;-9.686;1.676
5445109.848;21.122;27.232;10.915;15.385;44.554;-15.423;-12.256;2.347
5445109.856;13.933;18.924;4.023;6.072;31.143;-19.632;-18.366;-3.465
5445109.864;12.591;17.807;1.751;6.407;30.734;-18.626;-15.795;0.261
5445109.872;4.806;10.096;-8.196;-1.304;25.630;-26.077;-24.065;-6.184
5445109.880;1.267;6.668;-11.399;-5.700;23.916;-27.120;-23.954;-7.935
5445109.888;0.261;7.190;-12.703;-6.780;23.022;-23.022;-19.073;-3.539
5445109.896;0.745;5.402;-15.721;-8.009;18.813;-24.065;-19.930;-3.576
5445109.904;-0.410;4.917;-11.474;-5.960;22.240;-22.314;-18.775;-2.682
5445109.912;4.433;8.903;-6.147;-1.825;28.424;-18.179;-13.709;-1.416
5445109.920;14.305;18.403;2.235;4.955;37.365;-10.282;-4.359;3.055
5445109.928;16.764;21.867;3.316;7.637;38.892;-8.121;1.825;5.327
5445109.936;11.176;16.913;0.410;1.788;31.516;-11.064;-2.570;3.949
5445109.944;12.070;16.466;0.224;1.043;32.559;-9.872;-2.831;7.562
5445109.952;13.560;17.807;3.055;4.135;33.304;-7.562;-1.155;8.382
5445109.960;15.311;20.787;0.410;7.413;32.037;-9.462;-1.974;5.923
5445109.968;14.864;19.483;-3.278;4.992;30.808;-17.062;-9.201;0.410
5445109.976;19.521;24.550;1.341;11.474;37.029;-13.486;-6.370;3.017
5445109.984;20.899;23.842;2.086;10.692;35.912;-12.182;-5.774;8.531
5445109.992;14.044;15.348;-3.204;2.310;30.324;-17.956;-12.890;1.900
5445110.000;9.313;11.921;-10.319;-1.639;23.879;-21.048;-16.093;-3.800
5445110.008;11.064;14.976;-8.233;2.608;22.575;-12.368;-7.786;3.688
5445110.016;9.611;15.162;-9.276;4.061;23.693;-9.164;-4.992;10.468
5445110.029;4.582;10.729;-15.013;0.186;19.744;-14.678;-10.617;5.700
5445110.037;4.917;10.356;-12.852;-0.894;20.489;-8.196;-6.333;12.666
5445110.045;7.078;12.368;-9.388;-0.335;24.661;-7.227;-5.662;7.376
5445110.053;17.360;23.358;3.949;10.580;36.769;-2.906;0.224;12.107
5445110.061;11.995;19.073;-1.751;7.674;27.195;-8.345;-3.912;6.743
5445110.069;3.502;9.835;-11.139;-2.049;15.572;-14.864;-9.537;1.341
5445110.077;-2.198;3.651;-12.293;-7.190;17.285;-12.703;-7.078;4.992
5445110.085;-6.557;0.410;-11.846;-10.729;17.695;-12.480;-4.619;2.943
5445110.093;1.267;7.041;-8.643;-5.215;16.131;-8.084;0.969;4.694
5445110.101;8.568;14.566;-0.931;2.459;18.440;2.049;9.835;13.821
5445110.109;14.901;19.781;10.990;8.903;28.834;13.225;21.495;24.773
5445110.117;12.480;16.242;13.076;4.955;32.522;4.359;13.150;14.380
5445110.125;-1.080;1.788;1.267;-9.649;22.091;-6.668;1.043;5.290
5445110.133;-6.557;-3.129;-4.694;-12.815;17.136;-5.327;0.037;7.674
5445110.141;-13.672;-8.792;-10.282;-17.136;11.586;-7.376;-3.539;6.631
5445110.149;-8.978;-4.582;-5.439;-13.486;12.927;-10.803;-6.594;5.439
5445110.157;-2.719;1.341;1.527;-9.984;16.727;-15.572;-10.617;4.545
5445110.165;1.304;3.427;4.210;-7.451;17.434;-18.515;-12.629;0.633
5445110.173;0.931;2.757;6.668;-7.823;18.664;-21.271;-15.721;-4.917
5445110.181;2.198;5.662;9.462;-4.694;21.271;-17.881;-11.176;-3.166
5445110.189;0.596;4.321;8.941;-5.737;17.956;-19.632;-11.995;-6.892
5445110.197;3.874;7.711;12.591;-2.012;20.191;-14.380;-7.488;-0.261
5445110.205;2.794;7.413;11.548;-1.639;19.595;-11.288;-7.972;4.359
5445110.213;8.717;14.454;18.850;5.774;28.349;-2.347;-0.969;14.156
5445110.209;9.164;14.566;19.148;7.264;26.152;-1.751;3.725;14.007
5445110.217;4.657;9.201;11.064;2.049;16.391;-10.692;-0.559;4.321
5445110.225;3.539;8.792;10.319;1.416;15.721;-13.635;-1.453;3.874
5445110.233;-0.820;5.327;9.350;-0.969;16.429;-18.179;-4.321;3.614
5445110.241;0.112;6.035;8.941;2.161;16.801;-15.013;-1.192;5.588
5445110.249;0.596;6.109;10.915;0.820;13.597;-10.319;2.384;9.462
5445110.257;4.210;7.376;16.578;0.037;19.334;-6.296;4.955;11.548
5445110.265;4.582;7.860;17.099;-0.112;19.893;-6.892;4.806;11.176
5445110.273;1.639;4.806;13.895;-3.651;16.391;-8.494;3.055;6.035
5445110.281;-6.855;-3.092;4.284;-9.947;10.096;-14.827;-4.768;-0.671
5445110.289;-16.950;-10.692;-9.201;-19.297;-1.267;-20.675;-14.044;-4.657
5445110.297;-10.021;-7.041;-0.112;-14.007;2.757;-11.958;-7.227;4.917
5445110.305;-4.768;-1.751;8.382;-7.302;8.941;-9.127;-4.023;6.668
5445110.313;-0.410;3.576;9.649;-2.272;10.841;-11.288;-3.725;2.943
5445110.321;-0.298;3.874;8.047;-0.745;9.723;-14.417;-3.912;-2.235
5445110.329;6.296;10.431;16.950;5.923;17.881;-8.456;3.651;4.098
5445110.337;4.359;8.494;15.497;5.029;20.340;-7.823;3.390;8.382
5445110.345;2.943;6.817;14.156;3.688;17.248;-6.966;3.576;11.772
5445110.353;0.484;5.588;9.872;0.596;14.342;-7.190;1.825;12.070
5445110.361;0.782;4.731;11.027;0.522;14.640;-10.692;-3.017;5.886
5445110.369;3.800;5.290;14.007;-0.708;15.236;-8.643;2.235;6.296
5445110.377;2.533;3.502;12.480;-4.023;15.572;-8.345;3.427;11.660
5445110.385;-3.166;-2.496;8.121;-10.394;13.299;-16.652;-4.247;4.061
5445110.393;-1.304;-1.118;9.947;-9.388;15.385;-20.228;-8.829;1.416
5445110.479;-4.545;-3.912;4.917;-9.611;6.780;-28.946;-16.093;-6.035
5445110.487;0.075;0.857;7.041;-6.109;10.021;-26.673;-13.523;-5.253
5445110.495;5.811;7.078;13.001;0.633;12.629;-19.185;-8.903;2.608
5445110.503;11.660;13.709;22.054;8.196;19.595;-14.566;-4.694;6.296
5445110.511;10.692;10.990;21.197;5.178;22.277;-15.460;-4.359;5.849
5445110.519;-5.774;-5.513;4.619;-12.629;6.184;-24.475;-14.454;-2.123
5445110.527;-12.033;-10.319;-4.247;-17.695;-4.023;-26.226;-16.615;-6.184
5445110.535;-2.533;1.118;3.204;-6.557;3.241;-13.858;-1.863;3.800
5445110.543;-2.384;1.974;0.112;-4.172;1.863;-9.499;3.241;5.923
5445110.551;-3.986;-3.278;-3.763;-7.935;-2.347;-13.076;-1.825;4.470
5445110.559;-3.390;-2.682;-1.080;-8.680;-0.037;-10.170;1.118;7.786
5445110.567;-7.227;-6.631;-2.682;-12.591;0.224;-4.582;6.594;12.368
5445110.575;-6.929;-3.017;-4.880;-4.545;-1.304;-4.917;6.668;10.245
5445110.583;-1.937;3.055;-2.161;0.410;-0.186;-2.310;10.133;12.815
5445110.591;-1.900;2.123;-0.745;-0.745;2.831;-9.499;5.178;4.806
5445110.599;-2.645;0.931;-2.347;0.335;2.645;-11.399;6.296;4.321
5445110.607;-9.239;-7.264;-9.574;-8.829;-5.960;-18.142;-0.037;-1.714
5445110.615;-4.731;-4.955;-4.135;-7.823;-0.298;-16.280;1.714;3.912
5445110.623;-0.857;-0.931;-6.221;-5.178;0.000;-16.056;2.496;2.757
5445110.631;-5.774;-3.800;-9.649;-4.135;-4.023;-21.085;-4.433;-0.745
5445110.639;-15.236;-13.337;-11.437;-14.976;-6.407;-24.922;-11.921;-3.502
5445110.647;-13.970;-11.474;-11.399;-13.746;-4.768;-21.420;-9.537;1.602
5445110.655;-4.619;-3.204;-8.866;-4.023;0.559;-17.807;-3.725;4.694
5445110.663;-5.290;-4.359;-14.231;-6.258;-3.204;-22.054;-5.811;-1.416
5445110.674;-12.368;-10.692;-18.664;-11.139;-9.313;-27.232;-9.052;-4.731
5445110.682;-15.572;-13.076;-22.314;-13.784;-11.362;-23.097;-4.508;-2.235
5445110.690;-8.270;-5.439;-16.056;-4.657;-3.539;-10.990;6.743;8.270
5445110.698;-4.843;-2.459;-10.468;-0.261;0.075;-7.376;10.319;10.952
5445110.706;-8.456;-5.215;-17.323;-2.719;-5.364;-8.345;8.419;7.674
5445110.714;-11.362;-9.276;-21.160;-7.823;-7.525;-12.405;3.353;5.178
5445110.722;-8.717;-7.451;-19.409;-7.711;-4.992;-14.305;0.484;7.860
5445110.730;-6.519;-5.960;-17.472;-6.892;-3.166;-16.801;-2.757;7.078
5445110.738;-9.947;-8.196;-17.881;-8.568;-4.247;-19.334;-6.519;3.092
5445110.746;-4.470;-4.582;-15.162;-3.502;1.378;-13.746;0.559;4.098
5445110.754;-3.316;-2.757;-14.082;-0.484;1.043;-13.486;3.912;2.645
5445110.762;-4.694;-3.166;-17.099;0.186;0.671;-14.938;2.757;1.006
5445110.770;-12.219;-11.735;-24.624;-10.207;-5.402;-19.819;-3.539;-0.484
5445110.778;-9.649;-9.164;-23.469;-7.339;-8.345;-14.342;1.825;7.078
5445110.786;-8.792;-8.382;-24.065;-5.513;-6.184;-11.027;4.731;8.233
5445110.794;-15.311;-16.429;-28.424;-16.317;-6.333;-18.030;-2.310;1.974
5445110.802;-20.489;-20.191;-34.422;-18.179;-10.356;-24.773;-10.505;-4.135
5445110.810;-28.089;-26.338;-41.686;-22.165;-16.689;-30.398;-17.695;-6.966
5445110.818;-29.430;-29.355;-38.631;-25.630;-18.924;-34.980;-21.271;-10.245
5445110.826;-22.687;-24.103;-35.502;-19.707;-15.832;-33.006;-18.999;-7.935
5445110.834;-20.489;-20.824;-35.986;-15.385;-14.417;-34.794;-18.440;-9.909
5445110.842;-14.529;-14.342;-27.604;-9.611;-6.482;-30.473;-13.076;-7.227
5445110.850;-9.239;-9.276;-20.899;-6.631;3.912;-18.179;-1.155;2.421
5445110.858;-11.772;-10.766;-26.003;-7.041;-0.186;-22.613;-5.215;-5.923
5445110.838;-11.362;-8.009;-28.647;-2.757;-2.459;-24.438;-5.923;-8.754
5445110.846;-7.488;-3.874;-24.028;0.671;1.341;-22.724;-4.508;-3.874
5445110.854;-7.302;-7.227;-22.054;-3.614;1.453;-20.191;-3.427;0.000
5445110.862;-3.204;-4.694;-17.583;-2.086;7.264;-15.274;-1.304;7.562
5445110.870;3.614;5.364;-15.050;10.058;10.841;-18.328;-3.353;2.421
5445110.878;7.935;11.548;-13.895;16.429;6.631;-16.838;-0.112;0.484
5445110.886;8.047;12.815;-14.566;18.068;4.619;-13.784;2.980;6.407
5445110.894;-2.906;3.502;-26.822;9.947;-7.488;-17.621;-0.186;2.868
5445110.902;-8.270;-5.923;-34.422;2.086;-13.709;-20.489;-1.453;-0.037
5445110.910;-5.662;-3.837;-29.951;3.874;-9.425;-18.589;1.639;-0.037
5445110.918;-1.974;1.118;-28.163;10.170;-7.451;-14.044;4.694;4.545
5445110.926;-7.935;-5.402;-29.616;3.800;-12.629;-17.099;0.894;4.135
5445110.934;-12.852;-9.015;-34.161;2.682;-12.629;-18.589;-1.714;3.353
5445110.942;-12.852;-9.798;-35.688;1.751;-14.044;-17.695;-1.974;2.533
5445110.950;-7.190;-4.582;-28.424;6.966;-9.723;-15.125;2.198;4.917
5445110.958;-6.333;-1.863;-23.805;11.027;-8.196;-14.715;5.551;4.210
5445110.966;-14.640;-11.101;-32.932;0.484;-18.068;-27.418;-6.743;-9.239
5445110.974;-12.629;-9.499;-29.057;2.757;-17.397;-30.696;-10.505;-9.276
5445110.982;-10.021;-5.104;-20.340;6.109;-9.499;-29.914;-6.482;-8.531
5445110.990;-12.480;-9.388;-20.750;1.453;-11.362;-32.447;-8.009;-10.729
5445110.998;-6.929;-7.078;-15.274;3.912;-6.966;-24.252;0.447;-4.806
5445111.006;-0.261;-1.304;-9.984;8.941;-1.788;-15.646;9.201;3.725
5445111.014;-7.227;-5.849;-20.452;5.253;-13.299;-18.924;4.135;3.204
5445111.022;-7.115;-5.662;-18.105;4.172;-13.560;-19.670;2.906;3.725
5445111.002;-15.348;-13.411;-23.022;-1.565;-21.718;-26.859;-4.247;-6.892
5445111.010;-17.844;-15.646;-27.940;-3.390;-25.481;-24.475;-2.086;-7.413
5445111.018;-11.101;-8.978;-20.042;5.029;-16.652;-14.491;7.525;0.484
5445111.026;-10.058;-7.749;-16.578;3.986;-16.056;-14.678;7.562;0.671
5445111.034;-17.025;-14.976;-20.191;-3.651;-20.154;-23.022;-1.639;-6.482
5445111.042;-15.274;-12.293;-18.328;4.098;-19.670;-24.252;-2.384;-6.370
5445111.050;1.192;5.066;-3.055;21.383;-9.649;-15.236;5.923;6.482
5445111.058;2.608;5.811;-2.123;20.638;-9.276;-15.944;4.545;3.316
5445111.066;1.490;2.831;-5.402;18.701;-14.119;-21.756;-2.347;-2.719
5445111.074;-1.527;-0.671;-7.488;13.188;-16.391;-28.312;-6.966;-7.749
5445111.082;-3.092;-1.192;-9.425;12.480;-17.919;-33.677;-10.505;-13.858
5445111.090;0.484;3.241;-2.570;16.354;-11.772;-31.665;-8.531;-11.586
5445111.098;8.419;9.947;2.682;23.358;-8.456;-26.263;-3.129;-4.657
5445111.106;9.201;10.505;4.694;24.736;-6.370;-21.420;1.565;-0.037
5445111.114;7.898;9.388;3.427;23.767;-7.674;-19.521;2.794;1.676
5445111.122;-0.820;0.633;-2.719;15.572;-16.652;-27.791;-3.763;-9.313
5445111.130;3.688;5.104;2.310;21.718;-12.256;-18.701;4.992;-2.310
5445111.138;-1.490;0.224;-3.017;16.727;-13.895;-17.956;4.955;-0.373
5445111.146;-6.594;-5.290;-6.817;9.499;-16.019;-18.701;4.433;1.006
5445111.154;-9.686;-11.437;-11.884;2.198;-21.867;-20.713;1.863;-1.900
5445111.162;-7.637;-9.276;-12.256;6.109;-21.011;-17.174;5.960;-0.931
5445111.170;-4.433;-7.823;-3.353;8.456;-15.423;-13.672;11.772;5.066
5445111.178;-2.757;-7.413;0.112;8.978;-14.268;-10.058;16.429;9.090
5445111.186;-1.900;-6.109;-1.006;10.394;-11.921;-14.976;10.468;6.258
5445111.183;-5.290;-9.537;-4.843;7.041;-15.199;-20.862;3.874;2.012
5445111.191;-7.562;-12.927;-8.345;2.198;-18.142;-24.997;-2.272;0.000
5445111.199;-9.649;-15.646;-12.033;-0.745;-19.930;-31.292;-9.350;-2.831
5445111.207;-9.276;-14.305;-13.076;2.198;-22.650;-36.061;-13.411;-5.849
5445111.215;-4.955;-7.972;-5.849;10.394;-18.664;-34.384;-10.617;-7.004
5445111.223;-2.868;-5.737;-3.129;10.915;-15.274;-31.516;-6.296;-6.594
5445111.231;5.960;-0.261;1.937;16.242;-9.388;-24.326;1.788;-0.559
5445111.239;10.952;5.327;5.998;22.575;-4.694;-18.179;9.909;4.731
5445111.247;9.649;5.290;3.092;22.873;-6.296;-20.936;7.637;1.341
5445111.255;7.637;3.316;0.596;22.128;-10.803;-23.693;4.694;-0.075
5445111.263;6.631;1.378;0.373;21.160;-13.076;-23.954;6.035;-1.304
5445111.271;3.316;-0.373;-3.353;20.377;-14.938;-22.091;6.966;1.304
5445111.279;2.049;-1.676;-2.123;17.360;-10.729;-20.899;6.072;-0.075
5445111.287;1.974;-1.676;-0.596;16.652;-9.984;-21.495;4.694;-1.565
5445111.295;-9.611;-11.213;-13.746;7.711;-25.854;-27.604;-0.559;-9.574
5445111.303;-21.979;-22.650;-24.885;-2.198;-35.055;-28.871;-3.353;-11.213
5445111.311;-4.582;-8.829;-8.643;9.499;-18.254;-12.852;13.709;3.353
5445111.319;-0.298;-4.098;-6.519;14.156;-15.572;-7.600;19.260;8.494
5445111.327;-3.241;-4.917;-9.611;12.182;-19.185;-10.505;15.236;7.711
5445111.335;0.224;-1.155;-4.284;14.082;-14.566;-7.376;17.323;8.792
5445111.343;8.531;6.668;4.433;23.134;-4.806;-1.565;20.154;14.342
5445111.351;7.674;5.588;3.986;20.005;-5.998;-3.390;18.105;13.039
5445111.359;4.917;2.831;-0.633;17.472;-11.064;-1.825;20.117;15.050
5445111.367;7.711;3.912;2.459;17.881;-7.153;1.490;21.271;18.254
5445111.438;19.558;13.784;15.683;27.381;6.557;10.245;30.436;25.779
5445111.446;18.664;13.299;12.964;28.647;3.278;5.364;26.636;17.025
5445111.454;9.872;8.233;3.502;24.661;-5.960;1.676;21.048;13.672
5445111.462;6.519;3.129;-2.794;17.062;-10.468;6.594;24.810;18.217
5445111.470;5.141;1.676;-4.768;17.025;-14.342;4.098;22.836;15.385
5445111.478;6.184;4.023;-3.353;20.079;-14.864;-0.335;21.122;11.474
5445111.486;13.523;11.176;2.831;27.604;-7.302;1.751;25.593;12.927
5445111.494;10.878;9.574;-4.023;27.977;-13.597;-3.278;21.346;7.004
5445111.502;12.033;12.591;-3.353;33.006;-12.517;1.825;26.077;9.723
5445111.510;20.638;20.303;4.843;39.637;-3.278;12.666;38.072;20.079
5445111.518;16.503;15.460;1.155;36.247;-4.992;7.637;31.888;17.397
5445111.526;8.121;5.290;-6.929;25.816;-7.041;-1.118;21.420;11.921
5445111.534;3.539;-0.633;-15.385;17.770;-13.411;-4.545;16.391;11.437
5445111.542;-0.820;-3.912;-15.572;15.609;-16.689;-6.109;12.852;11.362
5445111.550;2.757;-2.012;-10.282;17.099;-11.884;-8.829;14.082;8.643
5445111.558;10.394;8.047;-4.768;27.567;-7.115;-6.631;20.005;9.388
5445111.566;14.752;12.964;-2.794;31.106;-5.849;-2.384;24.289;10.058
5445111.574;9.909;7.376;-9.350;25.630;-9.462;-5.029;21.160;9.276
5445111.582;6.333;3.688;-12.033;22.538;-12.778;-4.768;19.856;11.474
5445111.590;5.662;2.645;-8.680;19.856;-10.990;-1.863;22.538;13.486
5445111.598;8.829;6.370;-7.525;23.134;-8.121;0.745;25.481;16.987
5445111.606;7.041;5.923;-13.709;21.718;-13.635;-0.633;22.016;18.626
5445111.614;2.608;2.272;-18.999;22.240;-20.303;-11.995;11.735;9.425
5445111.622;0.559;1.937;-19.632;22.538;-19.744;-20.117;7.674;5.104
5445111.648;-6.966;-4.880;-26.785;16.205;-23.581;-29.765;-0.522;-4.433
5445111.656;0.969;3.725;-18.775;23.693;-15.646;-19.893;9.425;-0.410
5445111.664;5.588;9.239;-13.933;29.653;-11.809;-9.686;18.105;8.307
5445111.672;7.562;10.766;-13.150;29.169;-10.505;-4.582;20.266;14.007
5445111.680;5.029;6.370;-15.721;24.997;-12.070;-4.880;18.366;13.411
5445111.688;-4.657;-2.794;-23.097;14.231;-17.919;-11.474;10.841;7.711
5445111.696;-12.442;-11.362;-33.081;4.843;-26.301;-20.191;0.857;3.129
5445111.704;-6.407;-7.339;-30.212;10.170;-22.948;-17.583;1.267;9.313
5445111.712;-6.333;-5.811;-26.822;11.809;-21.718;-18.887;-1.006;7.078
5445111.720;-5.960;-4.470;-24.550;13.746;-18.477;-15.125;3.576;5.960
5445111.728;-0.335;0.335;-23.022;18.999;-17.732;-4.135;14.529;9.760
5445111.736;3.017;2.906;-20.266;19.707;-15.609;-0.149;18.552;10.431
5445111.744;-0.037;-1.676;-19.222;11.735;-14.417;-3.912;13.858;9.574
5445111.752;-6.370;-8.009;-28.126;6.892;-23.022;-16.131;2.049;-0.708
5445111.760;-5.029;-6.668;-29.616;8.531;-20.154;-14.938;3.316;-1.192
5445111.768;-5.290;-8.829;-25.146;6.407;-15.460;-7.898;9.909;5.402
5445111.776;-4.396;-7.153;-21.979;10.282;-11.511;-0.298;15.087;12.182
5445111.784;-3.986;-6.258;-21.160;11.027;-13.262;-1.043;11.697;9.462
5445111.792;-4.135;-5.849;-24.661;9.909;-18.589;-8.419;4.247;1.490
5445111.800;-6.333;-5.923;-27.455;9.574;-20.079;-13.746;-0.112;-4.657
5445111.808;0.708;-1.639;-23.283;15.721;-13.486;-9.611;2.049;0.745
5445111.816;4.955;1.565;-16.168;18.850;-6.109;-4.545;6.147;5.364
5445111.824;3.912;1.602;-15.870;18.850;-9.276;-0.857;10.207;5.774
5445111.832;1.155;-1.304;-20.340;14.938;-14.156;-0.857;9.015;3.427
5445111.860;1.229;-0.224;-18.813;15.162;-14.529;7.153;15.162;7.935
5445111.868;2.794;1.751;-16.354;18.477;-12.405;16.466;25.555;17.099
5445111.876;-4.172;-4.955;-20.117;13.076;-17.546;11.474;22.128;14.193
5445111.884;-6.631;-5.960;-23.246;11.697;-22.203;9.164;17.881;11.511
5445111.892;-1.416;-0.671;-18.328;16.540;-16.391;12.331;19.111;10.021
5445111.900;3.316;2.608;-12.070;19.073;-11.250;12.405;17.919;6.035
5445111.908;11.362;12.666;-3.427;30.845;-4.508;17.211;22.687;7.749
5445111.916;7.637;10.431;-6.482;29.020;-8.605;13.560;18.850;2.682
5445111.924;7.153;9.239;-4.768;28.461;-9.537;15.758;20.564;4.247
5445111.932;3.651;5.849;-8.121;26.263;-13.895;13.933;17.472;6.519
5445111.940;2.347;4.321;-7.078;25.071;-11.958;14.938;20.117;7.264
5445111.948;-2.868;-2.608;-10.580;16.615;-13.746;11.884;17.136;4.582
5445111.956;2.719;1.527;-7.227;22.277;-15.646;10.468;15.423;2.459
5445111.964;-2.682;-5.886;-12.107;11.995;-24.177;2.384;6.482;-7.637
5445111.972;3.539;-1.527;-5.178;13.486;-24.624;-2.906;-1.863;-9.090
5445111.980;9.127;2.533;0.298;16.764;-23.283;0.931;-0.373;-3.949
5445111.988;9.313;3.688;0.075;20.340;-27.642;2.831;1.155;-1.863
5445111.996;9.239;4.992;-0.708;21.271;-12.666;5.998;3.949;1.527
5445112.004;7.637;2.719;3.763;16.764;-2.645;9.388;6.407;2.310
5445112.012;12.070;8.047;7.078;22.724;-4.768;16.429;15.162;8.643
5445112.020;11.697;8.903;7.600;25.518;-8.307;17.248;16.987;7.153
5445112.028;14.082;12.666;17.583;29.467;-4.508;19.632;18.440;9.350
5445112.036;10.245;8.680;11.288;26.040;-11.288;18.850;16.689;5.364
5445112.044;6.370;1.155;5.700;20.266;-16.987;16.354;13.523;-0.075
5445112.038;6.258;0.149;9.052;18.813;-12.331;20.154;16.838;5.662
5445112.046;6.855;3.241;9.835;22.426;-14.193;25.965;25.518;12.591
5445112.054;9.537;6.780;10.692;24.699;-14.938;27.716;28.946;14.901
5445112.062;12.033;9.947;12.927;27.902;-15.050;25.742;27.791;11.325
5445112.070;14.491;11.884;18.738;27.604;-11.176;26.450;29.430;11.511
5445112.078;16.950;14.342;20.787;32.149;-10.952;26.710;31.143;12.591
5445112.086;18.626;17.993;19.521;37.253;-13.188;33.416;38.221;20.340
5445112.094;10.096;8.829;9.313;30.659;-18.999;22.911;28.014;12.890
5445112.102;0.261;-1.825;2.533;18.291;-25.593;7.004;11.735;1.937
5445112.110;3.614;1.080;8.643;19.372;-20.936;10.692;12.740;6.147
5445112.118;3.427;1.825;9.760;20.713;-16.764;9.127;8.941;1.714
5445112.126;6.370;1.416;11.139;19.521;-14.454;6.296;6.109;-3.912
5445112.134;10.617;4.433;16.391;22.054;-10.803;7.004;6.817;-2.049
5445112.142;15.572;10.207;21.942;25.518;-4.172;7.078;6.668;-0.447
5445112.150;16.876;10.729;20.973;26.226;-1.304;5.700;3.912;0.298
5445112.158;15.870;8.866;16.391;25.854;-5.029;4.657;3.874;-2.235
5445112.166;17.807;12.778;22.240;27.567;-2.645;7.302;7.786;-0.559
5445112.174;22.426;19.558;26.859;36.135;1.490;10.580;9.984;1.788
5445112.182;26.003;24.252;27.008;39.414;4.321;17.807;16.466;8.419
5445112.190;22.128;19.781;20.303;35.800;-1.676;17.025;14.938;8.568
5445112.198;15.721;12.666;13.262;29.653;-6.407;13.560;11.586;7.823
5445112.206;14.901;13.746;9.649;30.398;-5.811;15.758;14.417;8.158
5445112.214;15.683;13.672;10.692;30.324;-13.709;19.595;18.403;8.792
5445112.222;16.801;14.193;15.460;30.249;-6.407;19.595;19.111;8.680
5445112.383;18.068;15.311;18.552;31.963;2.012;19.781;17.956;8.009
5445112.391;11.772;6.966;10.170;21.160;-4.955;14.901;12.852;2.235
5445112.399;7.600;4.619;8.158;19.483;-7.190;10.841;8.345;0.112
5445112.407;11.623;5.625;8.419;18.962;-5.551;5.662;4.694;-2.384
5445112.415;16.131;8.829;9.313;22.203;-3.614;6.743;4.917;0.931
5445112.423;28.536;22.277;23.209;37.327;6.407;23.209;20.079;16.838
5445112.431;34.161;27.306;29.132;39.972;13.672;30.771;29.840;21.644
5445112.439;21.458;15.721;17.434;28.536;2.794;17.509;19.744;6.296
5445112.447;14.529;7.823;10.692;21.532;-3.502;13.113;15.683;1.043
5445112.455;12.256;6.817;9.537;21.718;-5.625;14.119;15.423;4.657
5445112.463;11.101;8.121;6.631;22.165;-3.278;17.174;16.987;8.754
5445112.471;18.775;15.758;11.921;27.865;2.272;16.764;14.380;8.494
5445112.479;21.756;17.136;16.578;26.524;4.210;12.405;8.345;5.849
5445112.487;18.924;14.454;14.305;22.762;-2.086;6.482;3.874;1.639
5445112.495;11.399;7.637;7.227;15.683;-8.047;-0.931;-2.794;-3.316
5445112.503;13.895;10.394;7.227;20.228;-5.811;5.029;2.682;4.768
5445112.511;7.711;3.465;1.825;14.380;-9.350;8.233;5.849;5.551
5445112.519;2.272;-2.719;-3.204;9.611;-14.342;10.133;7.004;6.631
5445112.527;-2.012;-8.158;-9.239;1.714;-17.360;5.625;4.098;2.868
5445112.535;-1.974;-7.264;-7.525;1.416;-15.572;5.029;2.906;1.192
5445112.543;13.560;5.364;1.639;13.001;-4.880;13.784;11.921;7.637
5445112.551;13.262;5.327;3.502;15.087;-3.092;12.554;10.878;6.929
5445112.559;12.703;4.880;8.941;13.970;-2.794;12.927;12.442;4.023
5445112.567;24.848;16.652;15.125;24.773;5.998;17.844;20.340;7.935
5445112.639;26.301;18.179;12.219;28.126;7.898;12.331;16.429;4.880
5445112.647;20.303;13.299;10.468;25.406;5.290;6.258;11.921;2.570
5445112.655;9.872;4.172;2.794;16.801;-0.633;-0.149;5.625;-6.296
5445112.663;2.086;-3.651;-6.370;8.419;-10.803;0.410;3.353;-5.029
5445112.671;6.817;0.447;-0.931;11.288;-3.278;8.605;9.425;3.688
5445112.679;5.774;0.596;-3.837;11.548;-5.774;10.692;11.995;3.651
5445112.687;6.370;1.527;-6.817;11.474;-9.611;11.139;12.107;1.378
5445112.695;3.465;-1.527;-13.486;8.307;-13.113;8.047;10.170;-0.261
5445112.703;0.373;-2.943;-14.827;8.084;-14.566;4.247;5.700;-0.298
5445112.711;-2.161;-4.731;-16.093;7.749;-13.560;4.992;7.413;3.017
5445112.719;3.092;-1.490;-10.692;9.388;-8.233;9.909;13.635;7.935
5445112.727;5.141;-0.671;-9.574;9.015;-7.823;9.649;11.958;7.488
5445112.735;4.284;-2.682;-11.548;5.327;-6.519;2.347;3.092;0.373
5445112.743;5.141;-1.006;-10.058;9.090;-5.029;0.857;0.261;-0.112
5445112.751;0.149;-4.396;-13.597;5.476;-9.164;-1.155;-2.570;-3.539
5445112.759;-0.894;-3.949;-16.131;4.172;-10.766;-4.508;-6.147;-8.792
5445112.767;12.219;10.654;-6.817;16.838;1.490;8.978;8.978;3.353
5445112.775;13.486;10.580;-3.278;14.864;2.161;13.039;10.990;8.456
5445112.783;8.717;5.029;-4.731;9.723;-0.894;11.213;9.686;6.557
5445112.791;-0.596;-3.539;-14.193;3.316;-10.543;9.947;7.525;5.364
5445112.799;-4.731;-7.562;-18.589;-2.049;-10.841;10.319;4.955;3.614
5445112.807;5.588;2.421;-9.052;5.066;0.671;12.256;7.041;4.992
5445112.815;14.119;8.717;-5.774;10.096;3.576;8.345;5.662;2.310
5445112.823;23.954;19.372;5.960;21.793;9.350;5.104;5.476;0.522
5445112.849;20.489;17.025;0.261;19.930;3.427;-0.373;0.969;-2.682
5445112.857;21.644;18.179;0.969;18.701;3.949;1.304;1.863;-1.714
5445112.865;30.436;26.524;11.474;26.524;12.554;10.431;9.313;5.625
5445112.873;19.856;17.472;3.055;16.131;4.396;8.903;5.774;5.402
5445112.881;13.933;12.368;-2.868;12.107;3.055;11.437;7.227;8.829
5445112.889;13.076;11.474;-5.215;12.852;1.527;15.311;10.803;10.803
5445112.897;16.838;15.758;-1.937;16.131;2.608;16.615;13.225;12.815
5445112.905;17.658;17.807;-0.969;17.770;2.161;13.262;10.841;10.617
5445112.913;14.566;13.001;-10.803;13.933;-5.849;9.499;8.754;5.439
5445112.921;8.717;7.525;-9.686;9.090;-9.462;11.772;12.368;5.960
5445112.929;5.178;3.837;-8.680;7.600;-9.649;13.933;11.958;6.743
5445112.937;9.760;7.562;-5.327;11.511;-3.390;18.552;15.497;9.723
5445112.945;14.752;12.629;-0.112;18.291;1.304;17.956;14.789;10.319
5445112.953;10.692;8.494;1.788;13.076;-0.671;8.717;6.147;7.935
5445112.961;4.917;2.831;-0.373;6.333;-3.278;-3.278;-3.763;-1.416
5445112.969;15.758;12.517;11.921;16.838;10.096;4.657;4.172;6.258
5445112.977;19.632;15.050;16.540;17.919;11.958;9.499;7.898;12.331
5445112.985;38.333;31.963;31.851;35.688;27.344;27.604;24.587;29.169
5445112.993;26.524;19.521;22.128;23.432;18.887;15.721;11.511;20.899
5445113.001;36.992;31.516;34.645;35.539;28.834;27.679;23.246;40.792
5445113.009;41.761;38.370;39.861;42.096;32.261;32.671;29.877;41.239
5445113.017;20.899;18.999;17.695;25.034;5.737;6.817;7.600;3.837
5445113.025;2.645;0.149;-1.602;7.190;-12.331;-6.706;-5.960;-15.274
5445113.033;2.123;-1.527;-1.490;4.098;-13.933;-6.035;-6.445;-14.007
5445113.072;9.239;4.731;4.210;9.015;-8.196;0.596;-0.745;-5.066
5445113.080;13.597;9.388;14.119;12.144;1.043;5.662;3.986;4.806
5445113.088;17.621;13.486;16.838;16.652;1.229;12.517;11.325;13.970
5445113.096;19.632;12.331;21.905;15.236;2.086;10.803;11.064;14.529
5445113.104;16.876;7.451;26.114;11.697;2.012;6.706;6.631;16.503
5445113.112;11.325;4.843;24.699;10.356;-1.937;6.147;4.880;20.191
5445113.120;18.701;9.984;27.791;15.348;-0.335;15.758;13.411;32.075
5445113.128;19.148;10.841;28.647;16.131;0.708;14.827;11.884;31.367
5445113.136;20.675;12.442;29.989;18.515;-0.596;12.778;10.915;29.430
5445113.144;28.573;18.813;40.866;24.289;8.345;14.082;12.144;31.851
5445113.152;29.206;18.515;42.208;24.252;8.643;14.156;11.250;33.639
5445113.160;24.140;13.039;34.831;20.117;1.267;13.001;9.499;33.230
5445113.168;24.550;14.640;39.488;23.283;3.427;14.678;12.703;30.212
5445113.176;23.544;13.597;40.382;20.266;6.668;8.568;8.754;24.997
5445113.184;19.744;8.382;39.972;12.964;1.527;2.980;2.682;22.277
5445113.192;19.446;7.227;38.333;12.890;0.894;2.719;0.931;23.618
5445113.200;26.524;14.417;42.692;17.397;8.531;9.649;8.382;31.479
5445113.208;27.940;16.391;45.449;19.372;13.188;12.517;12.666;33.304
5445113.216;22.203;9.611;45.225;12.852;8.866;7.786;7.786;26.785
5445113.224;25.816;11.399;45.151;15.348;8.792;12.554;11.176;30.063
5445113.232;28.126;15.870;46.082;20.638;9.537;20.452;20.117;37.029
5445113.240;25.816;13.448;43.623;15.609;11.176;12.629;14.640;24.885
5445113.248;18.030;6.370;32.894;10.319;2.235;15.348;17.807;25.555
5445113.256;23.469;9.835;43.064;12.554;12.778;19.968;21.271;33.490
5445113.328;25.965;11.176;46.305;11.921;12.890;9.462;11.250;24.065
5445113.336;29.914;15.572;46.454;15.609;14.007;9.462;8.941;24.475
5445113.344;33.937;20.340;47.684;18.589;18.440;9.872;9.164;24.587
5445113.352;34.161;21.867;45.635;20.713;16.317;11.809;12.107;28.089
5445113.360;30.622;19.930;45.188;20.340;16.652;12.070;14.491;28.424
5445113.368;31.851;20.936;43.921;22.165;16.652;8.196;12.480;21.756
5445113.376;31.143;20.266;43.511;21.569;19.036;8.196;11.958;23.283
5445113.384;27.567;18.999;38.818;21.271;15.795;6.482;9.611;21.495
5445113.392;33.230;23.358;40.233;24.661;17.323;10.207;14.044;23.767
5445113.400;44.890;33.267;45.598;34.794;26.487;22.799;26.524;36.843
5445113.408;41.872;30.585;48.093;31.702;26.673;15.199;18.254;31.441
5445113.416;37.476;28.685;48.243;29.169;25.444;9.239;13.076;25.854
5445113.424;37.514;28.275;45.262;27.753;25.183;16.838;21.718;31.739
5445113.432;34.980;25.406;42.841;27.567;24.475;17.062;23.730;31.106
5445113.440;23.507;15.236;31.218;17.658;16.317;5.066;13.113;18.254
5445113.448;25.555;18.291;30.138;21.979;14.901;3.800;14.156;15.311
5445113.456;28.461;20.973;31.702;23.469;16.168;3.763;13.970;13.858
5445113.464;31.963;21.830;34.384;22.836;23.507;-0.335;7.972;10.505
5445113.472;34.645;24.363;38.892;25.928;28.349;3.427;10.096;16.019
5445113.480;33.975;25.146;38.445;27.083;27.008;9.537;15.311;20.973
5445113.488;38.408;27.157;37.812;28.908;27.642;11.027;15.460;16.652
5445113.496;36.806;25.257;39.935;24.214;28.014;5.662;9.313;10.729
5445113.504;35.949;26.412;35.577;25.854;21.718;3.576;6.855;15.609
5445113.512;35.614;28.312;32.336;28.349;21.532;-0.894;4.061;14.678
5445113.510;41.611;35.204;37.774;35.055;28.908;0.894;8.307;18.775
5445113.518;40.010;32.969;39.041;31.292;30.473;-0.335;8.382;17.434
5445113.526;38.296;30.361;37.067;30.361;27.642;-5.737;5.290;8.494
5445113.534;38.929;30.845;31.851;28.461;27.567;-6.929;3.688;4.545
5445113.542;32.485;26.152;20.377;24.475;14.976;-9.201;0.037;2.831
5445113.550;28.759;21.756;20.936;20.415;10.617;-6.109;2.570;4.098
5445113.558;22.128;14.193;14.938;15.050;6.929;-5.811;2.161;4.023
5445113.566;21.681;14.640;12.368;16.615;10.319;-6.072;1.341;5.104
5445113.574;27.865;19.446;17.732;18.962;16.466;-4.321;2.384;8.792
5445113.582;29.877;22.054;23.060;21.122;18.626;-4.619;1.155;8.345
5445113.590;32.894;23.916;26.748;23.656;21.271;-5.439;-0.186;3.986
5445113.598;34.459;22.575;25.705;21.048;19.781;-4.657;-1.155;8.233
5445113.606;37.923;26.636;27.493;24.587;22.389;-2.123;0.186;9.760
5445113.614;40.457;30.696;29.169;28.424;26.673;2.719;6.109;12.964
5445113.622;40.792;32.447;30.026;28.796;28.796;7.227;10.803;17.658
5445113.630;36.284;28.163;25.555;21.905;22.203;2.459;7.898;12.144
5445113.638;28.126;20.526;12.070;14.566;7.562;-0.149;6.407;8.121
5445113.646;32.373;22.613;18.701;16.838;16.131;8.419;13.970;17.770
5445113.654;34.049;21.644;27.269;13.784;28.536;1.639;6.258;13.262
5445113.662;34.124;22.613;24.773;15.795;28.014;0.820;5.215;11.474
5445113.670;30.808;20.675;19.595;15.013;21.756;3.763;10.058;13.411
5445113.678;19.632;10.505;5.215;4.433;6.594;-1.602;6.855;7.264
5445113.686;13.970;5.439;-1.118;-0.820;0.820;-4.172;1.751;8.047
5445113.694;23.954;15.795;9.499;10.282;13.225;3.278;6.966;18.328
5445113.658;15.646;8.605;2.459;3.874;9.835;-4.321;1.006;11.995
5445113.666;10.096;3.316;-3.651;-1.043;3.390;-6.817;-0.671;10.766
5445113.674;8.829;3.129;-1.378;-1.825;2.943;0.782;4.880;18.552
5445113.682;5.551;0.373;-4.359;-3.800;0.410;-0.186;2.347;13.374
5445113.690;8.382;0.112;-4.061;-3.949;1.006;-4.135;-4.992;10.543
5445113.698;5.960;-2.012;-6.333;-8.345;2.123;-8.158;-9.723;12.815
5445113.706;-3.204;-10.468;-18.701;-16.801;-8.941;-18.515;-16.913;2.682
5445113.714;7.451;-1.937;-4.657;-8.903;1.714;-10.245;-5.029;4.731
5445113.722;15.609;6.445;5.253;-0.224;11.362;0.596;5.998;15.907
5445113.730;11.288;3.874;-1.751;-2.757;4.545;-0.559;5.849;12.740
5445113.738;3.725;-3.129;-10.841;-9.537;-3.055;-4.955;2.757;6.445
5445113.746;-0.931;-8.829;-16.391;-14.007;-6.445;-4.992;0.969;9.164
5445113.754;-3.837;-13.188;-19.819;-18.142;-10.468;-4.955;-0.522;7.302
5445113.762;-4.210;-11.325;-15.162;-13.337;-7.041;-3.427;1.155;7.376
5445113.770;-0.224;-5.253;-8.531;-6.221;-0.112;2.049;6.109;12.703
5445113.778;-2.906;-7.637;-13.560;-8.270;-6.519;-2.757;0.745;5.066
5445113.786;-9.611;-15.423;-21.718;-16.540;-18.030;-15.348;-13.001;-8.978
5445113.794;-7.041;-13.076;-18.366;-12.070;-16.540;-17.025;-14.380;-7.637
5445113.802;-5.811;-11.809;-15.013;-11.846;-12.964;-15.572;-12.890;-1.192
5445113.810;-7.860;-13.299;-16.205;-14.231;-13.113;-16.242;-13.672;-4.359
5445113.818;-9.090;-13.188;-14.119;-13.411;-15.199;-13.076;-10.133;-5.364
5445113.826;-6.482;-10.468;-10.319;-9.723;-14.193;-5.327;-2.310;-1.006
5445113.834;10.431;5.178;4.061;7.898;1.416;9.947;13.076;10.952
5445113.842;7.525;4.433;3.390;5.513;-2.645;5.364;8.121;7.488
5445113.868;5.923;0.037;7.339;0.335;-4.284;-3.576;0.559;-0.224
5445113.876;11.176;4.247;14.193;4.508;2.831;-0.931;2.868;3.427
5445113.884;12.815;6.817;16.764;6.296;6.929;0.186;3.837;3.241
5445113.892;0.522;-5.066;5.662;-5.290;-5.700;-11.921;-9.760;-5.737
5445113.900;-5.327;-10.170;0.261;-9.090;-12.815;-12.852;-12.405;-5.290
5445113.908;-1.937;-7.413;2.347;-7.115;-9.835;-11.437;-10.021;-6.370
5445113.916;6.966;2.459;10.803;3.614;-2.421;-2.012;-0.075;-0.969
5445113.924;8.196;3.390;11.474;6.445;-2.533;6.631;7.376;5.625
5445113.932;1.378;-3.278;7.823;0.000;-6.817;2.831;3.017;3.204
5445113.940;-1.751;-6.780;3.912;-4.880;-11.027;-2.310;-1.043;-2.310
5445113.948;3.725;-0.745;7.749;1.267;-5.700;0.112;1.155;0.894
5445113.956;4.321;0.149;10.096;0.559;-6.147;-4.545;-4.098;-4.396
5445113.964;7.525;4.210;14.007;1.751;-5.513;-5.886;-5.588;-3.129
5445113.972;15.162;10.133;19.781;6.817;1.714;-0.298;0.261;3.278
5445113.980;16.391;8.382;21.197;5.439;4.768;-0.224;0.633;1.900
5445113.988;10.058;1.453;18.477;0.037;2.161;-1.751;-0.149;-2.980
5445113.996;6.147;-2.012;12.405;-2.794;-3.204;1.825;3.837;2.086
5445114.004;-2.868;-8.978;3.129;-9.425;-12.442;1.155;2.347;2.682
5445114.012;-0.037;-5.215;6.407;-4.768;-8.605;6.743;6.557;8.531
5445114.020;7.153;1.453;16.019;0.373;-1.602;11.660;9.760;16.093
5445114.028;2.496;-2.235;9.350;-2.757;-10.468;2.235;-1.043;8.792
5445114.036;4.992;1.490;10.431;1.192;-6.594;-2.049;-4.359;1.937
5445114.044;3.427;0.745;8.531;-1.118;-7.041;-0.820;-2.310;-0.559
5445114.052;4.582;0.894;12.033;-2.049;-3.651;6.557;5.923;6.594
5445114.093;-1.118;-6.147;8.866;-8.047;-9.462;1.378;1.043;0.633
5445114.101;-6.929;-12.256;2.235;-12.629;-16.801;-7.451;-7.600;-8.531
5445114.109;-6.594;-10.841;3.017;-13.523;-15.162;-10.431;-8.754;-8.307
5445114.117;-3.390;-10.803;1.751;-15.125;-14.231;-14.082;-12.293;-5.811
5445114.125;-7.823;-15.721;-1.267;-20.750;-17.360;-20.228;-19.856;-7.004
5445114.133;-14.603;-22.575;-5.886;-27.120;-22.985;-21.867;-22.762;-10.356
5445114.141;-11.921;-20.228;0.522;-25.593;-17.993;-15.497;-17.695;-6.147
5445114.149;-1.192;-7.190;10.096;-11.846;-9.090;-7.376;-9.276;1.006
5445114.157;2.868;-0.633;10.319;-2.719;-9.947;-7.972;-9.350;-4.284
5445114.165;-1.416;-5.290;6.109;-9.164;-13.076;-17.323;-18.217;-12.368
5445114.173;0.894;-4.508;6.668;-10.170;-9.239;-15.236;-16.838;-8.047
5445114.181;2.943;1.565;10.766;-1.900;-7.562;-3.912;-6.780;4.098
5445114.189;3.539;0.261;13.895;-1.416;-2.980;-1.304;-3.763;6.407
5445114.197;1.788;-4.470;12.778;-5.811;-0.484;-6.296;-8.941;1.453
5445114.205;-3.949;-9.947;4.023;-9.611;-10.431;-13.635;-15.199;-11.027
5445114.213;-3.800;-11.995;3.316;-9.947;-12.293;-13.746;-12.442;-12.740
5445114.221;-0.484;-8.009;7.451;-7.302;-8.084;-9.425;-7.600;-9.276
5445114.229;3.166;-3.316;9.425;-3.651;-8.605;-7.860;-4.619;-7.898
5445114.237;9.239;3.800;14.678;1.863;0.522;-2.794;1.937;-2.682
5445114.245;3.837;0.075;6.221;-1.490;-6.147;-3.278;0.186;-1.676
5445114.253;-10.841;-14.789;-8.903;-15.795;-20.973;-11.511;-10.058;-9.611
5445114.261;-12.666;-18.068;-3.688;-19.744;-21.122;-13.970;-14.342;-12.070
5445114.269;-6.817;-10.058;3.614;-10.319;-15.162;-10.878;-13.299;-5.476
5445114.277;-8.717;-11.735;-0.335;-11.660;-19.036;-13.150;-15.944;-2.719
5445114.276;-15.609;-21.569;-10.729;-21.718;-26.226;-20.228;-22.836;-10.021
5445114.284;-14.976;-20.489;-9.090;-23.171;-22.799;-12.740;-18.589;-2.272
5445114.292;-4.433;-9.984;2.570;-12.740;-10.580;2.719;-4.992;10.170
5445114.300;0.224;-3.427;5.923;-6.258;-7.227;7.935;3.129;9.388
5445114.308;-5.402;-9.835;-0.447;-13.672;-12.591;6.631;4.619;4.694
5445114.316;-4.768;-10.319;1.341;-11.176;-12.703;8.643;9.760;5.923
5445114.324;-3.874;-7.935;3.390;-6.519;-10.058;8.121;11.213;3.465
5445114.332;-5.662;-10.170;1.155;-9.537;-11.772;3.427;5.998;1.155
5445114.340;-6.370;-9.760;-1.118;-9.201;-14.938;3.614;4.359;4.061
5445114.348;-6.594;-5.513;-0.671;-4.321;-13.150;5.141;3.316;4.470
5445114.356;-10.654;-14.082;-6.631;-14.380;-20.713;-1.639;-5.588;-1.825
5445114.364;-5.141;-9.798;-2.570;-10.021;-17.062;1.900;-2.086;5.253
5445114.372;0.224;-4.657;2.421;-3.688;-9.686;-1.006;-2.496;0.559
5445114.380;3.725;0.186;4.843;1.602;-6.370;-3.353;-5.141;-2.608
5445114.388;4.582;1.639;5.215;0.186;-3.949;-0.857;-3.390;0.745
5445114.396;0.633;-2.161;2.794;-3.427;-5.700;-0.149;-3.837;-0.410
5445114.404;4.321;1.043;6.184;-1.006;-2.757;9.760;5.923;7.227
5445114.412;2.012;-1.304;5.849;-4.321;-8.084;5.327;2.570;0.075
5445114.420;2.384;0.112;2.906;-3.017;-5.774;2.682;-0.447;-0.857
5445114.428;-1.863;-4.396;-0.447;-6.855;-5.960;-3.017;-6.668;-2.980
5445114.436;-13.299;-15.534;-6.855;-17.472;-13.150;-8.494;-14.566;-5.253
5445114.444;-18.813;-19.670;-12.703;-22.426;-18.068;-13.672;-19.968;-11.884
5445114.452;-7.190;-10.952;-5.215;-13.784;-11.548;-7.227;-11.660;-6.743
5445114.460;5.141;1.006;3.949;-2.831;-0.596;-0.671;-4.023;-1.416
5445114.440;2.533;-2.198;2.421;-7.562;-1.192;-3.055;-7.004;-1.341
5445114.448;1.416;-3.502;2.049;-6.780;-1.825;-3.576;-7.898;-1.751
5445114.456;-2.868;-5.662;-0.745;-8.345;-2.533;-4.768;-9.537;-5.290
5445114.464;-3.539;-5.439;-0.410;-8.829;-2.161;-0.745;-5.923;0.745
5445114.472;4.359;3.465;5.551;1.043;4.433;10.766;5.774;11.362
5445114.480;3.129;3.241;1.453;1.416;-2.012;13.970;9.052;14.603
5445114.488;-7.749;-10.058;-7.302;-14.268;-5.811;-1.229;-6.892;-0.075
5445114.496;-8.009;-9.760;-6.631;-14.938;-2.906;-2.235;-9.201;1.006
5445114.504;-9.239;-9.015;-9.276;-12.964;-5.588;-3.465;-10.021;-5.476
5445114.512;-4.992;-5.141;-6.258;-8.605;-4.470;1.714;-4.508;-2.086
5445114.520;0.633;-1.267;-2.570;-5.178;0.075;6.109;1.267;2.310
5445114.528;-12.070;-13.486;-14.976;-17.472;-13.746;-2.347;-5.811;-5.141
5445114.536;-16.354;-16.578;-17.248;-20.489;-17.881;-4.508;-9.276;-3.465
5445114.544;-14.640;-14.603;-16.317;-16.093;-16.019;-5.662;-8.903;-4.359
5445114.552;-10.282;-11.437;-10.841;-15.311;-9.798;-2.161;-10.207;0.745
5445114.560;-16.652;-17.323;-17.807;-19.893;-18.366;-5.066;-12.666;-7.823
5445114.568;-15.907;-16.689;-16.466;-19.334;-17.099;-0.224;-6.966;-8.754
5445114.576;-14.715;-14.901;-13.411;-16.503;-14.976;2.719;-1.937;-6.333
5445114.584;-14.603;-16.280;-13.821;-17.919;-16.280;-1.118;-7.041;-7.041
5445114.592;-15.795;-18.738;-13.597;-22.352;-18.924;3.576;-5.141;-2.980
5445114.600;-20.042;-22.389;-18.775;-24.587;-21.495;8.643;-0.857;0.447
5445114.608;-23.618;-22.464;-21.011;-23.730;-24.475;10.207;3.576;1.788
5445114.616;-19.297;-17.285;-11.139;-17.546;-19.260;15.758;9.350;8.047
5445114.624;-15.646;-18.030;-6.333;-17.509;-18.887;11.660;6.557;3.241
5445114.604;-17.770;-19.483;-7.935;-19.073;-20.340;6.519;2.943;-2.906
5445114.612;-27.008;-27.753;-17.546;-27.530;-31.628;1.900;-2.310;-5.811
5445114.620;-28.983;-30.100;-18.403;-29.840;-30.100;0.447;-4.284;-4.806
5445114.628;-27.679;-28.610;-15.683;-28.014;-28.238;-0.410;-5.625;-4.545
5445114.636;-21.122;-23.581;-7.376;-24.587;-22.203;2.980;-1.751;-1.825
5445114.644;-16.540;-18.366;-1.043;-21.085;-15.423;6.817;0.671;0.708
5445114.652;-23.209;-23.693;-5.476;-27.120;-19.558;-0.484;-7.190;-8.978
5445114.660;-22.128;-21.309;-8.047;-21.011;-20.862;-0.075;-7.711;-8.345
5445114.668;-22.128;-21.346;-7.749;-22.240;-20.862;4.061;-4.433;-5.886
5445114.676;-18.552;-20.079;2.906;-19.781;-14.640;8.270;0.186;-2.459
5445114.684;-13.560;-13.784;11.027;-15.013;-5.998;14.678;8.233;5.588
5445114.692;-16.913;-20.452;4.694;-23.209;-15.050;3.017;-3.278;-5.215
5445114.700;-21.458;-22.873;-0.224;-23.767;-22.799;-5.923;-11.921;-14.715
5445114.708;-14.417;-12.852;6.184;-12.740;-14.789;4.470;-2.794;-3.837
5445114.716;-13.113;-9.835;1.341;-10.766;-16.168;6.482;-0.037;-4.508
5445114.724;-12.740;-10.245;1.118;-12.070;-17.136;8.270;1.863;-3.166
5445114.732;-19.781;-16.876;0.820;-18.626;-21.830;8.233;-0.075;-2.570
5445114.740;-24.289;-23.134;-4.806;-23.432;-25.816;2.980;-5.737;-7.786
5445114.748;-17.881;-16.987;-0.857;-18.068;-20.340;2.421;-5.215;-8.307
5445114.756;-13.337;-13.448;6.668;-15.609;-13.746;-3.166;-10.580;-11.772
5445114.764;-9.537;-10.431;13.560;-12.964;-10.133;-2.421;-10.394;-7.525
5445114.772;-12.368;-14.454;11.362;-17.285;-9.350;-2.049;-10.133;-9.686
5445114.780;-12.293;-13.709;11.213;-15.125;-9.686;4.061;-4.210;-4.880
5445114.788;-7.488;-8.717;12.815;-8.568;-9.798;6.557;-4.508;0.484
5445114.858;-21.830;-22.799;-2.459;-21.048;-25.667;-9.537;-19.744;-17.956
5445114.866;-16.727;-17.360;2.496;-17.099;-20.079;-5.998;-15.944;-12.033
5445114.874;-11.474;-11.846;6.966;-11.735;-15.348;-3.092;-13.709;-7.190
5445114.882;-10.468;-10.468;6.557;-12.405;-13.113;-4.284;-13.299;-7.488
5445114.890;-2.459;-2.235;15.795;-4.359;-3.390;3.874;-3.912;-1.267
5445114.898;-7.823;-6.892;12.554;-9.313;-7.413;5.141;-1.937;-2.980
5445114.906;-7.786;-7.264;13.784;-10.096;-6.519;6.557;-3.688;-3.204
5445114.914;-1.006;-1.825;19.968;-5.029;0.224;11.958;-0.373;4.470
5445114.922;-4.247;-4.843;21.160;-8.754;0.298;6.706;-4.284;-1.229
5445114.930;-6.519;-7.413;17.658;-12.293;-4.694;1.453;-10.245;-8.941
5445114.938;-14.976;-18.254;7.264;-25.816;-12.778;-0.671;-12.890;-8.941
5445114.946;-11.325;-11.623;9.984;-13.672;-11.139;-1.229;-13.113;-8.456
5445114.954;-7.823;-5.476;11.027;-6.855;-11.139;-0.224;-10.543;-8.158
5445114.962;-6.966;-4.061;10.841;-4.172;-10.580;-4.880;-15.646;-12.629
5445114.970;-3.688;0.894;12.219;1.602;-11.064;0.745;-10.580;-5.774
5445114.978;-9.276;-7.860;6.780;-8.158;-15.423;-3.576;-13.784;-9.686
5445114.986;-3.465;-3.465;13.001;-4.135;-9.872;1.863;-6.966;-4.806
5445114.994;-2.123;-0.633;12.144;0.894;-11.176;6.407;-3.614;0.298
5445115.002;-6.482;-5.215;8.792;-4.582;-12.144;2.235;-8.792;-5.849
5445115.010;-15.311;-13.411;0.186;-13.337;-22.016;-3.874;-15.572;-10.878
5445115.018;-27.828;-27.269;-13.523;-26.934;-34.794;-9.499;-22.016;-15.162
5445115.026;-20.564;-21.867;-8.978;-23.618;-26.710;-0.708;-14.007;-6.594
5445115.034;-17.472;-19.372;-4.210;-21.048;-21.383;2.943;-10.245;-2.310
5445115.042;-17.621;-18.626;-3.651;-18.850;-22.948;1.863;-7.637;-4.433
5445115.085;-17.434;-18.477;-1.490;-19.111;-16.429;2.943;-5.253;-3.129
5445115.093;-31.814;-30.622;-14.789;-32.969;-26.710;-6.817;-15.870;-14.454
5445115.101;-34.980;-36.061;-21.830;-37.365;-32.708;-8.717;-21.420;-16.391
5445115.109;-28.461;-32.485;-15.944;-32.783;-28.834;-4.061;-17.323;-9.723
5445115.117;-18.030;-21.793;-2.831;-22.762;-18.068;1.900;-10.096;-3.874
5445115.125;-14.715;-15.795;-1.341;-16.913;-17.956;4.880;-6.892;-1.080
5445115.133;-19.260;-19.073;-8.084;-20.675;-22.762;-0.671;-12.480;-6.706
5445115.141;-19.073;-18.664;-9.723;-20.824;-21.644;-3.800;-15.870;-11.325
5445115.149;-17.025;-17.025;-4.545;-19.744;-19.893;-1.080;-14.789;-8.941
5445115.157;-11.958;-11.176;0.335;-13.374;-18.328;3.763;-9.127;-3.092
5445115.165;-14.752;-11.586;-7.898;-12.591;-23.954;5.737;-6.519;0.484
5445115.173;-16.466;-14.789;-7.004;-16.913;-22.687;4.619;-7.637;0.075
5445115.181;-12.033;-11.735;-2.757;-12.815;-17.211;4.917;-8.680;-0.037
5445115.189;-11.325;-11.623;-4.321;-12.368;-14.156;7.413;-8.643;1.751
5445115.197;-15.311;-15.460;-6.743;-17.360;-18.254;10.431;-7.153;3.278
5445115.205;-13.933;-14.491;-4.955;-16.987;-18.030;16.652;-0.186;7.264
5445115.213;-16.801;-15.497;-7.339;-16.540;-18.589;16.280;1.378;4.284
5445115.221;-20.601;-20.862;-11.325;-21.048;-20.452;18.477;2.906;5.923
5445115.229;-19.483;-18.775;-13.784;-18.850;-22.016;12.517;-1.565;1.676
5445115.237;-16.652;-14.752;-14.566;-14.268;-27.046;7.339;-4.172;-2.086
5445115.245;-18.291;-15.981;-14.678;-15.870;-26.077;4.321;-9.947;-1.676
5445115.253;-19.893;-17.397;-17.025;-16.987;-26.301;0.857;-16.280;-6.333
5445115.261;-18.440;-16.615;-16.280;-17.583;-22.464;3.278;-15.907;-6.296
5445115.269;-11.288;-11.288;-7.413;-12.070;-16.801;5.253;-12.517;-6.221
5445115.249;-7.637;-6.743;-5.476;-5.737;-15.348;9.499;-5.662;-2.757
5445115.257;-5.402;-2.384;-3.949;-1.602;-14.119;13.150;0.484;3.651
5445115.265;-3.539;-0.112;-1.118;1.937;-7.823;13.895;2.533;6.706
5445115.273;-6.855;-4.061;-2.012;-1.453;-8.196;10.841;-1.900;5.923
5445115.281;-14.231;-13.225;-9.499;-11.325;-16.466;4.210;-9.872;-5.588
5445115.289;-11.139;-10.915;-11.288;-9.835;-19.744;12.591;-3.465;-0.522
5445115.297;-15.162;-12.033;-19.483;-9.201;-25.928;17.993;1.267;4.917
5445115.305;-18.850;-14.789;-18.738;-12.480;-26.226;18.366;2.086;7.600
5445115.313;-13.746;-9.537;-11.250;-6.072;-20.042;20.936;6.035;11.027
5445115.321;-8.419;-5.029;-8.047;-3.316;-13.374;24.661;9.611;14.305
5445115.329;-12.480;-10.580;-12.554;-11.101;-20.117;20.340;3.949;8.941
5445115.337;-13.523;-11.735;-13.970;-13.113;-21.197;20.042;2.384;10.729
5445115.345;-13.076;-11.399;-14.007;-10.580;-19.409;18.030;0.820;9.313
5445115.353;-16.652;-13.225;-18.366;-11.772;-24.103;14.529;-0.373;6.147
5445115.361;-14.268;-12.331;-15.311;-11.101;-21.681;12.740;-2.235;4.806
5445115.369;-4.061;-3.204;-6.780;-1.080;-12.591;17.360;1.155;7.637
5445115.377;-4.135;-2.980;-6.855;-1.863;-14.529;17.099;0.745;5.700
5445115.385;-11.623;-9.798;-12.219;-7.190;-21.718;10.543;-5.700;-1.714
5445115.393;-19.111;-17.323;-19.483;-14.864;-27.940;4.880;-11.586;-6.817
5445115.401;-14.417;-12.890;-14.529;-11.027;-22.836;6.370;-10.952;-3.614
5445115.409;-7.525;-6.296;-7.115;-4.359;-16.689;11.548;-5.439;2.570
5445115.417;-15.795;-12.703;-14.864;-8.717;-22.650;7.786;-9.798;-2.980
5445115.425;-17.770;-15.460;-14.640;-12.778;-21.681;12.591;-8.307;-1.937
5445115.433;-9.164;-4.694;-5.662;-1.155;-13.970;20.713;0.447;1.304
5445115.398;-4.545;0.857;1.565;3.986;-10.543;23.320;5.029;1.602
5445115.406;0.522;2.198;6.557;4.135;-7.376;24.140;6.445;5.849
5445115.414;-1.416;0.224;3.166;3.465;-8.270;29.020;10.170;12.368
5445115.422;-8.419;-7.488;-1.751;-3.017;-15.125;24.475;2.347;10.729
5445115.430;-11.921;-11.362;0.596;-7.451;-14.864;18.477;-4.917;5.290
5445115.438;-14.156;-14.417;1.639;-13.448;-14.715;17.174;-7.525;3.912
5445115.446;-22.352;-23.134;-4.135;-21.681;-19.036;14.007;-11.437;2.272
5445115.454;-17.248;-17.025;-1.006;-12.703;-17.174;13.895;-12.293;1.378
5445115.462;-20.340;-19.334;-6.817;-13.150;-24.736;12.815;-13.895;-3.390
5445115.470;-18.217;-15.572;-4.843;-11.325;-22.575;18.179;-8.531;3.986
5445115.478;-19.409;-15.721;-4.284;-10.580;-25.891;14.454;-11.288;3.241
5445115.486;-21.048;-15.758;-5.178;-9.425;-23.767;14.976;-8.158;3.166
5445115.494;-18.217;-16.093;-4.135;-10.617;-21.495;16.950;-6.594;2.906
5445115.502;-10.543;-10.207;2.645;-5.513;-15.274;17.621;-4.321;2.719
5445115.510;-7.041;-5.253;7.898;0.522;-9.499;17.807;-4.135;8.047
5445115.518;-14.342;-11.474;2.906;-2.682;-15.125;13.486;-11.064;3.241
5445115.526;-16.578;-15.087;1.267;-8.829;-15.050;13.039;-15.162;1.490
5445115.534;-11.250;-9.909;6.296;-4.619;-10.505;19.781;-8.866;7.115
5445115.542;-9.052;-7.264;11.064;-2.198;-7.711;22.687;-2.608;8.233
5445115.550;-14.268;-11.250;3.465;-7.302;-14.752;20.862;-2.794;8.494
5445115.558;-16.913;-14.752;-1.453;-11.623;-19.744;13.188;-8.047;1.043
5445115.566;-16.168;-14.566;-1.490;-12.107;-20.675;11.101;-8.456;-0.745
5445115.574;-21.420;-18.775;-3.465;-15.087;-21.122;14.678;-5.439;0.224
5445115.582;-27.828;-24.736;-10.990;-21.309;-27.753;13.709;-8.680;-1.267
5445115.563;-27.567;-25.854;-13.150;-22.054;-29.728;16.950;-6.631;0.633
5445115.571;-21.867;-18.999;-9.090;-13.672;-22.762;25.034;2.570;5.253
5445115.579;-22.352;-18.850;-9.798;-13.709;-24.289;25.518;3.278;6.445
5445115.587;-16.987;-13.411;-2.719;-7.786;-18.403;28.163;5.439;9.723
5445115.595;-15.609;-11.064;0.820;-4.843;-15.944;31.255;8.531;13.001
5445115.603;-17.211;-14.603;-1.565;-9.313;-18.775;28.946;3.949;13.076
5445115.611;-16.913;-15.423;-4.619;-11.362;-21.569;22.762;-2.570;10.878
5445115.619;-17.993;-17.285;-2.831;-12.368;-17.472;19.558;-5.178;8.419
5445115.627;-22.203;-22.762;0.149;-19.707;-16.317;25.518;-0.112;11.884
5445115.635;-10.654;-8.121;10.282;-3.166;-9.313;29.765;2.794;14.156
5445115.643;-9.611;-3.912;7.898;1.602;-13.225;26.897;-1.080;11.809
5445115.651;-8.084;-3.092;5.551;1.341;-18.328;22.314;-3.763;5.364
5445115.659;-2.794;-1.416;10.096;1.602;-13.821;17.472;-7.786;-1.080
5445115.667;-5.215;-1.378;7.711;-1.565;-16.429;13.821;-10.170;-3.465
5445115.675;-6.892;-1.937;4.880;0.596;-19.558;12.591;-10.505;-3.390
5445115.683;-9.052;-3.837;3.539;-1.751;-20.377;10.282;-11.437;-6.780
5445115.691;0.186;5.662;14.603;10.431;-8.233;20.079;-2.496;5.811
5445115.699;4.210;9.537;16.764;15.460;-3.055;27.791;5.513;9.686
5445115.707;5.849;10.580;20.191;13.039;-1.788;34.831;11.101;11.101
5445115.715;6.743;11.250;24.885;11.995;-0.410;36.508;12.442;14.603
5445115.723;2.682;7.227;18.030;10.207;-5.029;31.330;7.115;10.319
5445115.731;-1.974;3.912;10.729;4.843;-9.984;31.702;7.898;11.474
5445115.739;-5.402;1.565;10.617;3.688;-9.127;35.465;13.560;13.672
5445115.747;-5.625;-2.049;9.574;1.639;-8.680;42.878;17.360;18.477
5445115.807;-9.127;-6.743;7.115;-3.092;-9.462;45.560;17.025;17.472
5445115.815;-11.586;-8.494;3.278;-3.614;-13.076;38.184;9.276;9.760
5445115.823;-16.168;-10.282;-5.402;-5.700;-20.340;33.453;4.284;6.668
5445115.831;-16.168;-10.803;-6.221;-7.302;-20.079;29.951;1.006;7.115
5445115.839;-14.044;-8.419;-3.502;-5.290;-19.111;26.859;-0.671;6.258
5445115.847;-12.033;-6.407;-3.837;-2.049;-17.770;23.134;-4.917;1.118
5445115.855;1.043;6.780;7.525;11.027;-6.594;32.596;5.029;9.388
5445115.863;-4.023;1.416;2.161;3.949;-10.617;30.734;3.278;5.104
5445115.871;-7.115;-1.639;-1.602;0.596;-14.789;25.071;-0.782;-6.519
5445115.879;1.378;7.078;5.513;9.127;-5.811;32.857;6.333;2.757
5445115.887;-1.639;4.098;0.522;4.843;-7.376;31.926;4.433;5.886
5445115.895;2.868;5.774;8.643;5.327;-0.335;35.502;7.376;10.505
5445115.903;3.129;6.109;7.749;6.780;-1.565;37.961;9.909;10.170
5445115.911;-2.459;2.161;-2.496;4.582;-8.866;37.923;10.654;6.557
5445115.919;-6.855;-2.794;-3.353;0.782;-10.505;37.998;9.760;5.886
5445115.927;-10.841;-7.339;-4.433;-3.427;-12.219;36.843;6.109;3.874
5445115.935;-4.545;-2.235;0.894;-1.267;-6.780;40.382;8.941;9.649
5445115.943;3.614;5.476;6.184;5.290;1.416;48.056;17.956;17.919
5445115.951;-2.161;0.484;-1.229;1.416;-4.694;45.970;17.472;13.523
5445115.959;2.161;4.545;0.745;4.470;-2.384;55.246;27.195;23.395
5445115.967;-1.341;2.421;-2.496;3.837;-5.141;56.587;28.349;24.736
5445115.975;-5.476;-2.161;-7.153;-1.155;-11.325;51.223;22.016;22.575
5445115.983;-2.868;-2.310;-6.184;-0.969;-11.884;44.107;12.927;18.664
5445115.991;-3.949;-1.080;-6.109;0.857;-10.207;39.861;8.643;13.672
5445116.000;-5.253;-2.757;-8.568;0.075;-9.201;41.090;8.717;13.560
5445116.008;-12.442;-9.835;-18.254;-10.133;-18.552;32.745;1.080;4.657
5445116.016;-17.360;-14.678;-24.028;-15.199;-24.512;23.954;-5.737;-0.261
5445116.024;-18.142;-16.689;-22.687;-15.572;-24.401;22.128;-6.855;-0.298
5445116.032;-12.629;-11.884;-16.168;-10.617;-17.509;25.555;-5.178;4.657
5445116.040;-7.786;-7.451;-11.995;-8.382;-12.107;31.292;0.037;9.276
5445116.048;-2.943;-2.123;-10.058;-1.565;-8.829;34.608;4.955;10.468
5445116.056;4.694;6.966;-4.172;9.052;-3.092;44.331;15.274;18.589
5445116.064;-3.986;-1.118;-14.827;2.943;-11.101;37.029;9.947;8.941
5445116.072;-5.327;-2.198;-13.970;0.894;-9.052;37.290;8.829;9.872
5445116.080;-4.880;-0.857;-11.735;2.533;-9.686;37.663;8.829;12.927
5445116.088;-1.229;0.671;-9.649;1.118;-10.580;36.322;9.350;12.368
5445116.096;1.304;3.055;-3.800;2.421;-4.508;37.104;11.697;14.231
5445116.104;-6.817;-5.476;-12.890;-6.072;-12.405;33.528;7.749;10.952
5445116.112;-4.023;-2.570;-11.735;-2.794;-9.611;38.743;8.121;16.987
5445116.120;2.645;4.023;-4.098;3.092;-1.453;44.219;10.952;19.595
5445116.128;-0.298;-0.633;-8.419;-1.825;-5.625;36.992;4.843;12.256
5445116.136;0.186;0.782;-9.835;-0.224;-7.041;36.620;6.855;11.921
5445116.144;-5.104;-2.794;-12.405;-3.576;-9.239;36.210;9.239;12.033
5445116.152;-9.798;-6.184;-14.789;-4.359;-12.070;38.967;12.890;14.827
5445116.160;3.465;6.482;-1.863;6.519;0.708;40.457;14.715;16.540
5445116.168;6.445;9.388;1.602;7.637;1.453;39.525;10.654;15.274
5445116.176;13.374;17.807;9.499;17.174;5.364;43.139;14.342;16.838
5445116.184;18.291;21.867;15.311;21.420;9.425;46.790;19.111;20.117
5445116.163;21.346;23.022;16.876;21.271;9.909;44.890;18.552;16.727
5445116.171;19.446;22.389;16.056;19.483;8.121;39.600;14.119;9.015
5445116.179;14.715;18.626;13.523;17.323;5.029;37.216;10.021;9.574
5445116.187;15.907;18.738;17.360;19.632;8.754;45.151;19.185;15.721
5445116.195;8.792;11.958;15.423;14.491;2.906;46.194;21.644;15.870
5445116.203;5.886;9.164;13.411;12.368;1.043;39.674;13.560;14.305
5445116.211;9.649;14.640;17.285;16.466;2.496;42.096;15.572;18.813
5445116.219;6.258;11.995;14.901;13.188;-0.410;41.015;15.050;16.801
5445116.227;-1.639;5.700;1.155;8.941;-11.921;38.110;12.480;11.586
5445116.235;0.969;7.786;5.700;11.995;-9.015;45.113;17.695;20.713
5445116.243;-6.817;-1.900;5.253;1.378;-9.798;38.855;13.113;11.921
5445116.251;-4.284;0.112;10.468;2.198;-4.359;38.967;16.242;11.660
5445116.259;3.166;8.009;17.732;11.437;1.788;47.274;24.103;23.916
5445116.267;4.545;8.494;14.305;13.448;-4.172;46.343;24.401;26.636
5445116.275;-1.937;1.974;8.717;4.955;-10.766;38.259;18.068;18.403
5445116.283;-1.863;1.043;8.382;1.453;-8.792;31.069;10.766;12.107
5445116.291;2.943;7.600;14.678;9.984;-0.484;30.883;11.437;11.958
5445116.299;7.823;14.082;21.607;17.807;4.582;35.204;17.174;16.317
5445116.307;5.364;11.772;20.526;17.583;0.261;39.637;21.830;16.503
5445116.315;1.304;7.376;17.509;13.374;-2.459;41.276;22.501;19.707
5445116.323;-4.061;1.416;13.448;8.009;-4.172;36.247;17.770;18.999
5445116.331;-2.831;2.310;13.188;6.780;-4.806;38.818;22.240;21.309
5445116.339;-13.411;-8.009;-3.129;-1.751;-20.340;23.693;8.158;6.892
5445116.347;-13.150;-6.966;-0.186;0.298;-17.099;25.705;8.531;8.829
5445116.313;-11.213;-4.172;1.341;2.831;-10.617;30.994;13.635;11.288
5445116.321;-8.345;-3.390;3.316;-0.037;-2.980;37.067;19.148;16.727
5445116.329;-2.682;2.459;9.909;3.800;6.184;42.431;24.289;20.862
5445116.337;3.949;10.058;15.236;11.623;11.362;43.921;27.008;22.911
5445116.345;-0.298;5.923;11.921;6.817;4.247;31.851;17.323;11.250
5445116.353;2.123;6.482;16.056;9.499;8.382;30.175;16.205;10.394
5445116.361;-3.241;1.676;10.692;4.508;5.923;27.679;13.150;9.872
5445116.369;-7.525;-2.906;6.631;0.410;3.092;24.624;9.574;10.319
5445116.377;-2.570;0.931;6.668;3.725;3.316;22.985;10.133;7.860
5445116.385;3.353;6.370;12.852;7.860;8.196;24.326;11.027;11.139
