Timestamp,AFz,AF3,AF4,AF7,AF8,Pz,P3,P4,2024-04-18 12:17:07.720,fs=125
3027758.697;111.088;105.128;109.226;111.498;107.326;62.101;80.243;108.369
3027758.705;113.398;100.918;114.329;98.981;113.845;64.820;80.168;109.933
3027758.713;117.086;110.604;118.576;109.598;119.209;64.634;79.125;108.778
3027758.721;116.788;110.604;118.352;111.051;114.553;62.995;78.082;103.638
3027758.729;117.756;113.025;114.366;116.378;107.363;69.141;84.639;104.979
3027758.737;118.725;114.068;114.925;120.476;110.269;71.898;88.811;106.506
3027758.745;120.811;116.490;120.997;120.327;120.923;68.806;88.364;101.887
3027758.753;121.295;117.719;122.003;121.705;120.513;65.751;83.558;100.546
3027758.761;110.865;118.725;109.524;109.337;98.832;58.711;73.612;95.516
3027758.769;103.638;100.657;103.377;99.763;94.883;52.266;64.224;89.258
3027758.777;108.443;95.814;106.692;91.456;99.279;59.530;68.769;97.528
3027758.785;107.624;105.612;105.351;100.583;93.132;64.485;71.898;100.508
3027758.793;105.202;104.830;108.331;104.308;106.171;61.542;69.253;95.479
3027758.801;97.603;86.986;104.159;90.636;106.990;54.166;61.952;85.868
3027758.809;96.597;87.693;101.551;81.770;95.218;54.799;63.255;83.968
3027758.817;103.600;97.267;104.681;90.376;101.849;58.897;67.241;88.476
3027758.825;107.326;109.635;103.973;104.159;102.073;60.461;70.632;89.295
3027758.833;101.067;96.112;99.838;99.540;91.530;59.418;70.520;88.438
3027758.841;101.998;97.640;103.973;99.204;96.224;64.597;74.208;93.542
3027758.849;99.763;92.201;104.830;91.009;100.546;59.828;69.551;88.364
3027758.857;93.877;89.183;94.622;85.384;89.034;56.922;66.012;85.495
3027758.865;85.942;79.088;92.052;73.239;84.564;54.166;60.350;82.515
3027758.873;87.656;81.323;96.783;78.157;96.820;54.091;56.364;83.894
3027758.881;96.150;92.387;103.340;82.329;103.377;62.250;64.000;90.115
3027758.877;100.285;100.210;104.792;85.272;95.777;65.044;65.528;90.525
3027758.885;99.279;93.952;104.494;92.797;96.224;68.210;69.663;92.015
3027758.893;103.563;103.749;111.125;104.010;103.638;76.555;80.578;94.809
3027758.901;99.987;107.512;103.079;100.993;92.313;75.400;81.211;89.742
3027758.909;96.709;104.457;101.514;90.152;87.954;66.310;74.282;79.833
3027758.917;96.597;102.408;101.291;85.980;94.064;56.997;64.746;71.228
3027758.925;95.181;93.281;95.963;81.696;97.901;57.518;63.665;73.388
3027758.933;89.556;78.939;98.385;73.314;90.860;55.917;61.207;72.680
3027758.941;88.699;84.750;99.801;80.392;92.946;56.177;59.120;73.425
3027758.949;87.731;89.072;99.018;68.471;89.295;59.642;60.908;77.784
3027758.957;97.714;105.165;108.592;84.043;98.944;71.898;71.228;88.774
3027758.965;97.901;99.465;107.586;77.970;99.838;79.311;75.772;94.734
3027758.973;86.240;78.380;93.170;61.132;79.423;75.884;71.041;87.358
3027758.981;82.962;73.574;89.295;60.722;81.100;69.253;63.926;78.753
3027758.989;87.693;81.472;92.499;70.184;86.725;70.333;64.410;80.764
3027758.997;89.332;83.297;92.573;68.024;79.796;69.998;63.293;79.051
3027759.005;88.997;90.525;91.456;62.883;80.094;69.924;61.691;78.902
3027759.013;78.194;75.176;79.870;49.025;69.216;72.792;64.000;78.864
3027759.021;85.011;88.848;88.625;62.659;80.504;63.069;53.532;69.924
3027759.029;106.655;103.563;116.751;69.179;111.721;60.797;49.062;70.184
3027759.037;116.043;102.147;129.044;68.620;119.060;71.786;57.928;81.584
3027759.045;130.944;120.588;142.790;68.136;133.216;80.578;64.597;91.940
3027759.053;127.517;120.401;141.412;64.783;128.411;69.626;52.117;82.478
3027759.061;124.164;111.200;133.850;61.058;119.135;68.545;51.260;82.664
3027759.071;119.247;108.443;130.944;56.550;124.164;65.342;49.770;80.094
3027759.079;116.788;108.927;131.205;67.055;123.307;59.269;46.007;71.563
3027759.087;123.419;118.613;131.503;70.632;122.599;62.697;51.372;73.910
3027759.095;119.172;118.390;128.113;66.198;118.129;54.836;44.294;64.857
3027759.103;123.344;115.074;134.818;65.677;135.005;59.791;48.801;68.434
3027759.111;140.816;133.663;152.476;86.874;152.476;75.661;63.628;83.819
3027759.119;125.282;112.876;139.959;62.063;126.138;69.477;55.656;78.380
3027759.127;118.874;100.173;131.875;57.817;126.064;67.167;52.154;77.933
3027759.135;125.803;131.391;134.557;86.576;134.930;65.342;50.962;78.939
3027759.143;117.794;117.943;126.772;65.789;121.109;53.309;39.227;68.583
3027759.151;102.557;90.189;114.404;36.396;105.910;36.731;24.997;53.979
3027759.159;104.904;88.364;112.392;43.772;101.961;37.216;26.971;55.768
3027759.167;108.629;102.706;115.186;62.101;111.721;36.582;28.238;55.805
3027759.175;110.753;101.440;122.711;55.432;122.748;35.763;30.920;52.154
3027759.183;114.627;103.638;126.138;47.386;122.860;42.506;37.476;57.742
3027759.191;114.776;114.292;123.978;61.393;118.800;40.382;33.304;56.401
3027759.199;107.884;107.884;119.805;60.648;106.469;35.800;27.791;51.893
3027759.207;101.142;97.752;109.524;54.203;102.930;30.622;22.799;48.988
3027759.215;86.240;75.251;96.932;25.071;105.053;25.481;17.397;42.692
3027759.223;84.601;69.514;103.079;18.701;107.214;31.851;22.836;46.752
3027759.231;92.760;84.676;110.269;37.849;103.787;38.408;29.095;51.782
3027759.239;87.582;84.601;101.849;31.106;93.803;37.700;27.046;49.993
3027759.247;85.607;72.978;98.795;23.246;91.940;41.462;29.393;54.576
3027759.255;79.870;62.250;92.983;22.575;89.332;37.625;25.034;49.844
3027759.251;76.443;64.000;83.447;19.632;79.013;35.129;21.346;47.050
3027759.259;70.743;61.505;87.544;7.749;83.409;33.937;21.756;43.996
3027759.267;69.812;65.416;90.040;5.960;89.444;27.642;16.391;38.408
3027759.275;60.834;46.492;78.455;-6.929;75.512;28.238;17.546;37.104
3027759.283;39.637;30.398;53.160;-32.447;46.529;21.793;12.070;29.095
3027759.291;28.908;22.016;40.457;-38.743;35.204;23.320;11.809;30.547
3027759.299;15.683;-4.061;30.026;-61.542;24.997;25.593;11.548;32.857
3027759.307;1.937;-9.499;11.697;-65.118;6.743;22.054;7.488;27.232
3027759.315;-3.017;-13.970;8.754;-58.301;5.178;21.309;6.855;27.157
3027759.323;-7.451;-25.742;5.327;-73.351;17.099;23.358;8.941;28.126
3027759.331;-5.886;-20.005;10.356;-77.821;20.489;23.842;8.568;30.585
3027759.339;-14.454;-19.521;-0.373;-69.886;5.849;7.674;-7.637;16.876
3027759.347;-13.597;-28.089;-0.931;-72.196;-0.186;7.786;-6.147;17.509
3027759.355;3.166;1.602;21.383;-60.014;14.938;17.621;5.215;28.908
3027759.363;14.007;21.905;40.196;-43.772;46.045;23.507;14.119;30.585
3027759.371;9.090;4.582;34.012;-44.927;42.692;26.189;17.732;28.275
3027759.379;-3.763;-12.033;18.068;-62.324;19.558;24.810;17.174;22.016
3027759.387;-12.591;-17.099;8.382;-75.959;11.548;28.126;21.234;20.303
3027759.395;-14.007;-16.093;8.084;-77.933;8.903;36.880;26.152;28.946
3027759.403;-19.707;-17.025;5.141;-73.574;-3.651;33.937;19.111;27.120
3027759.411;-22.799;-26.040;8.792;-92.201;12.703;25.816;7.972;23.581
3027759.419;-37.663;-43.884;-7.823;-104.606;1.006;5.774;-12.517;8.382
3027759.427;-39.823;-50.142;-11.660;-105.649;-12.629;-6.743;-24.810;-1.304
3027759.435;-28.126;-26.785;-0.484;-84.005;-10.356;-13.374;-29.691;-6.594
3027759.446;-27.902;-18.850;-2.272;-90.152;-3.166;-18.664;-33.043;-12.182
3027759.454;-27.344;-23.991;-6.706;-95.293;-0.782;-15.385;-28.461;-6.892
3027759.462;-20.452;-16.540;10.543;-84.154;2.831;-2.421;-15.981;3.800
3027759.470;-11.474;-9.611;22.724;-55.507;21.681;26.263;11.623;23.432
3027759.478;-6.892;-5.662;26.859;-71.339;29.951;38.892;21.234;31.367
3027759.486;-22.389;-16.093;9.425;-91.605;-0.224;40.755;18.738;30.138
3027759.494;-30.585;-34.496;2.757;-99.279;2.831;49.472;26.152;38.072
3027759.502;-39.041;-41.462;-6.631;-120.588;-8.419;46.603;23.171;36.694
3027759.510;-51.931;-50.850;-16.242;-122.562;-13.076;28.163;4.582;19.073
3027759.518;-51.782;-52.378;-18.515;-119.582;-17.956;18.440;-5.066;11.437
3027759.526;-53.011;-58.226;-20.489;-128.448;-28.647;15.870;-6.966;9.425
3027759.534;-37.141;-28.722;2.123;-102.073;-5.141;15.572;-5.774;7.488
3027759.542;-27.642;-27.828;10.543;-97.565;17.881;21.085;0.186;9.499
3027759.550;-20.526;-10.617;17.695;-92.126;4.470;29.355;8.680;13.188
3027759.558;-15.013;-3.353;21.644;-79.311;-0.037;34.869;15.981;14.827
3027759.566;-19.558;-15.609;14.827;-89.891;4.731;41.276;26.375;16.242
3027759.574;-20.675;-19.222;16.056;-113.063;10.580;48.652;34.794;20.750
3027759.582;-15.162;-4.396;24.438;-84.154;18.515;54.911;40.382;27.567
3027759.590;-17.770;-2.980;17.062;-84.564;5.178;56.773;41.798;28.722
3027759.598;-25.071;-19.521;14.044;-93.915;-8.643;49.658;34.459;22.314
3027759.606;-26.934;-28.871;14.603;-108.033;-1.006;42.953;27.791;17.658
3027759.614;-14.007;-6.743;28.759;-93.393;17.211;44.778;30.398;22.426
3027759.622;1.006;15.646;35.390;-68.471;21.718;53.309;41.351;33.751
3027759.630;12.368;29.430;49.025;-63.144;30.734;56.662;46.194;39.376
3027759.642;16.503;34.012;56.997;-68.322;37.625;57.220;47.125;43.586
3027759.650;16.727;30.547;58.040;-56.922;33.565;56.066;45.896;45.039
3027759.658;14.044;15.609;56.624;-63.106;42.096;59.716;49.435;48.839
3027759.666;13.672;26.152;61.914;-63.367;44.629;63.181;53.085;51.223
3027759.674;23.246;53.272;67.949;-38.072;42.655;73.910;67.875;59.754
3027759.682;30.324;52.862;67.800;-34.273;36.918;86.389;84.825;69.439
3027759.690;27.604;39.786;68.061;-39.227;25.295;90.897;89.668;73.910
3027759.698;26.152;31.218;77.412;-57.332;42.841;88.103;86.166;73.873
3027759.706;39.116;69.961;88.885;-20.228;79.274;88.140;83.186;77.784
3027759.714;42.021;70.222;85.868;-11.399;69.067;92.499;84.974;85.942
3027759.722;32.969;46.790;72.420;-40.941;46.976;84.937;75.698;83.894
3027759.730;40.717;62.361;85.384;-17.658;62.883;82.217;73.053;82.664
3027759.738;29.653;50.589;80.504;-29.951;45.784;79.498;72.122;80.094
3027759.746;34.310;74.096;88.662;-19.781;49.174;86.389;80.094;86.464
3027759.754;31.255;64.336;81.919;-20.638;39.712;94.697;88.923;92.201
3027759.762;34.086;69.216;83.148;-28.387;35.651;99.503;96.522;93.766
3027759.770;41.723;81.062;84.974;-18.477;33.937;104.830;103.004;93.281
3027759.778;54.128;88.476;96.112;2.533;46.827;119.992;117.980;105.985
3027759.786;52.229;94.362;97.305;5.104;47.386;118.949;114.925;105.277
3027759.794;46.305;93.915;94.287;11.884;61.989;110.045;102.557;97.156
3027759.802;50.440;91.791;96.820;3.651;67.204;118.539;107.102;109.300
3027759.810;44.294;91.270;90.078;6.072;50.887;119.470;103.526;112.765
3027759.818;33.677;71.153;79.870;-14.007;40.084;115.670;98.944;107.214
3027759.826;44.592;83.521;94.995;-8.419;49.174;125.915;110.492;114.813
3027759.836;55.581;92.201;112.057;11.288;57.891;140.592;122.152;128.224
3027759.844;64.634;107.624;115.186;25.593;66.049;148.751;128.336;136.197
3027759.852;71.041;123.903;117.905;51.074;68.508;143.237;123.978;130.907
3027759.860;73.574;117.235;119.060;45.449;72.196;145.398;127.442;132.099
3027759.868;81.174;124.350;128.262;48.690;73.723;150.576;132.434;135.377
3027759.876;83.223;127.293;135.079;39.525;75.959;145.920;127.144;130.571
3027759.884;79.907;124.462;128.187;40.717;61.691;139.549;117.868;123.754
3027759.892;68.583;101.030;112.504;26.822;43.623;141.524;116.490;125.207
3027759.900;68.024;96.187;112.429;13.635;43.474;147.745;122.525;133.850
3027759.908;87.917;134.706;135.265;47.162;81.174;157.952;132.509;144.169
3027759.916;100.583;151.470;148.974;81.956;93.915;170.395;145.063;154.600
3027759.924;101.849;141.561;148.267;80.615;85.086;183.284;158.250;163.652
3027759.932;94.697;139.587;138.320;62.995;67.577;184.588;159.778;159.927
3027759.940;92.201;136.457;141.039;59.865;67.912;180.677;154.078;151.657
3027759.948;87.954;122.674;135.191;68.024;62.846;179.745;150.651;148.080
3027759.956;81.696;109.002;126.958;49.993;54.576;171.885;143.051;138.357
3027759.964;90.972;143.349;135.861;70.930;63.889;167.638;140.294;135.899
3027759.972;93.579;132.658;132.099;67.763;60.312;170.246;142.343;139.847
3027759.980;104.606;145.137;157.654;72.680;75.549;172.742;141.561;145.175
3027759.988;100.806;148.751;155.121;84.750;85.495;166.446;133.887;138.916
3027759.996;92.126;136.569;140.853;80.243;69.179;166.409;133.440;135.563
3027760.004;87.246;121.556;131.615;64.634;43.288;174.530;141.226;141.822
3027760.012;95.628;132.322;141.487;70.482;55.544;188.015;154.302;154.451
3027760.020;98.720;144.094;141.077;82.403;62.138;187.121;154.041;152.327
3027760.032;101.700;139.251;143.908;84.601;56.587;186.786;154.003;150.986
3027760.040;115.186;149.496;163.764;94.287;68.136;193.715;160.597;158.437
3027760.048;114.217;147.857;161.231;92.164;76.666;192.747;161.491;157.505
3027760.056;102.855;130.311;145.622;81.435;58.673;185.966;155.084;149.757
3027760.064;109.002;143.051;153.407;93.319;56.252;183.359;147.820;151.359
3027760.072;111.386;147.484;158.250;94.213;68.657;189.357;151.843;155.531
3027760.080;112.988;149.421;162.609;96.709;66.832;187.419;146.441;155.233
3027760.088;121.556;157.207;167.899;104.234;75.400;194.386;152.253;164.062
3027760.096;123.158;154.823;168.011;114.031;69.402;196.844;155.829;163.987
3027760.104;123.605;150.390;166.483;105.835;61.356;198.372;157.729;162.572
3027760.112;128.560;158.511;169.277;110.306;69.663;202.842;162.162;164.881
3027760.120;140.890;173.561;180.081;126.846;78.939;210.628;168.644;171.438
3027760.128;142.753;165.626;182.241;129.789;76.778;209.734;166.632;170.395
3027760.136;139.475;155.233;183.582;112.578;77.747;204.742;160.262;165.738
3027760.144;145.584;169.203;184.402;125.952;78.939;209.957;164.658;170.767
3027760.152;150.092;184.886;185.519;130.348;81.919;209.026;161.976;172.704
3027760.160;149.943;182.874;188.090;131.465;87.172;197.925;150.092;164.099
3027760.168;157.543;176.355;197.776;143.610;92.015;204.779;159.256;171.997
3027760.176;156.201;177.622;195.727;134.967;83.894;204.518;161.566;170.618
3027760.184;167.936;196.844;206.828;158.697;96.075;211.447;169.501;176.616
3027760.192;176.989;203.140;212.863;168.011;113.957;224.449;181.831;190.549
3027760.200;164.956;187.531;197.142;148.118;91.381;217.073;173.897;182.390
3027760.208;169.761;190.027;204.891;145.249;91.754;220.016;178.218;186.227
3027760.216;173.785;198.036;204.705;159.554;101.179;221.767;178.888;187.755
3027760.226;174.195;191.629;203.066;159.703;91.232;221.431;178.404;187.643
3027760.234;178.516;199.080;209.026;160.523;102.594;214.055;171.959;181.049
3027760.242;188.574;215.918;218.228;186.376;112.727;218.414;178.665;186.227
3027760.250;189.953;212.416;214.428;183.955;103.340;222.512;182.353;191.107
3027760.258;178.479;190.772;207.797;159.666;94.436;209.250;169.054;178.032
3027760.266;188.947;203.401;222.921;175.387;106.916;217.780;179.298;187.010
3027760.274;207.312;231.080;237.376;205.748;129.826;224.002;184.104;194.684
3027760.282;202.283;225.380;225.939;201.575;122.562;215.024;174.716;186.078
3027760.290;202.172;213.124;227.764;182.800;120.848;215.694;178.181;185.892
3027760.298;205.263;219.643;234.284;191.592;119.954;220.202;185.259;188.164
3027760.306;216.551;234.954;243.112;212.491;129.901;241.250;210.740;204.407
3027760.314;217.520;233.613;244.826;209.920;128.187;242.032;212.938;205.785
3027760.322;210.404;224.002;236.221;198.185;119.917;231.788;201.836;197.180
3027760.330;204.779;213.124;228.435;189.915;118.800;220.351;184.886;190.772
3027760.338;209.771;216.775;233.948;202.693;124.872;223.666;189.692;193.492
3027760.346;195.727;205.599;217.631;200.756;114.739;209.026;173.561;180.267
3027760.354;201.464;208.281;224.449;197.180;116.825;220.016;182.167;190.064
3027760.362;216.477;228.621;239.685;219.867;127.777;234.321;195.242;201.017
3027760.370;230.744;236.519;250.712;234.544;142.343;242.479;204.965;204.854
3027760.378;228.882;224.896;250.861;216.439;147.410;243.559;206.120;203.997
3027760.386;230.484;223.517;254.028;214.614;147.745;240.281;200.272;203.140
3027760.394;230.744;231.788;253.208;235.401;146.441;227.354;187.792;192.896
3027760.402;225.753;224.970;243.634;231.154;141.039;219.755;182.018;186.190
3027760.410;233.054;223.480;253.133;227.764;153.147;223.070;185.408;191.294
3027760.406;235.550;228.025;255.071;231.750;151.396;224.598;185.780;190.586
3027760.414;242.591;237.376;260.137;251.643;148.937;231.788;191.964;195.317
3027760.422;254.251;244.342;274.926;246.800;161.715;245.348;204.407;207.014
3027760.430;262.149;265.390;284.240;266.396;193.007;252.910;210.851;213.049
3027760.438;240.393;241.511;258.237;254.437;167.117;235.029;192.858;195.317
3027760.446;230.707;229.739;251.159;239.164;152.849;225.417;181.794;187.680
3027760.454;221.170;213.683;242.814;225.343;142.567;221.021;177.138;183.582
3027760.462;221.692;213.943;240.617;227.019;143.088;225.380;179.671;186.265
3027760.470;227.094;228.174;245.124;234.358;141.747;227.764;180.528;189.319
3027760.478;231.080;226.907;244.863;238.605;143.424;231.415;187.568;192.225
3027760.486;231.862;213.459;250.600;227.094;160.895;238.903;196.099;197.850
3027760.494;231.117;221.543;249.483;231.192;158.213;243.671;201.054;199.974
3027760.502;226.833;229.478;243.485;232.086;146.627;233.129;189.394;186.972
3027760.510;223.406;220.574;240.430;226.721;147.708;224.821;177.696;178.330
3027760.518;230.148;219.271;247.099;224.821;145.547;229.105;183.135;182.018
3027760.526;236.854;224.672;249.669;228.509;148.863;231.452;184.104;186.563
3027760.534;236.258;232.756;249.036;248.067;154.376;231.043;180.751;187.159
3027760.542;228.472;216.626;245.757;233.799;155.494;227.131;175.498;181.235
3027760.550;213.571;199.899;228.062;206.009;140.890;228.658;179.633;177.883
3027760.558;221.394;215.806;232.123;221.059;135.936;238.568;190.735;184.588
3027760.566;228.696;225.417;236.109;228.956;141.785;239.797;192.113;184.327
3027760.574;218.675;212.975;225.902;220.276;128.970;228.882;179.149;174.493
3027760.582;204.630;196.397;208.095;201.836;118.464;218.675;167.936;165.366
3027760.590;206.865;190.996;219.233;193.454;134.632;220.537;169.203;169.538
3027760.602;205.562;187.792;219.122;198.707;138.693;221.170;169.352;173.114
3027760.610;200.160;184.439;210.777;197.813;125.915;222.176;169.761;171.959
3027760.618;206.754;190.996;215.769;202.395;125.952;232.384;178.367;180.751
3027760.626;204.556;192.709;208.654;204.183;118.837;229.441;176.616;175.647
3027760.634;197.813;191.927;203.736;206.642;122.860;220.388;172.369;162.572
3027760.642;205.785;192.523;213.161;208.579;130.832;226.125;182.167;166.669
3027760.650;195.801;178.367;200.942;189.431;120.290;214.577;169.650;158.101
3027760.658;189.617;168.011;194.646;186.339;118.054;205.971;156.276;153.705
3027760.666;200.011;180.006;204.220;197.701;124.983;215.769;161.417;165.291
3027760.674;191.666;169.501;194.237;182.539;116.266;211.261;150.055;163.093
3027760.682;182.167;165.217;186.563;175.387;102.110;206.605;142.753;158.921
3027760.690;184.327;164.248;187.904;170.469;108.629;216.030;154.041;165.999
3027760.698;181.459;153.221;182.353;160.411;103.787;218.824;159.964;169.091
3027760.706;179.335;164.509;179.708;170.730;102.445;217.892;164.621;166.632
3027760.714;182.688;171.661;180.677;181.794;109.524;217.445;169.761;163.205
3027760.722;190.474;169.910;188.425;187.680;118.315;219.382;173.673;164.509
3027760.730;187.606;159.666;183.918;172.667;110.082;214.055;167.228;158.548
3027760.738;188.835;169.687;186.786;175.275;111.721;205.152;157.095;148.714
3027760.746;194.386;171.512;195.689;181.943;125.132;205.263;156.499;150.949
3027760.754;194.423;165.179;194.795;174.642;124.425;205.152;158.176;153.333
3027760.762;205.301;177.585;204.481;180.677;132.248;192.635;146.590;146.218
3027760.770;198.856;171.289;194.795;175.685;129.715;181.682;136.979;138.916
3027760.778;197.366;171.810;190.996;168.867;126.846;179.857;136.904;136.085
3027760.786;203.997;180.379;195.354;165.664;134.930;197.440;157.245;147.857
3027760.796;203.066;170.358;193.827;167.415;131.875;207.275;171.140;151.694
3027760.804;202.693;170.432;191.033;178.441;132.434;205.226;171.140;148.267
3027760.812;206.009;186.525;198.111;187.568;135.936;199.862;166.744;143.759
3027760.820;199.340;177.845;191.629;179.075;127.889;186.488;152.923;133.812
3027760.828;192.039;164.397;180.602;160.113;122.190;190.027;157.915;136.867
3027760.836;185.110;157.878;174.008;154.153;122.711;183.918;150.725;134.856
3027760.844;182.688;159.256;171.177;159.107;123.195;178.330;144.020;133.626
3027760.852;174.269;147.484;163.764;142.604;109.114;178.255;142.790;132.881
3027760.860;168.234;138.134;157.952;128.970;110.008;174.381;138.804;128.821
3027760.868;174.232;148.043;163.205;141.785;116.266;179.484;145.286;132.397
3027760.876;183.098;159.666;170.395;158.101;127.517;188.388;157.095;139.028
3027760.884;180.937;155.494;165.515;159.107;125.431;192.933;163.764;142.269
3027760.892;177.696;152.923;162.832;149.868;121.891;192.672;163.428;141.226
3027760.900;173.040;141.412;160.523;139.512;120.476;188.202;158.362;136.867
3027760.908;178.963;148.900;164.211;146.516;115.857;189.245;160.635;137.240
3027760.916;181.608;154.302;165.924;148.006;122.748;190.698;160.262;137.798
3027760.924;185.482;155.196;170.916;141.859;139.028;192.896;160.635;141.263
3027760.932;181.608;157.878;172.295;148.602;136.718;182.912;148.527;132.211
3027760.940;181.496;163.838;171.848;160.299;135.824;179.857;145.063;129.901
3027760.948;177.175;154.227;164.174;148.341;131.316;180.267;145.547;131.987
3027760.956;172.965;143.833;158.288;135.675;125.431;183.322;148.490;134.483
3027760.964;174.530;150.651;158.027;139.363;125.095;185.110;150.166;137.836
3027760.972;166.409;138.357;149.608;127.070;124.276;182.614;149.310;133.663
3027760.980;156.276;116.192;139.475;107.773;108.816;180.230;148.825;132.695
3027760.991;166.781;139.549;152.774;131.950;129.752;178.553;147.745;133.514
3027760.999;170.246;152.104;159.405;142.604;138.171;169.873;142.120;125.505
3027761.007;167.079;147.745;153.221;134.334;134.818;162.758;134.483;120.662
3027761.015;148.937;125.244;133.626;111.498;116.229;149.570;120.215;109.375
3027761.023;143.461;113.621;129.268;100.471;111.572;144.243;115.223;105.612
3027761.031;163.317;133.514;144.616;119.843;126.250;160.523;134.110;118.762
3027761.039;167.750;141.859;150.204;126.325;136.048;163.615;137.985;119.619
3027761.047;158.921;127.442;142.418;121.705;131.316;156.350;129.975;114.106
3027761.055;155.792;132.769;137.277;118.241;125.654;153.817;126.958;111.759
3027761.063;156.872;136.346;139.773;119.396;132.211;153.556;127.479;113.361
3027761.071;160.336;136.681;143.275;117.868;133.142;161.901;136.197;122.935
3027761.079;139.810;114.813;127.181;89.407;111.945;148.341;120.737;112.019
3027761.087;127.703;101.179;111.721;86.874;96.299;138.320;108.741;104.830
3027761.095;123.084;89.370;103.973;90.934;100.732;133.961;105.612;100.993
3027761.103;123.270;99.093;104.457;82.441;102.818;134.222;108.331;100.210
3027761.111;132.285;118.129;114.553;94.175;111.572;139.400;114.478;103.563
3027761.119;123.046;101.142;107.028;84.490;109.673;132.695;107.139;94.995
3027761.127;114.739;88.215;97.491;72.680;97.416;132.062;107.847;94.622
3027761.135;110.045;83.894;95.144;68.583;93.430;132.620;108.778;94.101
3027761.143;104.308;77.002;88.215;57.444;90.450;122.599;98.869;86.911
3027761.151;96.224;67.391;77.896;45.672;83.745;114.515;90.972;82.403
3027761.159;98.795;75.661;81.584;58.301;95.367;111.759;89.370;81.360
3027761.167;115.298;96.709;100.099;84.527;110.380;100.099;76.629;72.196
3027761.175;121.333;99.987;108.629;81.621;115.633;99.950;75.363;71.712
3027761.185;134.073;111.908;120.513;85.384;124.499;100.397;74.841;71.265
3027761.193;155.084;132.024;141.971;98.459;138.618;104.904;79.237;73.649
3027761.201;169.724;147.261;156.872;109.114;148.527;109.933;84.713;76.778
3027761.209;185.519;161.566;171.922;123.344;163.391;120.327;95.963;84.974
3027761.217;183.396;160.970;168.495;118.725;158.101;119.582;93.915;82.925
3027761.225;183.508;157.766;169.910;119.992;156.388;111.461;84.415;77.486
3027761.233;200.570;181.347;190.586;142.455;189.058;111.312;85.123;80.615
3027761.241;216.477;210.330;204.518;174.828;210.479;111.461;85.495;80.280
3027761.249;219.084;213.943;204.034;180.304;203.066;101.104;73.016;69.551
3027761.257;214.055;211.485;200.942;159.666;195.429;97.007;69.104;63.665
3027761.265;222.847;220.686;207.536;170.283;205.934;102.594;75.921;70.184
3027761.273;232.458;222.847;218.377;175.685;213.981;108.704;82.776;76.257
3027761.281;227.392;215.843;213.794;165.105;215.694;96.597;70.296;65.826
3027761.289;219.680;209.101;204.220;161.640;209.771;92.648;66.012;65.230
3027761.297;205.524;201.762;193.976;153.854;206.009;91.493;64.895;64.559
3027761.305;181.310;169.016;168.905;127.219;177.398;84.117;58.003;58.860
3027761.313;158.250;131.726;144.020;95.814;162.125;80.876;54.613;55.693
3027761.321;135.601;112.243;121.966;68.359;141.971;72.867;47.125;47.088
3027761.329;123.158;102.632;102.483;61.095;119.656;68.210;43.251;43.102
3027761.337;115.745;92.499;91.828;58.785;101.849;72.569;48.093;46.976
3027761.345;108.406;86.538;88.289;44.145;110.008;64.671;41.164;40.531
3027761.353;99.242;78.641;82.329;40.941;114.813;52.340;30.398;30.212
3027761.361;92.648;63.591;74.580;27.418;111.312;53.532;32.149;33.155
3027761.369;79.684;49.472;61.840;11.995;93.505;45.560;22.538;30.808
3027761.367;70.110;43.698;52.899;17.248;85.011;38.221;13.262;26.003
3027761.375;65.863;37.849;45.709;7.153;73.016;43.660;14.864;34.794
3027761.383;58.375;25.965;35.204;-9.760;70.594;45.709;14.976;35.651
3027761.391;49.099;16.019;28.014;-20.899;59.046;43.176;15.609;28.014
3027761.399;51.297;12.703;33.863;-19.595;67.428;44.927;20.303;26.673
3027761.407;49.882;15.311;34.422;-20.117;71.898;46.343;23.171;26.599
3027761.415;39.525;6.370;21.607;-23.134;62.361;41.164;20.340;20.899
3027761.423;34.720;3.129;16.689;-26.897;59.418;38.631;21.048;19.670
3027761.431;31.106;2.086;13.374;-27.083;53.793;35.837;19.111;16.727
3027761.439;27.306;-5.513;7.413;-34.869;51.558;37.961;20.787;23.320
3027761.447;17.695;-13.188;-2.608;-41.053;43.735;34.049;14.454;25.257
3027761.455;4.470;-22.389;-14.007;-49.286;27.083;21.346;2.161;15.758
3027761.463;-2.310;-35.241;-21.495;-56.401;20.340;17.993;-2.049;12.480
3027761.471;-4.917;-38.892;-23.879;-66.757;15.795;18.887;-0.447;11.139
3027761.479;5.066;-21.383;-17.844;-54.128;30.249;29.244;12.368;17.993
3027761.487;25.891;1.527;6.892;-26.450;44.033;25.816;11.995;10.356
3027761.495;37.812;12.927;19.297;-18.254;51.223;21.718;9.686;5.439
3027761.503;58.748;33.751;39.414;0.522;68.210;26.934;13.523;10.990
3027761.511;70.930;37.700;52.601;2.980;81.696;27.530;11.362;13.299
3027761.519;77.263;45.188;56.811;4.433;87.954;27.679;6.892;18.105
3027761.527;82.739;56.811;63.255;5.439;94.138;28.126;3.651;21.495
3027761.535;88.885;62.250;72.494;15.423;103.973;40.233;15.348;35.316
3027761.543;75.512;49.956;60.610;4.433;88.811;33.341;10.096;28.089
3027761.551;63.106;34.161;45.262;-7.637;82.441;24.736;4.061;15.572
3027761.562;52.340;18.328;34.049;-22.240;71.637;15.460;-3.800;4.098
3027761.570;41.798;8.792;22.091;-26.263;60.387;7.339;-11.586;-5.960
3027761.578;33.192;2.086;12.778;-32.671;52.229;4.061;-15.050;-10.207
3027761.586;32.336;7.674;10.841;-38.110;52.601;12.107;-8.121;-2.272
3027761.594;24.848;-1.900;2.049;-47.199;45.076;14.454;-8.158;-1.006
3027761.602;19.185;-2.347;-2.272;-37.625;34.198;13.411;-8.605;-2.049
3027761.610;15.534;-4.508;-6.557;-37.104;30.473;6.892;-12.554;-6.594
3027761.618;8.084;-20.787;-14.640;-53.532;22.650;-8.866;-27.642;-16.056
3027761.626;17.472;-8.345;-4.135;-43.251;35.688;-8.121;-24.289;-15.348
3027761.634;24.699;8.382;1.974;-33.267;42.617;-1.937;-16.317;-11.884
3027761.642;22.054;3.166;-3.688;-40.345;37.141;-0.559;-14.156;-11.586
3027761.650;14.342;-4.470;-9.164;-44.219;30.696;-7.823;-20.899;-21.160
3027761.658;9.090;-15.013;-14.119;-47.423;23.469;-11.995;-26.897;-25.481
3027761.666;13.039;-13.895;-12.591;-49.658;32.075;-9.574;-27.530;-21.085
3027761.674;7.078;-16.354;-14.529;-54.911;22.389;-10.431;-30.212;-22.091
3027761.682;1.676;-17.770;-20.489;-60.461;20.638;-17.248;-37.327;-28.163
3027761.690;2.757;-15.944;-16.764;-58.673;24.214;-26.487;-47.609;-36.545
3027761.698;-7.935;-29.020;-26.189;-64.895;17.621;-31.143;-52.825;-41.537
3027761.706;-2.645;-23.097;-24.699;-56.773;18.962;-20.750;-40.904;-32.298
3027761.714;-6.258;-27.865;-26.748;-61.467;14.752;-20.303;-37.514;-33.416
3027761.722;-17.211;-40.084;-35.167;-78.529;3.800;-30.436;-47.833;-44.107
3027761.730;-19.856;-38.631;-40.233;-83.484;-7.451;-26.226;-46.082;-41.164
3027761.738;-30.361;-44.405;-52.340;-82.552;-22.091;-30.138;-52.452;-44.256
3027761.746;-36.061;-50.589;-58.860;-93.840;-18.030;-40.866;-63.516;-54.054
3027761.757;-46.827;-69.253;-68.918;-105.202;-24.475;-48.541;-73.723;-62.399
3027761.765;-47.497;-71.339;-71.079;-102.632;-35.316;-52.638;-77.859;-67.726
3027761.773;-26.114;-41.910;-50.031;-80.951;-10.394;-45.858;-69.477;-63.032
3027761.781;-22.613;-38.035;-45.486;-81.435;-8.270;-41.425;-65.416;-58.226
3027761.789;-29.653;-53.868;-52.750;-94.287;-21.607;-44.592;-68.285;-63.851
3027761.797;-36.322;-68.210;-57.854;-104.345;-19.744;-39.302;-64.522;-59.828
3027761.805;-31.479;-52.899;-52.825;-100.806;-15.013;-34.533;-61.356;-55.768
3027761.813;-40.345;-58.338;-62.063;-102.855;-22.501;-41.425;-69.737;-66.236
3027761.821;-46.343;-68.545;-70.333;-106.245;-35.949;-51.484;-81.733;-77.151
3027761.829;-47.907;-68.471;-73.537;-108.704;-34.086;-62.101;-93.170;-85.719
3027761.837;-46.678;-70.818;-73.090;-107.214;-31.143;-61.207;-91.791;-85.458
3027761.845;-40.904;-65.006;-68.843;-101.626;-25.071;-55.581;-85.942;-80.056
3027761.853;-41.351;-65.751;-66.720;-94.883;-28.424;-52.489;-81.435;-79.125
3027761.861;-36.061;-58.934;-59.530;-98.199;-30.957;-48.876;-75.325;-77.374
3027761.869;-22.948;-43.698;-46.901;-84.825;-6.184;-38.184;-62.622;-70.073
3027761.877;-22.650;-42.431;-50.291;-74.767;-11.660;-39.376;-64.261;-70.184
3027761.885;-27.306;-47.348;-56.289;-74.841;-21.420;-45.523;-71.786;-73.984
3027761.893;-36.918;-62.659;-63.963;-95.479;-16.168;-54.464;-82.292;-81.509
3027761.901;-40.308;-62.957;-67.577;-102.781;-22.613;-64.597;-91.605;-88.960
3027761.909;-40.419;-64.969;-64.783;-106.171;-31.814;-70.781;-96.522;-93.840
3027761.917;-41.835;-67.540;-62.957;-102.818;-28.163;-75.996;-102.445;-98.944
3027761.925;-40.159;-58.860;-63.926;-92.313;-26.524;-80.913;-107.735;-101.849
3027761.933;-39.004;-55.656;-63.628;-87.693;-26.710;-81.919;-108.071;-101.887
3027761.941;-44.182;-67.465;-66.906;-98.236;-24.699;-87.582;-112.131;-106.245
3027761.953;-40.568;-64.149;-63.516;-107.214;-16.652;-82.813;-108.331;-101.253
3027761.961;-43.623;-72.196;-66.496;-104.308;-22.314;-85.533;-112.727;-104.271
3027761.969;-52.415;-75.363;-79.535;-104.196;-40.866;-88.103;-114.925;-106.543
3027761.977;-49.956;-67.055;-76.555;-101.142;-36.582;-85.495;-111.982;-104.494
3027761.985;-48.280;-65.677;-70.594;-103.824;-27.269;-85.533;-111.945;-104.159
3027761.993;-54.762;-75.214;-79.200;-108.853;-37.216;-85.607;-112.168;-105.835
3027762.001;-63.851;-81.770;-90.972;-120.923;-50.478;-86.017;-112.318;-106.394
3027762.009;-66.124;-84.303;-93.319;-115.149;-51.521;-90.227;-116.378;-109.263
3027762.017;-64.373;-90.152;-87.768;-115.000;-40.047;-102.296;-128.634;-119.880
3027762.025;-64.410;-80.615;-87.656;-118.054;-43.698;-105.202;-129.305;-122.935
3027762.033;-73.910;-83.297;-98.608;-122.748;-57.369;-110.045;-132.620;-129.305
3027762.041;-80.355;-98.832;-104.308;-130.944;-59.605;-115.409;-139.251;-133.216
3027762.049;-79.162;-105.724;-100.099;-128.336;-57.407;-110.604;-135.526;-126.995
3027762.057;-84.192;-109.039;-105.351;-138.693;-55.693;-107.102;-133.999;-123.605
3027762.065;-91.493;-109.337;-115.633;-147.857;-66.981;-109.561;-138.581;-125.840
3027762.073;-90.152;-111.088;-108.145;-149.645;-59.903;-112.094;-141.300;-127.181
3027762.081;-91.121;-115.857;-108.965;-140.481;-57.518;-118.017;-144.206;-132.211
3027762.089;-91.791;-111.945;-110.045;-137.314;-65.491;-125.170;-149.868;-138.618
3027762.097;-93.803;-105.873;-115.708;-141.002;-68.843;-130.199;-154.562;-145.882
3027762.105;-94.511;-115.819;-118.390;-142.790;-69.514;-128.932;-152.551;-146.069
3027762.113;-97.640;-120.513;-120.886;-153.594;-74.953;-127.628;-152.402;-144.616
3027762.121;-98.720;-117.533;-118.092;-149.868;-77.225;-126.138;-151.806;-144.057
3027762.129;-102.632;-117.421;-123.270;-142.902;-78.678;-125.691;-152.625;-141.449
3027762.137;-108.406;-122.860;-129.864;-150.949;-77.486;-125.207;-153.296;-140.034
3027762.147;-106.804;-125.431;-128.411;-152.588;-73.276;-124.015;-151.880;-137.240
3027762.155;-106.134;-127.926;-128.411;-157.617;-82.254;-127.256;-154.637;-139.587
3027762.163;-114.478;-124.648;-137.873;-154.264;-91.754;-129.640;-155.456;-146.292
3027762.171;-111.125;-120.625;-137.836;-146.292;-91.866;-145.994;-169.352;-161.342
3027762.179;-125.542;-136.420;-151.508;-160.970;-106.618;-160.225;-180.826;-174.716
3027762.187;-137.538;-151.694;-163.764;-172.295;-120.774;-161.044;-181.608;-177.361
3027762.195;-140.630;-157.617;-165.477;-178.292;-124.164;-154.115;-175.163;-170.879
3027762.203;-151.172;-171.289;-175.275;-195.019;-129.119;-151.359;-174.902;-168.383
3027762.211;-170.656;-192.337;-196.956;-211.671;-148.006;-152.588;-177.473;-167.526
3027762.219;-182.688;-209.361;-208.505;-225.306;-155.866;-148.267;-175.722;-162.199
3027762.227;-187.159;-215.881;-210.442;-234.470;-154.898;-146.106;-177.398;-158.660
3027762.235;-184.290;-200.458;-209.957;-216.812;-158.250;-140.704;-173.151;-154.749
3027762.243;-184.700;-196.658;-209.734;-212.491;-163.428;-145.808;-176.728;-162.609
3027762.251;-182.874;-195.764;-205.450;-214.241;-145.882;-155.941;-185.780;-173.040
3027762.259;-177.845;-184.327;-204.593;-204.556;-147.261;-157.058;-184.886;-176.728
3027762.267;-180.490;-188.798;-208.095;-206.083;-157.617;-158.362;-185.296;-177.398
3027762.275;-184.551;-196.658;-213.645;-205.599;-164.919;-159.182;-186.935;-175.238
3027762.283;-199.005;-221.170;-229.403;-222.176;-177.622;-164.025;-193.529;-177.622
3027762.291;-205.934;-226.945;-237.152;-231.750;-186.563;-165.775;-194.497;-180.006
3027762.299;-205.152;-220.463;-231.564;-226.833;-178.367;-156.760;-183.918;-175.834
3027762.307;-208.057;-222.251;-232.570;-229.776;-178.255;-151.843;-179.522;-172.555
3027762.315;-208.355;-225.119;-232.942;-231.564;-177.287;-145.473;-173.897;-167.117
3027762.323;-207.722;-225.604;-234.507;-230.260;-178.590;-148.341;-177.026;-170.134
3027762.331;-203.103;-223.927;-229.664;-225.902;-181.980;-148.229;-176.542;-169.650
3027762.341;-200.942;-223.927;-228.584;-218.116;-182.204;-146.702;-173.859;-168.309
3027762.349;-202.060;-220.239;-232.942;-219.718;-178.367;-152.849;-179.932;-172.369
3027762.357;-196.733;-216.439;-227.801;-219.494;-173.338;-154.115;-181.422;-171.922
3027762.365;-194.833;-210.926;-224.933;-200.309;-170.954;-158.697;-186.041;-175.573
3027762.373;-194.348;-208.654;-223.443;-200.942;-172.630;-158.846;-185.892;-175.200
3027762.381;-195.652;-205.338;-225.492;-208.579;-167.377;-156.835;-183.545;-172.816
3027762.389;-208.914;-226.200;-241.585;-227.317;-180.528;-161.231;-186.823;-175.871
3027762.397;-209.101;-229.031;-240.542;-224.784;-186.563;-151.396;-175.573;-167.303
3027762.405;-206.307;-223.517;-237.636;-218.153;-181.161;-150.949;-174.083;-166.260
3027762.413;-207.201;-229.850;-241.287;-226.460;-187.084;-154.749;-177.808;-166.148
3027762.421;-209.473;-234.060;-242.628;-226.051;-184.812;-158.921;-181.012;-168.011
3027762.429;-210.181;-232.682;-242.479;-219.643;-178.926;-163.652;-184.923;-170.656
3027762.437;-208.989;-228.174;-243.112;-214.949;-183.061;-164.807;-186.451;-170.209
3027762.445;-209.287;-227.615;-245.422;-219.941;-183.210;-168.271;-189.692;-173.487
3027762.453;-211.708;-231.937;-247.993;-229.664;-187.531;-171.103;-191.443;-177.361
3027762.461;-212.789;-228.733;-250.675;-222.810;-192.337;-170.320;-188.462;-179.708
3027762.469;-212.379;-226.498;-253.543;-213.757;-197.403;-170.805;-187.010;-179.484
3027762.477;-207.499;-226.423;-245.124;-214.316;-187.978;-165.999;-182.129;-173.971
3027762.485;-215.545;-239.052;-247.806;-225.008;-189.506;-168.048;-183.694;-176.504
3027762.493;-218.861;-241.213;-254.326;-232.086;-191.629;-170.097;-185.333;-176.728
3027762.501;-220.463;-235.252;-258.423;-227.168;-194.870;-167.675;-182.390;-174.008
3027762.509;-220.574;-235.513;-258.610;-220.016;-198.260;-166.707;-181.869;-171.699
3027762.517;-219.978;-238.307;-257.976;-220.798;-197.813;-167.973;-184.476;-170.320
3027762.525;-221.543;-234.358;-260.808;-224.151;-198.893;-169.352;-184.476;-171.848
3027762.521;-219.271;-234.470;-261.851;-228.435;-198.483;-169.277;-183.992;-171.065
3027762.529;-220.090;-238.083;-261.739;-229.999;-203.326;-170.805;-183.210;-174.083
3027762.537;-222.698;-240.803;-263.155;-225.753;-206.828;-176.616;-187.419;-181.496
3027762.545;-213.832;-225.082;-255.778;-206.828;-194.497;-183.955;-193.156;-188.947
3027762.553;-222.176;-234.693;-266.284;-215.545;-196.733;-184.625;-194.497;-189.245
3027762.561;-222.735;-242.591;-263.155;-224.598;-203.252;-179.745;-191.107;-183.247
3027762.569;-228.174;-238.083;-269.674;-228.882;-206.083;-176.467;-188.760;-180.379
3027762.577;-232.235;-246.130;-275.709;-238.977;-213.571;-176.728;-187.568;-182.502
3027762.585;-229.366;-247.583;-270.978;-236.146;-208.728;-173.822;-185.259;-179.596
3027762.593;-224.821;-236.705;-268.295;-218.786;-199.713;-168.942;-181.720;-173.189
3027762.601;-222.884;-231.862;-271.015;-212.938;-204.071;-167.675;-180.118;-169.836
3027762.609;-225.902;-238.493;-271.015;-217.706;-209.808;-176.094;-189.207;-174.977
3027762.617;-234.731;-243.224;-278.838;-229.776;-223.443;-189.617;-201.911;-184.961
3027762.625;-231.415;-240.840;-278.428;-226.125;-220.165;-192.747;-203.215;-186.339
3027762.633;-226.349;-239.238;-267.774;-223.480;-206.716;-189.990;-199.378;-183.955
3027762.641;-221.096;-229.999;-264.868;-223.517;-198.707;-188.835;-197.627;-183.880
3027762.649;-224.710;-231.378;-272.989;-216.365;-208.728;-190.288;-199.005;-189.506
3027762.657;-223.890;-229.180;-273.176;-214.316;-215.136;-181.533;-191.741;-182.390
3027762.665;-226.870;-237.264;-276.975;-220.314;-219.047;-178.404;-189.990;-179.596
3027762.673;-224.002;-232.607;-272.952;-219.792;-214.316;-172.406;-183.992;-175.424
3027762.681;-222.884;-232.086;-268.593;-223.070;-206.679;-168.122;-178.590;-170.693
3027762.689;-229.515;-237.413;-279.732;-231.527;-211.075;-172.742;-181.869;-174.530
3027762.697;-231.452;-234.284;-278.316;-224.486;-221.692;-180.043;-188.015;-180.379
3027762.705;-233.091;-240.989;-274.628;-229.329;-214.763;-187.196;-194.758;-186.414
3027762.717;-231.527;-242.032;-274.405;-224.933;-216.849;-190.698;-195.839;-191.182
3027762.725;-227.280;-235.029;-271.387;-222.921;-218.265;-193.492;-197.180;-191.629
3027762.733;-229.478;-234.023;-272.468;-225.119;-213.049;-202.060;-206.456;-197.589
3027762.741;-230.484;-233.650;-274.889;-227.354;-207.573;-208.206;-214.688;-201.985
3027762.749;-230.372;-236.444;-277.013;-230.521;-213.124;-207.797;-214.465;-201.501
3027762.757;-233.948;-246.316;-278.242;-236.966;-226.907;-206.716;-214.837;-199.936
3027762.765;-238.605;-249.185;-284.500;-239.313;-230.186;-205.450;-215.955;-197.440
3027762.773;-250.675;-250.600;-297.688;-244.156;-235.625;-197.776;-209.846;-193.641
3027762.781;-272.021;-251.494;-312.030;-259.019;-254.288;-190.698;-202.693;-192.001
3027762.789;-273.287;-251.271;-312.328;-256.933;-257.343;-186.451;-196.174;-190.213
3027762.797;-274.703;-251.718;-316.985;-250.526;-263.192;-191.070;-201.128;-193.380
3027762.805;-272.691;-260.733;-309.683;-253.543;-259.988;-194.497;-203.885;-195.466
3027762.813;-274.032;-258.796;-309.683;-267.141;-264.049;-199.676;-208.467;-199.489
3027762.821;-272.579;-252.537;-311.360;-262.968;-260.249;-198.521;-208.318;-197.589
3027762.829;-274.926;-264.198;-316.687;-268.929;-262.260;-199.117;-208.840;-198.372
3027762.837;-269.413;-252.128;-311.993;-257.082;-260.472;-191.145;-200.421;-190.735
3027762.845;-262.000;-236.295;-304.058;-241.473;-254.586;-184.625;-193.380;-183.918
3027762.853;-266.172;-244.863;-308.268;-257.306;-255.629;-184.178;-191.927;-184.774
3027762.861;-272.319;-261.366;-315.793;-268.631;-263.378;-183.508;-192.598;-183.694
3027762.869;-273.846;-254.698;-315.867;-267.029;-266.656;-182.316;-193.790;-183.061
3027762.877;-272.654;-253.357;-315.346;-254.065;-270.270;-182.427;-193.343;-184.439
3027762.885;-272.356;-256.374;-317.879;-254.065;-271.834;-181.980;-189.841;-183.880
3027762.893;-271.276;-260.286;-316.054;-262.260;-268.444;-181.161;-186.525;-183.620
3027762.901;-272.393;-262.670;-317.097;-272.579;-263.266;-184.663;-189.058;-182.912
3027762.912;-270.903;-259.168;-312.850;-261.553;-265.390;-187.159;-189.655;-180.677
3027762.920;-275.113;-269.040;-314.154;-258.088;-270.121;-189.990;-191.778;-182.949
3027762.928;-272.132;-256.449;-315.905;-251.010;-268.258;-190.511;-189.580;-183.806
3027762.936;-262.894;-242.256;-307.783;-242.665;-265.241;-187.606;-183.992;-183.247
3027762.944;-260.584;-245.199;-304.021;-251.681;-259.802;-188.798;-185.557;-185.184
3027762.952;-258.125;-242.181;-303.648;-246.167;-255.071;-191.070;-188.723;-184.439
3027762.960;-259.839;-245.161;-304.766;-250.824;-254.735;-195.913;-194.088;-185.855
3027762.968;-261.292;-249.892;-302.568;-247.546;-255.927;-195.950;-194.870;-182.539
3027762.976;-261.366;-256.002;-305.437;-249.296;-262.260;-194.535;-192.113;-181.273
3027762.984;-259.355;-246.689;-303.015;-249.334;-260.547;-191.964;-187.717;-180.155
3027762.992;-258.274;-242.777;-301.711;-241.660;-251.010;-188.164;-183.098;-177.063
3027763.000;-260.957;-246.949;-304.952;-250.153;-259.131;-189.394;-184.141;-178.330
3027763.008;-260.696;-249.632;-305.250;-250.898;-265.017;-188.313;-183.582;-175.238
3027763.016;-256.114;-243.150;-295.639;-247.732;-249.557;-184.774;-180.639;-170.842
3027763.024;-249.073;-235.252;-289.418;-243.261;-239.573;-186.861;-183.620;-171.550
3027763.032;-243.671;-223.517;-282.824;-231.080;-241.697;-193.231;-189.953;-175.610
3027763.040;-246.167;-228.472;-284.500;-229.888;-245.161;-198.036;-194.237;-180.118
3027763.048;-244.044;-230.335;-284.687;-229.813;-247.657;-200.421;-196.025;-180.677
3027763.056;-243.410;-233.352;-284.351;-236.817;-247.955;-201.724;-196.435;-182.502
3027763.064;-241.809;-227.280;-283.048;-236.183;-237.823;-196.770;-189.953;-179.671
3027763.072;-247.993;-234.991;-285.506;-238.270;-239.909;-196.099;-189.319;-181.235
3027763.080;-250.824;-238.083;-282.861;-242.926;-236.742;-195.056;-188.313;-181.347
3027763.088;-244.901;-226.796;-279.732;-236.779;-238.568;-188.090;-182.502;-173.040
3027763.096;-247.769;-229.552;-286.102;-239.871;-250.675;-180.043;-175.238;-165.440
3027763.107;-249.036;-229.701;-283.942;-245.981;-246.726;-181.124;-175.573;-167.005
3027763.115;-259.355;-236.668;-291.467;-243.634;-250.302;-190.623;-184.067;-176.542
3027763.123;-261.627;-239.015;-292.435;-242.479;-253.171;-192.709;-184.327;-178.106
3027763.131;-253.432;-226.088;-283.718;-242.069;-246.763;-193.976;-184.700;-177.100
3027763.139;-246.651;-223.853;-275.895;-236.593;-236.407;-190.139;-180.639;-173.114
3027763.147;-249.259;-229.292;-279.211;-236.779;-238.679;-189.468;-181.422;-171.214
3027763.155;-250.973;-228.733;-278.577;-240.579;-242.963;-189.617;-182.278;-169.538
3027763.163;-249.706;-220.612;-274.256;-239.201;-235.215;-191.666;-184.812;-172.667
3027763.171;-251.159;-222.959;-280.216;-240.579;-242.107;-192.076;-184.402;-175.126
3027763.179;-251.606;-227.876;-283.830;-237.189;-251.643;-186.116;-177.212;-173.412
3027763.187;-252.128;-230.558;-279.658;-243.857;-240.617;-180.788;-172.034;-170.097
3027763.195;-248.030;-228.584;-271.723;-241.548;-238.828;-175.908;-167.638;-166.483
3027763.203;-247.359;-222.363;-272.691;-234.656;-239.983;-171.326;-165.068;-161.454
3027763.211;-248.402;-224.933;-276.007;-236.146;-237.040;-171.028;-167.266;-158.288
3027763.219;-250.600;-224.113;-273.548;-240.617;-235.997;-172.593;-170.283;-159.480
3027763.227;-251.122;-218.488;-270.754;-235.662;-240.430;-176.914;-171.289;-162.683
3027763.235;-251.532;-226.051;-270.978;-240.915;-241.622;-183.098;-174.716;-167.787
3027763.243;-246.242;-222.288;-265.986;-237.860;-234.097;-179.596;-171.438;-164.211
3027763.251;-245.944;-215.583;-266.694;-227.131;-231.974;-172.853;-168.644;-157.021
3027763.259;-252.277;-221.021;-270.791;-236.072;-243.895;-173.114;-171.550;-159.591
3027763.267;-251.085;-221.469;-268.370;-231.825;-240.691;-174.083;-173.301;-161.938
3027763.275;-249.036;-221.729;-267.811;-231.005;-232.719;-172.667;-170.954;-161.640
3027763.283;-252.090;-226.870;-267.513;-237.264;-239.424;-175.200;-171.438;-165.850
3027763.291;-253.059;-222.735;-270.866;-236.481;-237.264;-177.212;-172.891;-164.807
3027763.287;-249.296;-219.606;-265.092;-232.309;-235.625;-170.283;-166.222;-158.362
3027763.295;-253.916;-222.437;-266.470;-242.218;-244.416;-172.518;-168.942;-160.262
3027763.303;-253.357;-223.108;-265.948;-233.389;-239.350;-172.257;-170.171;-159.927
3027763.311;-252.649;-215.620;-268.593;-224.598;-237.785;-171.326;-171.997;-158.437
3027763.319;-250.228;-213.198;-268.668;-221.431;-235.178;-168.420;-170.469;-157.021
3027763.327;-248.216;-213.236;-261.590;-227.094;-239.313;-164.546;-165.626;-156.946
3027763.335;-248.328;-216.551;-261.702;-236.481;-235.103;-164.956;-164.211;-158.362
3027763.343;-248.812;-222.214;-265.241;-235.029;-237.711;-169.985;-168.160;-162.050
3027763.351;-244.901;-213.124;-264.496;-222.996;-240.467;-172.295;-169.538;-162.311
3027763.359;-242.479;-213.124;-265.986;-221.394;-236.072;-166.334;-164.025;-152.662
3027763.367;-244.714;-216.290;-263.527;-233.203;-240.356;-162.907;-161.342;-150.315
3027763.375;-241.585;-208.914;-256.971;-236.481;-235.811;-163.503;-162.907;-152.253
3027763.383;-236.481;-207.312;-254.065;-225.939;-227.652;-162.050;-163.876;-151.321
3027763.391;-239.238;-212.006;-258.200;-223.368;-240.952;-163.838;-167.191;-154.264
3027763.399;-240.766;-215.396;-260.696;-233.352;-237.785;-167.228;-171.699;-156.276
3027763.407;-240.020;-208.654;-260.212;-237.636;-235.364;-162.721;-169.203;-153.333
3027763.415;-238.568;-204.854;-258.349;-237.525;-231.005;-159.554;-164.360;-150.464
3027763.423;-233.799;-203.550;-252.277;-229.739;-233.613;-158.958;-161.231;-148.751
3027763.431;-229.366;-197.478;-246.577;-219.047;-226.349;-161.789;-162.423;-152.439
3027763.439;-225.902;-193.417;-243.932;-220.686;-229.031;-156.239;-154.413;-148.751
3027763.447;-227.541;-198.521;-243.857;-227.690;-228.100;-154.041;-148.751;-148.602
3027763.455;-227.764;-200.458;-244.044;-224.747;-221.394;-156.350;-150.278;-148.304
3027763.463;-236.779;-210.069;-253.506;-233.129;-230.931;-163.279;-159.442;-151.172
3027763.471;-240.617;-211.410;-259.094;-236.630;-233.762;-164.807;-160.746;-151.992
3027763.482;-231.713;-203.848;-249.557;-226.572;-232.719;-160.709;-155.307;-145.510
3027763.490;-232.123;-208.020;-249.408;-226.684;-228.621;-162.646;-156.313;-146.516
3027763.498;-229.925;-200.495;-250.712;-226.386;-235.587;-161.529;-153.966;-145.771
3027763.506;-221.282;-185.147;-240.728;-218.600;-224.374;-154.190;-145.771;-140.220
3027763.514;-212.491;-175.796;-233.948;-200.272;-214.986;-149.794;-141.487;-137.687
3027763.522;-210.442;-176.840;-231.862;-203.811;-213.422;-148.714;-139.810;-134.297
3027763.530;-216.104;-184.290;-231.974;-211.932;-216.067;-153.482;-144.802;-138.767
3027763.538;-218.302;-193.119;-233.129;-212.751;-216.886;-160.299;-151.470;-143.573
3027763.546;-214.837;-190.288;-231.750;-215.583;-219.643;-165.142;-155.456;-145.733
3027763.554;-214.428;-175.945;-231.192;-210.069;-220.314;-171.810;-161.305;-152.551
3027763.562;-210.851;-171.028;-226.647;-203.103;-218.451;-171.289;-158.511;-152.141
3027763.570;-209.399;-177.920;-224.374;-211.708;-214.390;-173.263;-159.256;-154.264
3027763.578;-212.491;-185.594;-227.466;-220.314;-216.290;-175.647;-160.858;-156.015
3027763.586;-205.301;-177.920;-217.669;-204.705;-207.908;-167.526;-150.912;-149.198
3027763.594;-206.195;-178.330;-217.706;-203.066;-208.840;-163.838;-147.484;-148.676
3027763.602;-209.659;-175.908;-224.598;-201.911;-213.534;-160.560;-147.708;-145.398
3027763.610;-214.353;-180.416;-229.143;-215.285;-227.690;-156.723;-146.776;-141.598
3027763.618;-217.371;-184.737;-229.590;-217.929;-221.618;-161.193;-150.502;-145.584
3027763.626;-215.322;-180.639;-227.392;-213.720;-214.502;-165.068;-153.966;-148.192
3027763.634;-211.969;-174.269;-224.374;-198.111;-221.357;-166.632;-151.545;-151.247
3027763.642;-206.195;-172.295;-220.016;-198.819;-213.534;-163.130;-146.478;-147.372
3027763.650;-207.312;-172.816;-219.382;-200.830;-217.371;-165.254;-149.235;-149.012
3027763.658;-207.275;-172.444;-220.612;-201.464;-221.133;-163.987;-151.284;-147.298
3027763.666;-200.719;-169.389;-213.943;-203.513;-210.181;-160.858;-150.576;-142.902
3027763.676;-196.919;-166.968;-207.983;-195.988;-203.401;-165.068;-153.445;-147.559
3027763.684;-198.521;-161.715;-209.920;-193.343;-209.510;-168.085;-155.233;-150.241
3027763.692;-202.619;-173.673;-211.485;-197.664;-212.118;-165.589;-152.402;-149.868
3027763.700;-203.811;-178.367;-214.018;-203.513;-215.769;-157.394;-143.722;-142.269
3027763.708;-205.785;-168.718;-215.806;-207.610;-220.314;-149.570;-135.973;-134.893
3027763.716;-195.801;-158.623;-205.226;-188.686;-205.413;-141.934;-129.901;-129.342
3027763.724;-193.380;-160.970;-201.240;-189.878;-201.203;-141.189;-128.113;-128.523
3027763.732;-200.048;-166.893;-208.430;-196.695;-211.224;-149.049;-135.228;-134.222
3027763.740;-197.440;-165.589;-207.275;-197.813;-209.436;-155.531;-140.667;-140.034
3027763.748;-192.449;-164.993;-199.117;-193.976;-206.046;-156.425;-140.257;-140.108
3027763.756;-189.245;-157.394;-194.870;-186.041;-204.816;-157.878;-141.598;-141.226
3027763.764;-186.786;-154.413;-195.466;-189.729;-201.687;-163.056;-146.963;-148.304
3027763.772;-185.445;-155.941;-192.635;-189.915;-193.752;-161.454;-145.324;-149.980
3027763.780;-182.651;-156.574;-189.319;-181.720;-190.847;-155.084;-139.736;-143.424
3027763.788;-183.098;-161.715;-191.592;-182.539;-198.595;-147.596;-135.191;-135.489
3027763.796;-188.462;-161.566;-197.552;-190.288;-204.258;-145.659;-134.744;-135.563
3027763.804;-186.972;-158.437;-194.311;-193.045;-202.395;-140.779;-130.646;-129.193
3027763.812;-193.343;-162.609;-198.036;-194.982;-210.814;-141.785;-131.875;-130.050
3027763.820;-200.123;-168.048;-206.456;-199.564;-216.290;-148.378;-138.395;-136.308
3027763.828;-201.277;-179.373;-202.805;-200.309;-208.244;-151.061;-142.418;-135.824
3027763.836;-199.154;-177.398;-199.974;-206.977;-205.375;-150.539;-143.424;-134.930
3027763.844;-196.174;-168.122;-200.793;-195.652;-210.479;-151.545;-143.982;-135.973
3027763.852;-192.225;-162.162;-196.137;-186.972;-205.189;-155.345;-146.218;-141.524
3027763.860;-184.178;-156.164;-189.357;-181.831;-195.689;-158.548;-148.490;-144.765
3027763.884;-182.576;-155.382;-184.514;-179.820;-190.139;-166.073;-155.792;-151.917
3027763.892;-178.851;-149.608;-184.812;-179.596;-187.382;-165.589;-156.276;-153.631
3027763.900;-171.661;-145.733;-178.404;-172.853;-190.698;-157.431;-150.092;-147.074
3027763.908;-170.246;-146.069;-173.338;-178.665;-184.923;-152.849;-148.080;-144.765
3027763.916;-171.252;-152.364;-176.206;-180.043;-183.955;-147.149;-145.473;-138.953
3027763.924;-171.438;-151.098;-176.877;-180.267;-187.121;-130.869;-132.173;-121.780
3027763.932;-177.175;-155.419;-180.788;-182.167;-188.835;-130.907;-132.546;-119.507
3027763.940;-179.447;-159.182;-184.625;-187.531;-193.231;-134.222;-134.222;-120.215
3027763.948;-180.788;-162.609;-188.053;-196.770;-198.148;-136.383;-134.110;-123.419
3027763.956;-177.398;-157.058;-184.514;-190.958;-193.901;-136.346;-131.205;-125.021
3027763.964;-171.959;-153.780;-177.510;-179.969;-187.941;-137.761;-128.411;-127.964
3027763.972;-171.214;-148.080;-178.404;-179.261;-186.861;-146.776;-134.259;-138.506
3027763.980;-165.291;-141.114;-171.177;-177.920;-181.608;-147.521;-135.675;-138.208
3027763.988;-166.520;-144.206;-173.338;-183.433;-183.843;-149.421;-141.077;-141.747
3027763.996;-161.678;-139.177;-169.910;-171.736;-179.559;-148.602;-142.232;-140.853
3027764.004;-163.652;-140.481;-173.151;-169.948;-182.539;-148.267;-143.386;-137.463
3027764.012;-164.844;-143.610;-178.441;-170.805;-190.102;-145.361;-140.481;-132.211
3027764.020;-165.999;-142.083;-180.975;-173.859;-188.649;-145.733;-138.730;-131.428
3027764.028;-167.377;-141.449;-176.355;-174.493;-189.170;-143.535;-132.434;-129.566
3027764.036;-160.486;-143.163;-167.638;-170.842;-177.994;-135.675;-121.556;-122.450
3027764.044;-159.480;-138.283;-169.203;-166.893;-178.814;-132.434;-117.943;-121.705
3027764.052;-160.746;-137.128;-171.363;-164.248;-185.557;-137.091;-120.178;-127.815
3027764.060;-159.591;-146.888;-169.277;-175.498;-185.370;-145.324;-127.144;-134.669
3027764.068;-153.631;-131.279;-166.856;-167.266;-184.476;-154.041;-135.228;-142.716
3027764.051;-147.671;-117.607;-163.727;-154.637;-183.955;-161.193;-143.014;-149.347
3027764.059;-139.065;-115.298;-152.327;-148.229;-167.303;-153.668;-135.861;-142.194
3027764.067;-146.516;-130.348;-155.903;-158.101;-167.228;-151.433;-133.477;-140.890
3027764.075;-155.196;-136.904;-161.864;-163.019;-174.083;-146.963;-127.926;-135.452
3027764.083;-164.472;-146.478;-171.997;-170.209;-180.416;-143.424;-125.431;-129.081
3027764.091;-169.389;-146.478;-180.639;-167.824;-190.400;-141.226;-126.027;-122.860
3027764.099;-165.552;-144.541;-172.481;-165.775;-188.164;-134.073;-118.650;-113.249
3027764.107;-164.881;-145.733;-169.463;-167.377;-180.490;-133.105;-116.825;-112.131
3027764.115;-166.260;-152.104;-172.071;-179.410;-181.496;-137.351;-120.774;-115.521
3027764.123;-168.681;-158.474;-173.002;-188.351;-186.339;-141.189;-125.170;-122.003
3027764.131;-165.664;-147.447;-174.865;-171.997;-187.457;-143.573;-126.362;-128.001
3027764.139;-151.731;-136.271;-161.305;-157.990;-176.169;-137.761;-119.433;-127.144
3027764.147;-146.814;-130.720;-153.780;-157.729;-165.552;-140.667;-124.313;-131.540
3027764.155;-147.708;-134.185;-155.382;-160.560;-160.038;-144.728;-131.018;-132.732
3027764.163;-149.496;-137.873;-153.556;-164.025;-165.999;-140.406;-131.056;-125.095
3027764.171;-151.731;-135.116;-157.245;-160.709;-166.148;-134.744;-127.703;-115.521
3027764.179;-161.193;-148.453;-165.664;-170.022;-178.255;-129.864;-121.556;-109.449
3027764.187;-166.818;-149.608;-168.122;-174.604;-178.441;-131.540;-121.742;-109.076
3027764.195;-165.105;-150.204;-167.564;-176.951;-173.114;-131.950;-120.886;-108.518
3027764.203;-158.809;-142.790;-163.391;-170.171;-171.624;-126.697;-115.968;-107.959
3027764.211;-152.811;-138.655;-157.841;-154.972;-171.140;-123.642;-111.945;-108.816
3027764.219;-149.123;-137.724;-156.015;-147.596;-174.455;-127.032;-111.796;-114.553
3027764.227;-149.645;-130.981;-160.113;-151.806;-177.324;-128.485;-111.237;-116.937
3027764.235;-143.014;-117.421;-150.166;-141.338;-163.801;-132.136;-113.919;-120.997
3027764.245;-143.349;-114.329;-146.590;-131.577;-149.980;-136.159;-117.533;-127.256
3027764.253;-143.535;-117.980;-146.292;-134.148;-156.835;-130.050;-112.765;-120.811
3027764.261;-142.455;-121.891;-144.467;-141.971;-159.591;-124.723;-108.704;-114.776
3027764.269;-148.453;-133.924;-148.714;-150.390;-158.809;-127.628;-110.455;-119.023
3027764.277;-150.576;-139.885;-149.012;-152.402;-162.795;-126.474;-107.400;-116.825
3027764.285;-149.310;-124.723;-150.204;-145.547;-162.423;-120.439;-101.291;-112.727
3027764.293;-151.396;-126.883;-154.786;-142.418;-164.174;-121.966;-103.600;-113.584
3027764.301;-153.445;-136.830;-153.556;-152.327;-162.572;-126.585;-108.518;-115.857
3027764.309;-151.545;-135.154;-150.912;-159.964;-159.480;-125.393;-107.437;-113.510
3027764.317;-145.510;-123.158;-146.069;-144.802;-159.070;-126.325;-108.629;-113.845
3027764.325;-146.367;-121.519;-149.161;-133.216;-167.117;-132.546;-115.372;-121.072
3027764.333;-141.747;-115.559;-142.045;-134.930;-161.044;-128.187;-111.274;-118.576
3027764.341;-130.795;-109.300;-130.236;-129.677;-147.261;-119.247;-102.483;-111.386
3027764.349;-134.557;-119.023;-131.167;-125.170;-145.510;-120.699;-106.506;-113.621
3027764.357;-140.555;-128.746;-136.420;-141.151;-146.292;-121.035;-107.810;-111.051
3027764.365;-148.900;-133.440;-144.616;-149.459;-155.456;-119.507;-107.065;-110.902
3027764.373;-152.923;-133.663;-149.906;-141.524;-160.784;-119.135;-106.767;-111.349
3027764.381;-148.527;-129.528;-149.272;-145.845;-160.523;-110.529;-99.242;-102.296
3027764.389;-144.206;-138.357;-141.151;-143.833;-159.517;-104.979;-95.181;-98.310
3027764.397;-143.796;-129.603;-143.610;-142.418;-160.336;-108.443;-100.322;-99.875
3027764.405;-144.728;-122.972;-142.604;-141.673;-157.095;-118.166;-109.300;-107.326
3027764.413;-139.140;-121.258;-135.005;-137.389;-154.078;-122.450;-112.802;-109.971
3027764.421;-139.289;-131.726;-135.228;-146.069;-148.341;-124.797;-116.304;-110.641
3027764.429;-137.910;-129.603;-134.110;-143.573;-150.539;-127.442;-119.619;-116.304
3027764.442;-125.915;-108.965;-124.276;-131.838;-140.667;-119.656;-112.168;-111.386
3027764.450;-129.268;-106.134;-128.634;-124.015;-142.045;-119.582;-111.349;-113.957
3027764.458;-134.706;-122.115;-129.864;-135.712;-144.355;-115.409;-107.624;-111.461
3027764.466;-136.904;-122.115;-130.385;-134.408;-145.100;-112.019;-105.202;-109.598
3027764.474;-136.234;-112.951;-130.646;-133.812;-142.716;-116.117;-109.561;-112.914
3027764.482;-132.471;-115.782;-130.124;-139.363;-140.518;-118.837;-110.418;-111.237
3027764.490;-124.536;-111.163;-122.599;-130.311;-134.483;-113.323;-104.085;-103.675
3027764.498;-122.190;-111.647;-119.619;-130.720;-142.232;-115.670;-105.053;-104.681
3027764.506;-116.900;-100.471;-114.627;-123.456;-138.804;-120.588;-109.076;-107.735
3027764.514;-111.647;-91.605;-106.953;-116.639;-120.662;-122.376;-111.125;-109.151
3027764.522;-99.391;-81.211;-93.244;-105.947;-107.661;-111.088;-99.316;-98.608
3027764.530;-91.232;-74.506;-84.229;-102.036;-106.171;-103.526;-90.860;-94.250
3027764.538;-87.470;-72.196;-79.349;-98.050;-99.801;-110.604;-97.416;-101.775
3027764.546;-82.366;-72.084;-72.233;-95.926;-94.548;-110.045;-97.007;-101.179
3027764.554;-73.798;-63.069;-64.000;-90.748;-90.972;-106.506;-95.069;-98.981
3027764.562;-46.231;-20.601;-40.047;-50.254;-72.233;-101.179;-90.823;-92.573
3027764.570;-32.000;-3.390;-24.699;-35.129;-57.369;-105.761;-95.330;-94.585
3027764.578;-17.360;12.666;-11.884;-17.472;-45.858;-113.063;-101.067;-98.795
3027764.586;8.270;38.221;16.205;3.241;-21.942;-108.294;-95.963;-92.760
3027764.594;23.544;61.020;33.416;16.056;-10.319;-105.053;-91.940;-88.885
3027764.602;30.734;64.597;40.457;28.387;11.548;-100.397;-86.837;-82.701
3027764.610;22.650;49.584;32.261;15.087;4.955;-99.391;-85.793;-83.297
3027764.618;11.474;41.053;21.905;3.092;-8.270;-102.445;-89.556;-86.352
3027764.626;-0.484;30.249;13.225;-10.431;-20.787;-110.380;-97.938;-91.121
3027764.636;-18.999;6.817;-5.290;-31.404;-45.002;-114.255;-101.961;-94.585
3027764.644;-32.857;-16.280;-20.303;-49.919;-51.297;-112.131;-100.099;-91.903
3027764.652;-46.417;-29.877;-30.622;-56.028;-63.926;-114.217;-102.296;-94.138
3027764.660;-61.952;-41.500;-46.864;-76.406;-76.666;-113.659;-102.259;-93.021
3027764.668;-72.122;-51.744;-61.020;-79.386;-86.389;-112.243;-102.408;-90.338
3027764.676;-80.131;-59.605;-69.141;-87.023;-89.891;-112.653;-103.600;-92.015
3027764.684;-85.905;-69.737;-76.108;-102.930;-98.273;-113.435;-104.047;-94.399
3027764.692;-87.209;-77.039;-73.798;-104.122;-96.262;-114.925;-105.090;-96.560
3027764.700;-92.052;-84.788;-78.119;-109.002;-101.812;-114.590;-102.893;-96.001
3027764.708;-97.305;-91.344;-83.558;-113.994;-111.759;-115.484;-103.861;-96.895
3027764.716;-101.700;-92.164;-85.346;-112.727;-110.716;-118.278;-106.283;-100.732
3027764.724;-107.139;-95.703;-91.866;-119.321;-120.364;-113.696;-100.732;-95.740
3027764.732;-117.160;-109.971;-103.526;-128.709;-129.193;-110.678;-98.981;-93.654
3027764.740;-122.637;-116.676;-110.641;-137.016;-137.761;-109.859;-100.248;-91.493
3027764.748;-122.227;-111.163;-108.704;-136.383;-135.340;-104.308;-96.336;-85.570
3027764.756;-121.407;-110.567;-105.202;-130.534;-129.901;-101.849;-93.617;-85.086
3027764.764;-115.857;-109.673;-101.402;-120.476;-123.903;-97.454;-88.774;-79.535
3027764.772;-115.819;-108.369;-98.720;-116.043;-128.374;-100.881;-91.493;-84.937
3027764.780;-116.713;-102.334;-102.706;-117.533;-125.431;-99.614;-87.619;-85.793
3027764.788;-115.447;-98.050;-103.116;-117.235;-136.308;-96.336;-83.260;-83.372
3027764.796;-115.111;-98.124;-101.812;-119.135;-126.325;-92.350;-77.784;-79.684
3027764.804;-117.384;-104.234;-104.904;-118.911;-126.734;-94.138;-78.045;-80.802
3027764.812;-119.247;-108.033;-103.861;-120.588;-130.050;-96.485;-80.727;-83.856
3027764.820;-122.897;-116.974;-107.959;-128.187;-130.944;-104.532;-90.152;-90.450
3027764.832;-120.439;-116.453;-107.028;-126.027;-127.256;-102.483;-90.599;-87.284
3027764.840;-120.625;-103.936;-102.744;-126.176;-133.254;-102.073;-90.227;-88.215
3027764.848;-122.897;-109.784;-105.165;-122.152;-130.162;-105.090;-92.685;-90.674
3027764.856;-121.519;-109.226;-103.153;-116.080;-124.536;-103.861;-90.562;-89.817
3027764.864;-125.505;-120.215;-107.810;-126.399;-131.615;-103.340;-89.444;-90.674
3027764.872;-123.121;-115.559;-103.675;-122.786;-120.811;-99.391;-85.719;-86.576
3027764.880;-130.460;-120.550;-112.057;-130.497;-132.546;-107.959;-96.150;-95.032
3027764.888;-125.691;-116.862;-109.114;-119.917;-131.540;-103.824;-94.213;-90.860
3027764.896;-111.945;-101.961;-92.164;-104.643;-115.894;-87.656;-80.168;-75.176
3027764.904;-122.301;-114.255;-97.826;-123.233;-119.545;-92.313;-85.980;-76.965
3027764.912;-127.181;-118.762;-104.457;-131.242;-127.666;-96.150;-88.923;-80.205
3027764.920;-108.294;-99.167;-84.378;-111.796;-117.049;-91.605;-84.043;-78.715
3027764.928;-87.433;-90.003;-62.846;-98.124;-91.754;-85.905;-76.778;-74.208
3027764.936;-57.407;-49.323;-36.918;-66.161;-71.786;-80.131;-67.279;-72.829
3027764.944;-44.182;-32.037;-28.238;-50.887;-62.734;-80.988;-66.794;-76.257
3027764.952;-36.694;-29.542;-14.380;-50.291;-49.844;-75.735;-62.957;-72.345
3027764.960;-32.857;-21.681;-6.892;-45.709;-43.251;-74.133;-64.932;-71.488
3027764.968;-34.906;-21.234;-12.442;-53.346;-49.584;-68.285;-62.622;-64.075
3027764.976;-38.296;-27.865;-18.403;-63.144;-48.131;-59.307;-57.034;-56.252
3027764.984;-47.013;-38.333;-24.140;-63.889;-52.601;-61.505;-58.301;-59.009
3027764.992;-54.352;-51.334;-31.888;-72.196;-58.077;-62.361;-57.928;-60.573
3027765.000;-67.279;-68.732;-45.039;-84.974;-69.551;-71.488;-67.092;-70.110
3027765.008;-64.075;-50.254;-42.431;-83.745;-72.010;-70.669;-65.900;-67.614
3027765.016;-53.197;-41.611;-31.888;-67.689;-64.000;-63.889;-58.375;-59.754
3027765.012;-46.827;-39.004;-26.934;-58.226;-55.805;-59.791;-53.570;-54.911
3027765.020;-55.097;-46.454;-36.210;-63.479;-64.261;-68.322;-60.312;-64.038
3027765.028;-64.708;-53.495;-45.858;-74.916;-70.855;-77.933;-66.571;-75.661
3027765.036;-65.304;-60.797;-44.778;-81.137;-71.079;-78.529;-65.491;-74.394
3027765.044;-68.583;-68.545;-47.311;-86.911;-75.735;-84.601;-70.073;-78.045
3027765.052;-60.424;-55.395;-37.514;-71.935;-71.488;-87.880;-72.420;-76.331
3027765.060;-55.209;-51.558;-32.894;-69.290;-62.212;-88.178;-73.686;-75.661
3027765.068;-53.160;-52.303;-32.596;-67.092;-64.932;-85.384;-70.445;-74.916
3027765.076;-50.962;-40.233;-31.404;-64.485;-59.158;-83.074;-68.583;-72.420
3027765.084;-51.633;-39.972;-31.441;-66.571;-52.154;-81.919;-69.477;-69.588
3027765.092;-54.799;-52.527;-35.390;-65.826;-62.548;-81.547;-70.892;-68.210
3027765.100;-55.134;-49.509;-38.780;-63.404;-69.328;-83.782;-75.176;-69.030
3027765.108;-53.272;-44.294;-38.370;-66.012;-65.342;-84.452;-75.139;-70.147
3027765.116;-46.790;-36.843;-30.175;-63.479;-60.685;-83.260;-71.116;-70.594
3027765.124;-49.546;-43.884;-30.883;-58.413;-60.163;-84.750;-72.010;-74.916
3027765.132;-52.750;-54.501;-32.783;-60.238;-56.811;-85.235;-71.675;-77.151
3027765.140;-45.300;-41.053;-24.736;-55.842;-51.595;-75.027;-58.524;-68.024
3027765.148;-46.566;-36.769;-29.728;-57.258;-59.195;-67.092;-49.323;-61.281
3027765.156;-53.048;-52.825;-33.416;-66.385;-64.038;-69.290;-51.484;-60.685
3027765.164;-55.172;-52.825;-31.739;-65.528;-58.115;-75.288;-57.071;-63.479
3027765.172;-50.627;-49.174;-28.647;-62.659;-56.662;-73.202;-55.805;-59.083
3027765.180;-52.862;-44.219;-31.032;-58.338;-54.277;-76.704;-60.163;-61.691
3027765.188;-58.077;-50.962;-37.253;-63.777;-62.510;-82.031;-66.049;-68.322
3027765.196;-55.432;-50.180;-38.482;-61.728;-68.732;-79.870;-63.591;-66.385
3027765.207;-54.315;-52.825;-36.284;-64.000;-61.430;-84.080;-65.826;-70.184
3027765.215;-50.515;-51.856;-27.642;-63.330;-53.607;-89.370;-70.371;-74.506
3027765.223;-46.194;-44.517;-22.464;-60.797;-54.426;-83.335;-64.336;-69.663
3027765.231;-45.337;-39.041;-22.575;-49.509;-51.856;-78.604;-58.971;-66.571
3027765.239;-46.380;-39.674;-27.306;-50.068;-50.925;-78.790;-58.860;-66.310
3027765.247;-57.295;-60.759;-34.422;-66.236;-59.940;-81.547;-62.175;-69.663
3027765.255;-65.155;-69.365;-43.102;-75.139;-61.803;-78.753;-61.318;-64.932
3027765.263;-64.410;-62.548;-42.655;-71.116;-70.743;-75.623;-58.375;-60.610
3027765.271;-64.671;-57.109;-42.431;-68.732;-70.408;-75.549;-57.407;-59.940
3027765.279;-59.828;-48.466;-39.786;-59.903;-65.528;-81.509;-64.597;-63.144
3027765.287;-51.707;-45.896;-29.057;-53.048;-61.244;-86.948;-71.675;-68.992
3027765.295;-50.589;-53.048;-28.238;-64.448;-58.822;-90.189;-75.214;-71.339
3027765.303;-41.835;-42.655;-18.626;-53.570;-54.091;-89.817;-72.978;-71.488
3027765.311;-46.305;-44.629;-23.134;-53.197;-62.138;-89.407;-71.935;-72.420
3027765.319;-40.717;-40.308;-19.409;-47.162;-52.936;-80.466;-63.293;-62.250
3027765.327;-37.551;-36.396;-16.801;-42.506;-45.300;-72.606;-55.656;-57.109
3027765.335;-42.021;-42.245;-20.787;-48.503;-52.378;-68.396;-50.217;-55.656
3027765.343;-49.025;-51.446;-26.785;-62.175;-53.607;-67.204;-49.062;-56.736
3027765.351;-52.080;-50.329;-30.361;-49.733;-62.995;-69.365;-53.085;-58.264
3027765.359;-45.784;-39.712;-22.799;-40.941;-52.340;-68.098;-52.266;-55.805
3027765.367;-40.792;-41.053;-15.870;-38.035;-47.088;-67.241;-52.154;-54.762
3027765.375;-42.878;-43.213;-20.079;-46.976;-48.950;-73.463;-57.369;-62.324
3027765.383;-43.325;-38.631;-21.011;-45.449;-52.862;-70.706;-53.421;-62.510
3027765.391;-47.907;-44.927;-20.303;-47.944;-54.538;-65.975;-47.684;-62.138
3027765.400;-41.239;-28.647;-15.199;-36.433;-48.801;-63.032;-43.698;-61.579
3027765.408;-42.394;-27.604;-16.242;-34.757;-53.681;-68.657;-49.546;-66.049
3027765.416;-46.566;-39.451;-21.197;-40.680;-53.681;-69.998;-51.595;-64.708
3027765.424;-43.958;-35.726;-16.615;-44.294;-44.443;-66.943;-48.652;-60.871
3027765.432;-45.002;-38.669;-19.521;-40.233;-46.454;-67.912;-51.670;-61.542
3027765.440;-42.282;-32.894;-17.621;-32.894;-54.985;-65.714;-51.893;-58.487
3027765.448;-47.311;-39.265;-18.589;-39.935;-53.570;-67.689;-56.811;-59.456
3027765.456;-49.286;-40.866;-20.228;-48.913;-50.962;-69.477;-58.971;-61.058
3027765.464;-49.621;-43.660;-20.713;-47.237;-51.409;-68.992;-57.518;-60.536
3027765.472;-45.560;-35.092;-18.366;-41.351;-50.962;-69.439;-57.109;-62.399
3027765.480;-44.294;-33.863;-22.799;-32.894;-51.260;-75.847;-65.602;-66.198
3027765.488;-47.609;-41.276;-23.395;-35.986;-51.111;-76.965;-67.875;-68.173
3027765.496;-51.260;-41.574;-24.140;-42.729;-51.297;-79.013;-69.588;-74.171
3027765.504;-37.290;-22.687;-9.164;-30.883;-40.047;-65.640;-55.060;-65.528
3027765.512;-32.373;-21.458;-8.903;-28.983;-41.202;-60.350;-51.297;-60.797
3027765.520;-38.855;-30.510;-18.254;-33.863;-51.670;-68.173;-59.418;-66.571
3027765.528;-31.330;-26.152;-10.803;-29.616;-45.039;-59.679;-51.707;-59.120
3027765.536;-24.140;-22.948;-2.794;-26.934;-36.210;-50.589;-43.102;-50.813
3027765.544;-24.401;-23.544;0.373;-26.263;-27.977;-48.503;-42.394;-48.168
3027765.552;-31.553;-25.257;-5.923;-38.110;-32.447;-51.372;-44.927;-50.925
3027765.560;-31.590;-20.564;-6.929;-33.081;-35.577;-52.899;-42.729;-53.309
3027765.568;-30.883;-21.234;-7.674;-30.845;-48.466;-54.203;-42.245;-55.172
3027765.576;-30.361;-28.573;-7.302;-34.794;-41.462;-57.146;-46.492;-57.444
3027765.584;-26.189;-23.469;-2.645;-27.791;-34.384;-58.040;-47.982;-57.742
3027765.596;-19.893;-16.578;0.484;-15.311;-27.865;-55.134;-45.449;-54.687
3027765.604;-20.750;-16.242;1.676;-22.650;-26.524;-58.487;-49.546;-56.364
3027765.612;-22.091;-9.649;1.006;-23.171;-34.012;-64.597;-56.848;-60.350
3027765.620;-22.836;-16.689;1.639;-23.209;-34.422;-63.442;-56.699;-57.556
3027765.628;-12.070;-12.666;13.150;-20.377;-20.564;-50.105;-43.102;-44.480
3027765.636;-10.356;-13.337;13.113;-20.564;-17.881;-48.019;-38.445;-41.164
3027765.644;-15.013;-14.827;6.631;-22.724;-26.859;-51.856;-39.861;-43.549
3027765.652;-21.793;-11.101;-0.373;-22.464;-36.471;-55.768;-42.431;-48.764
3027765.660;-19.446;-14.678;5.104;-14.119;-29.542;-59.083;-45.039;-51.148
3027765.668;-13.560;-9.649;10.654;-21.979;-18.850;-62.399;-47.497;-54.054
3027765.676;-8.903;-5.886;14.305;-14.789;-16.466;-62.697;-47.088;-54.725
3027765.684;-0.671;-2.049;25.406;-6.258;-4.321;-53.979;-38.892;-44.815
3027765.692;-5.364;-0.969;19.744;-10.356;-16.913;-58.115;-42.953;-48.317
3027765.700;-9.388;-7.786;15.534;-8.158;-24.065;-58.003;-42.431;-49.025
3027765.708;-14.044;-15.609;8.643;-15.162;-33.863;-50.850;-35.763;-42.543
3027765.716;-13.337;-8.270;7.413;-13.709;-25.071;-47.758;-32.410;-39.227
3027765.724;-12.182;-3.874;12.703;-10.021;-11.548;-54.128;-37.998;-43.996
3027765.732;-9.015;-1.527;15.199;-3.763;-10.692;-57.518;-39.972;-47.982
3027765.740;-11.809;-10.878;12.033;-8.717;-16.540;-63.144;-45.113;-51.968
3027765.748;-16.280;-10.878;7.972;-14.044;-21.830;-66.273;-49.956;-52.676
3027765.756;-18.924;-8.717;4.694;-14.044;-26.710;-67.800;-52.527;-54.687
3027765.764;-11.772;-0.820;10.282;3.874;-25.220;-61.765;-44.778;-50.440
3027765.772;-21.458;-16.205;-0.298;-14.454;-31.702;-69.886;-51.223;-61.207
3027765.780;-16.429;-14.640;6.482;-18.291;-16.205;-64.634;-46.864;-57.928
3027765.807;-5.923;-2.049;20.973;-9.947;-3.502;-58.264;-43.325;-50.403
3027765.815;-5.327;1.825;21.495;-3.166;-11.884;-64.075;-49.956;-54.762
3027765.823;-13.225;-10.952;12.405;-6.035;-19.744;-66.236;-51.707;-55.879
3027765.831;-22.054;-23.209;1.080;-20.564;-33.155;-45.002;-32.522;-35.912
3027765.839;-21.756;-19.260;4.806;-23.730;-19.483;-53.495;-40.233;-42.766
3027765.847;-21.979;-14.231;6.780;-22.985;-16.391;-59.232;-45.598;-48.280
3027765.855;-32.596;-23.469;-4.582;-38.296;-25.444;-62.212;-48.615;-52.936
3027765.863;-44.703;-40.643;-19.185;-54.315;-31.851;-68.173;-53.197;-58.897
3027765.871;-56.624;-55.954;-31.553;-71.339;-41.761;-70.557;-54.985;-60.871
3027765.879;-69.216;-74.320;-42.357;-88.587;-51.111;-76.666;-62.026;-66.236
3027765.887;-72.382;-77.784;-46.939;-95.628;-59.418;-79.945;-66.087;-67.502
3027765.895;-75.623;-75.623;-51.558;-97.342;-60.573;-79.088;-65.155;-66.534
3027765.903;-76.815;-75.959;-53.160;-92.164;-52.042;-68.657;-55.060;-58.040
3027765.911;-73.984;-72.904;-48.056;-86.762;-41.910;-67.502;-54.650;-58.338
3027765.919;-73.127;-71.824;-45.672;-85.123;-44.182;-68.508;-55.432;-60.685
3027765.927;-77.561;-78.529;-51.931;-91.344;-46.343;-70.371;-59.195;-63.591
3027765.935;-77.747;-75.065;-50.180;-87.656;-48.988;-72.382;-61.803;-64.708
3027765.943;-75.474;-73.463;-47.348;-82.999;-41.872;-69.290;-58.189;-61.616
3027765.951;-76.406;-71.414;-44.741;-79.535;-47.646;-70.296;-58.375;-65.118
3027765.959;-84.415;-79.162;-53.942;-86.203;-59.381;-76.778;-64.075;-73.127
3027765.967;-91.903;-89.779;-61.505;-99.652;-64.000;-80.839;-66.385;-78.268
3027765.975;-89.072;-94.175;-56.550;-102.930;-59.642;-75.214;-60.201;-73.351
3027765.983;-83.447;-81.621;-52.527;-85.048;-47.274;-67.055;-52.750;-62.026
3027765.991;-80.615;-76.443;-48.429;-75.810;-40.121;-63.293;-51.223;-55.730
3027765.972;-77.151;-70.632;-45.374;-74.878;-38.669;-61.356;-50.738;-53.197
3027765.980;-81.472;-76.778;-49.956;-80.019;-40.941;-56.811;-46.864;-49.733
3027765.988;-90.748;-88.401;-58.077;-90.599;-58.413;-57.518;-47.609;-51.148
3027765.996;-92.834;-92.462;-62.510;-98.348;-68.247;-61.244;-51.484;-55.209
3027766.004;-87.507;-86.538;-58.487;-90.264;-55.432;-63.777;-53.421;-60.238
3027766.012;-74.618;-68.806;-39.823;-72.159;-40.494;-60.387;-50.887;-60.648
3027766.020;-66.161;-57.817;-34.533;-63.069;-36.135;-55.097;-45.374;-55.768
3027766.028;-75.810;-67.204;-46.790;-69.253;-48.354;-60.946;-50.105;-63.516
3027766.036;-78.231;-75.288;-49.472;-80.355;-51.633;-53.756;-44.741;-56.140
3027766.044;-77.710;-76.331;-48.839;-80.466;-48.764;-45.784;-40.494;-46.566
3027766.052;-76.331;-77.188;-49.882;-82.366;-46.343;-41.388;-39.041;-39.972
3027766.060;-71.302;-68.098;-42.804;-70.892;-41.425;-38.967;-36.024;-36.694
3027766.068;-69.663;-64.261;-41.351;-68.657;-35.763;-36.694;-32.857;-36.061
3027766.076;-70.706;-70.222;-42.319;-72.829;-37.141;-31.106;-27.157;-31.218
3027766.084;-81.398;-83.633;-52.825;-92.164;-53.346;-32.783;-29.467;-34.757
3027766.092;-65.230;-63.702;-36.210;-64.149;-37.700;-40.941;-35.316;-43.772
3027766.100;-50.217;-47.088;-27.604;-49.956;-25.593;-35.875;-27.753;-39.116
3027766.108;-44.852;-40.941;-17.993;-54.836;-22.613;-39.078;-30.808;-43.362
3027766.116;-39.823;-33.341;-14.044;-52.191;-13.039;-40.494;-31.143;-43.213
3027766.124;-37.402;-33.937;-10.394;-49.584;-4.545;-36.433;-24.587;-39.376
3027766.132;-42.804;-43.437;-16.987;-58.897;-12.368;-38.594;-25.816;-37.178
3027766.140;-48.466;-53.197;-22.426;-66.422;-23.842;-37.663;-25.667;-32.634
3027766.148;-47.944;-50.589;-19.521;-56.922;-19.446;-35.353;-25.891;-26.375
3027766.156;-52.750;-53.011;-28.424;-60.312;-25.108;-37.178;-30.547;-26.152
3027766.169;-47.348;-53.458;-22.613;-59.158;-19.372;-24.587;-19.222;-16.578
3027766.177;-40.941;-45.337;-12.517;-48.317;-9.574;-19.483;-13.933;-12.256
3027766.185;-46.007;-40.345;-20.899;-49.956;-17.770;-25.965;-18.030;-19.409
3027766.193;-43.698;-36.433;-18.366;-47.125;-17.807;-27.195;-17.136;-23.246
3027766.201;-51.633;-51.297;-23.320;-57.220;-19.073;-39.674;-26.301;-36.843
3027766.209;-54.799;-51.111;-25.034;-55.917;-20.750;-44.778;-29.579;-40.643
3027766.217;-52.489;-50.850;-23.022;-56.475;-23.209;-41.462;-29.393;-32.745
3027766.225;-55.097;-54.538;-28.163;-69.030;-22.762;-42.394;-32.596;-30.398
3027766.233;-56.401;-57.183;-29.691;-63.032;-28.238;-39.339;-30.212;-25.257
3027766.241;-52.489;-52.713;-24.624;-54.762;-21.420;-31.255;-22.501;-15.274
3027766.249;-55.023;-57.518;-28.238;-51.036;-19.446;-33.788;-24.512;-19.185
3027766.257;-52.750;-53.346;-23.469;-50.366;-19.148;-32.783;-21.122;-20.266
3027766.265;-54.166;-56.550;-24.326;-54.613;-22.650;-36.955;-24.252;-24.587
3027766.273;-52.452;-49.695;-23.656;-59.307;-20.936;-38.855;-25.779;-28.200
3027766.281;-49.509;-47.237;-22.873;-51.744;-20.154;-38.892;-28.089;-27.977
3027766.289;-45.747;-49.397;-15.609;-42.394;-11.846;-37.923;-29.877;-27.940
3027766.297;-46.082;-50.366;-15.870;-51.968;-10.878;-42.543;-33.788;-32.820
3027766.305;-41.276;-44.443;-9.499;-49.733;-8.009;-42.655;-31.181;-33.937
3027766.313;-36.322;-34.869;-3.986;-31.255;1.304;-36.992;-24.438;-30.212
3027766.321;-42.059;-39.898;-12.033;-38.706;-8.158;-37.439;-23.954;-29.653
3027766.329;-43.996;-46.492;-15.609;-42.431;-13.188;-36.135;-20.824;-28.051
3027766.337;-45.151;-45.300;-17.509;-39.451;-15.609;-33.900;-19.446;-24.624
3027766.345;-43.213;-45.896;-13.225;-41.723;-7.190;-31.143;-19.893;-20.266
3027766.353;-55.395;-60.499;-23.916;-58.301;-16.391;-39.153;-32.261;-26.487
3027766.362;-55.060;-55.619;-28.908;-51.968;-21.867;-32.559;-27.493;-20.191
3027766.370;-46.417;-39.786;-16.689;-40.978;-17.360;-32.447;-28.200;-22.501
3027766.378;-32.671;-28.610;-2.719;-29.095;-4.582;-33.937;-28.647;-23.469
3027766.386;-19.334;-19.670;8.829;-21.867;13.113;-25.742;-19.483;-17.062
3027766.394;-13.895;-14.789;16.727;-18.887;18.738;-30.994;-24.550;-22.165
3027766.402;-12.890;-21.532;19.111;-20.266;22.314;-31.516;-25.593;-21.867
3027766.410;-20.638;-25.406;8.605;-31.814;19.111;-28.610;-24.848;-16.652
3027766.418;-22.948;-27.791;6.855;-32.447;12.815;-25.220;-21.905;-11.474
3027766.426;-25.965;-27.083;6.706;-30.883;7.972;-23.954;-18.962;-9.388
3027766.434;-30.398;-30.324;0.484;-33.788;9.201;-24.550;-18.664;-11.809
3027766.442;-31.069;-33.043;-1.155;-38.445;10.096;-22.575;-15.385;-10.096
3027766.450;-31.069;-38.221;0.671;-32.745;10.058;-22.352;-14.268;-12.815
3027766.458;-18.738;-24.587;14.380;-14.082;26.934;-16.987;-10.692;-8.419
3027766.466;-13.113;-3.651;18.403;-6.966;25.705;-16.168;-11.548;-7.190
3027766.474;-17.546;-9.201;10.915;-13.262;24.512;-18.068;-13.039;-11.288
3027766.482;-12.703;-8.903;17.621;-11.735;22.948;-13.262;-5.960;-6.594
3027766.490;-12.890;-13.635;19.707;-11.437;23.842;-14.827;-5.439;-7.413
3027766.498;-21.942;-24.624;8.605;-21.309;14.901;-25.854;-15.199;-14.752
3027766.506;-21.718;-28.387;6.743;-14.454;19.222;-23.544;-14.380;-8.866
3027766.514;-22.091;-33.230;7.004;-17.956;18.030;-20.601;-13.597;-5.104
3027766.522;-17.136;-14.827;13.709;-14.901;20.452;-19.334;-13.746;-3.912
3027766.530;-16.429;-12.144;15.944;-9.686;18.179;-21.271;-16.205;-7.525
3027766.538;-20.489;-19.968;9.611;-10.394;9.872;-21.830;-16.615;-11.437
3027766.546;-11.660;-7.264;16.689;-3.316;25.220;-14.566;-8.456;-8.643
3027766.557;-8.047;-4.806;24.885;0.671;30.100;-10.096;-4.284;-6.072
3027766.565;-8.941;-7.525;19.893;4.545;23.060;-8.941;-3.465;-3.204
3027766.573;-12.703;-5.364;15.125;0.037;17.807;-8.680;-3.688;-2.421
3027766.581;-16.056;-13.858;15.795;-7.935;18.738;-11.288;-6.072;-6.519
3027766.589;-8.196;-3.800;23.022;7.451;28.796;0.261;5.066;4.023
3027766.597;-13.746;-4.806;14.305;4.508;19.595;-0.335;1.416;3.241
3027766.605;-19.670;-14.640;6.407;-4.582;9.611;-3.986;-5.253;1.341
3027766.613;-19.260;-9.686;5.402;-8.084;5.551;-1.639;-2.645;2.421
3027766.621;-17.621;-17.956;7.898;-19.036;16.056;-2.906;-2.012;1.006
3027766.629;-5.849;-7.972;19.744;2.831;20.191;-0.596;3.614;0.335
3027766.637;-1.006;1.267;25.816;11.288;21.979;-1.788;3.055;-2.421
3027766.645;2.608;5.476;26.785;5.737;30.696;5.886;9.686;6.035
3027766.653;-1.639;-4.172;22.165;-0.671;24.326;9.649;11.846;9.462
3027766.661;-4.731;-7.376;21.383;-2.198;18.217;4.359;6.333;9.052
3027766.669;1.304;4.880;25.593;11.735;23.209;6.445;8.866;16.503
3027766.677;7.749;11.399;31.851;18.366;30.957;6.370;11.139;16.466
3027766.685;6.072;5.327;30.212;8.866;28.573;-1.453;4.992;8.978
3027766.693;3.353;2.719;26.003;10.319;26.748;-8.382;-0.224;-0.186
3027766.701;12.740;5.290;34.049;20.973;35.800;5.811;15.348;13.895
3027766.709;13.709;10.431;36.508;20.675;34.608;12.480;22.203;20.526
3027766.717;11.139;18.477;33.230;21.011;32.894;9.760;19.781;19.334
3027766.725;12.740;13.784;33.118;20.564;34.273;5.253;16.578;15.162
3027766.733;18.328;16.019;39.600;21.867;37.067;5.327;18.105;11.548
3027766.741;27.828;23.171;48.205;30.547;44.815;8.866;22.799;15.050
3027766.766;28.573;25.108;51.036;28.163;50.925;4.433;18.552;13.150
3027766.774;17.583;15.907;35.092;18.738;29.802;-1.937;11.809;8.605
3027766.782;22.575;19.521;41.276;27.902;40.270;4.172;16.391;17.919
3027766.790;17.844;9.350;41.388;20.601;35.129;1.304;12.144;16.429
3027766.798;14.417;5.439;39.078;9.127;33.006;-3.912;8.754;12.554
3027766.806;17.770;20.340;39.674;31.404;40.866;-4.098;10.245;12.703
3027766.814;20.415;22.426;39.302;38.296;43.064;-0.522;14.454;14.938
3027766.822;28.238;28.722;50.068;35.986;45.896;-1.453;13.150;13.150
3027766.830;35.800;34.198;59.791;38.929;61.803;1.006;16.950;13.672
3027766.838;28.126;21.718;49.584;28.387;45.486;-3.353;13.150;12.293
3027766.846;17.099;10.356;37.700;18.589;34.943;-9.611;5.141;7.898
3027766.854;14.938;15.981;31.292;20.787;30.026;-10.282;1.676;7.786
3027766.862;16.838;19.968;33.602;29.244;33.565;-9.015;0.522;7.525
3027766.870;28.461;29.840;48.541;33.677;48.950;5.774;13.821;20.079
3027766.878;27.753;25.071;46.119;30.473;47.162;8.903;16.354;22.277
3027766.886;26.561;22.016;42.766;29.951;38.520;7.525;15.758;18.291
3027766.894;26.934;23.656;44.070;29.989;39.116;5.923;16.540;15.125
3027766.902;34.422;28.275;55.283;31.106;54.911;6.780;17.807;19.148
3027766.910;23.805;14.082;42.319;16.987;48.056;-2.868;7.562;9.872
3027766.918;27.157;19.036;45.672;26.077;40.494;-1.602;8.978;7.823
3027766.926;27.791;29.355;46.417;39.078;39.898;1.974;11.399;11.586
3027766.934;22.836;28.238;41.090;33.453;36.396;4.098;13.337;14.491
3027766.942;21.607;22.091;40.196;30.920;46.007;6.109;15.870;18.179
3027766.950;20.675;16.615;40.047;31.628;42.692;4.731;15.981;17.621
3027766.962;18.589;16.466;40.010;26.748;35.577;-3.576;7.898;9.388
3027766.970;24.475;25.555;41.574;37.365;42.170;-1.229;11.027;10.021
3027766.978;33.528;30.771;51.223;42.021;55.023;8.382;20.526;17.211
3027766.986;40.382;33.341;64.112;47.609;59.046;11.884;23.693;21.830
3027766.994;27.604;31.330;49.248;40.792;41.761;2.123;13.337;10.766
3027767.002;24.624;23.618;45.933;32.336;39.823;-1.080;11.213;6.072
3027767.010;33.863;29.579;53.644;37.476;50.925;5.104;17.360;13.113
3027767.018;29.616;32.149;46.641;42.357;47.274;6.035;16.242;15.944
3027767.026;24.736;26.114;45.821;39.041;40.531;4.098;14.305;16.242
3027767.034;26.897;29.206;47.795;45.821;40.047;11.660;21.122;23.432
3027767.042;19.968;21.234;38.594;38.557;32.559;7.935;16.093;20.452
3027767.050;20.415;21.495;39.525;37.216;40.904;6.296;15.497;17.844
3027767.058;22.873;24.065;42.804;36.731;42.468;2.496;10.990;13.039
3027767.066;30.436;29.244;50.142;39.488;43.176;3.465;10.617;15.013
3027767.074;19.819;20.079;40.829;33.043;23.693;-0.894;7.227;7.749
3027767.082;16.838;18.738;39.749;33.453;23.060;-2.272;7.078;4.172
3027767.090;26.636;24.326;50.552;44.815;46.715;8.829;17.360;14.417
3027767.098;25.593;29.355;45.449;37.402;42.915;7.302;13.262;13.821
3027767.106;19.483;25.332;39.004;25.332;28.014;2.049;6.296;10.841
3027767.114;25.705;25.108;45.039;28.610;24.475;11.921;15.944;19.334
3027767.122;29.691;23.320;49.360;34.459;34.906;15.125;18.366;22.314
3027767.130;26.301;17.919;45.896;34.869;43.772;14.529;17.025;21.607
3027767.138;24.922;22.314;48.503;28.275;44.927;16.131;18.440;21.793
3027767.146;30.287;34.645;54.613;35.875;36.620;17.621;18.962;20.824
3027767.127;27.716;27.902;44.480;37.104;22.724;21.569;20.973;21.607
3027767.135;27.530;20.526;45.337;33.081;32.559;22.762;19.893;19.819
3027767.143;29.542;17.807;50.887;29.057;43.027;25.332;23.246;19.744
3027767.151;31.069;30.473;51.111;31.628;35.800;22.464;20.303;16.578
3027767.159;38.557;39.637;56.028;34.682;40.196;27.716;25.854;23.618
3027767.167;37.700;39.972;53.011;43.847;31.218;26.859;26.189;24.363
3027767.175;35.912;39.041;49.323;42.953;35.986;20.266;21.234;19.483
3027767.183;43.660;42.878;65.304;48.652;57.109;27.679;28.051;27.269
3027767.191;36.359;30.287;58.003;35.055;40.345;25.183;24.214;23.581
3027767.199;37.104;31.106;57.742;28.051;37.327;24.922;22.985;25.220
3027767.207;40.755;42.990;58.934;40.568;38.557;24.177;23.134;24.289
3027767.215;41.798;42.841;56.103;46.752;45.225;24.252;24.028;23.954
3027767.223;48.131;46.417;65.304;50.105;51.372;25.630;26.636;26.152
3027767.231;46.603;39.786;64.038;43.064;42.543;21.830;26.152;23.358
3027767.239;46.492;44.480;58.934;44.331;33.118;22.128;25.295;24.103
3027767.247;50.589;51.819;65.267;52.154;45.262;24.289;25.593;28.238
3027767.255;46.417;46.901;62.138;45.113;53.272;15.087;16.689;22.091
3027767.263;43.660;47.870;61.505;47.274;42.655;13.225;15.013;21.458
3027767.271;39.414;32.522;57.742;35.316;32.671;15.534;18.030;23.209
3027767.279;45.635;37.625;65.304;39.153;40.941;21.011;25.332;29.542
3027767.287;49.211;53.309;66.832;51.223;42.953;22.314;28.163;30.622
3027767.295;46.343;49.174;58.785;48.578;40.755;16.913;24.363;25.071
3027767.303;49.844;51.856;64.820;45.151;41.835;15.199;25.183;24.736
3027767.311;45.188;42.357;60.499;46.305;36.247;12.368;24.438;21.048
3027767.321;47.646;44.070;62.212;53.123;33.975;12.480;24.587;23.097
3027767.329;50.478;45.188;63.479;59.120;38.892;13.299;24.997;24.177
3027767.337;44.256;45.076;56.066;46.529;35.129;6.668;16.056;17.956
3027767.345;45.449;45.151;58.375;43.660;37.998;6.296;12.442;17.807
3027767.353;48.764;40.531;65.789;46.641;36.769;9.611;14.305;21.271
3027767.361;50.813;47.311;63.851;51.409;38.445;13.821;20.564;23.656
3027767.369;53.570;52.564;67.092;51.670;44.145;22.762;31.516;29.579
3027767.377;51.223;47.944;66.236;51.707;38.594;20.303;28.126;27.381
3027767.385;48.131;46.529;62.212;47.125;37.067;20.489;26.263;27.269
3027767.393;42.208;46.976;58.003;46.231;30.547;18.813;24.512;24.810
3027767.401;43.958;46.268;59.009;46.752;31.292;21.458;27.530;26.822
3027767.409;56.736;58.040;68.955;63.069;40.717;32.932;40.270;35.837
3027767.417;58.152;58.301;71.414;65.006;41.202;31.814;40.308;35.241
3027767.425;49.397;54.352;65.900;51.595;37.104;24.140;33.900;30.287
3027767.433;43.400;42.580;60.238;47.721;29.802;23.954;32.485;30.175
3027767.441;46.864;41.500;62.920;48.205;33.230;25.779;33.714;33.788
3027767.449;50.589;49.770;65.602;47.423;35.092;25.108;31.441;35.241
3027767.457;51.185;51.744;66.534;54.389;36.582;20.526;24.214;32.224
3027767.465;56.215;54.315;71.339;61.393;41.090;23.544;26.338;34.012
3027767.473;55.172;56.140;71.749;59.456;42.431;26.599;29.020;35.912
3027767.481;53.383;49.472;71.414;54.874;46.864;27.493;32.373;36.620
3027767.489;52.191;59.940;67.838;60.238;39.302;28.647;37.029;37.961
3027767.497;51.893;57.444;67.055;61.728;33.937;32.447;41.947;42.170
3027767.505;50.925;45.486;63.479;55.842;31.292;35.502;44.778;44.890
3027767.517;49.770;37.290;63.367;51.334;35.875;30.920;39.935;38.780
3027767.525;68.024;70.110;85.235;78.827;50.329;37.067;44.815;45.672
3027767.533;83.260;95.144;99.540;95.069;65.267;42.431;49.472;52.713
3027767.541;76.108;82.813;91.344;80.205;63.814;34.645;42.282;45.598
3027767.549;64.112;60.983;80.504;66.496;47.423;24.922;32.596;34.720
3027767.557;57.556;49.733;72.308;54.240;35.167;25.518;32.000;34.384
3027767.565;77.412;69.551;88.587;69.998;52.415;54.091;57.369;62.063
3027767.573;55.693;50.142;71.116;60.946;36.135;37.923;38.780;43.735
3027767.581;52.713;54.576;69.626;56.252;41.761;36.284;37.104;42.096
3027767.589;53.272;52.229;69.328;52.452;34.273;34.161;36.359;40.643
3027767.597;55.581;52.415;68.657;55.283;27.865;35.428;39.712;40.457
3027767.605;55.358;53.272;68.285;60.722;31.926;30.026;35.316;36.918
3027767.613;52.303;53.085;66.496;57.071;32.634;23.991;29.020;30.734
3027767.621;61.318;61.616;76.480;68.620;47.721;27.679;32.000;34.757
3027767.629;64.708;66.049;78.939;71.339;44.368;33.490;34.124;41.984
3027767.637;60.797;56.885;75.884;51.521;36.135;36.135;34.161;42.766
3027767.645;57.779;51.744;76.033;54.054;44.256;34.682;32.820;38.706
3027767.653;57.593;55.544;76.704;55.358;43.176;30.361;29.467;31.702
3027767.661;57.183;49.807;73.500;54.725;41.313;27.977;28.312;28.424
3027767.669;58.748;40.680;74.431;50.031;35.912;32.298;31.553;33.677
3027767.677;56.066;41.090;73.723;35.726;29.840;30.138;27.940;32.075
3027767.685;72.122;71.749;85.160;60.275;54.687;38.147;34.869;38.520
3027767.693;78.641;74.171;90.823;74.096;57.667;45.486;41.611;43.884
3027767.701;75.027;71.824;89.444;66.459;54.426;47.758;41.015;45.076
3027767.712;80.802;78.566;97.603;67.502;61.765;57.183;46.641;53.868
3027767.720;83.260;76.778;96.932;61.579;55.693;61.579;50.813;56.401
3027767.728;78.045;64.410;87.284;54.874;42.729;56.922;46.641;54.091
3027767.736;73.612;63.628;84.937;52.601;43.027;49.956;41.276;48.019
3027767.744;78.194;69.402;90.301;55.321;57.966;50.664;43.884;49.174
3027767.752;88.029;74.580;100.732;62.063;65.006;59.903;53.979;60.052
3027767.760;88.401;77.561;98.906;62.585;64.857;60.424;55.768;60.946
3027767.768;79.051;69.849;87.768;54.874;45.784;50.440;45.337;52.080
3027767.776;76.927;69.402;84.229;60.089;43.660;45.337;38.743;45.709
3027767.784;85.458;82.627;91.940;67.130;60.536;47.199;43.102;44.331
3027767.792;94.175;80.988;107.437;71.898;77.225;52.080;49.993;47.497
3027767.800;96.112;89.146;109.673;70.259;71.898;50.999;49.099;44.480
3027767.808;103.675;102.036;111.349;82.292;75.288;55.619;54.538;49.919
3027767.816;101.887;95.889;105.686;84.378;77.374;51.782;53.197;49.733
3027767.824;98.459;89.779;102.818;72.643;68.285;49.137;49.807;48.801
3027767.832;109.226;106.059;115.149;82.776;79.945;60.908;59.940;61.244
3027767.840;102.334;93.542;110.865;75.698;69.626;56.475;56.215;56.699
3027767.848;96.299;90.748;102.036;69.514;65.863;53.421;53.793;52.527
3027767.856;97.044;102.185;104.457;80.392;74.394;51.558;52.638;50.589
3027767.864;96.634;95.516;107.102;74.692;75.772;50.962;52.676;50.850
3027767.872;100.024;90.525;110.269;78.045;77.263;54.315;55.097;56.401
3027767.880;97.826;86.538;106.916;75.921;64.261;52.713;52.005;55.395
3027767.888;100.844;93.319;112.429;74.655;76.443;51.372;50.440;55.321
3027767.896;104.792;98.348;117.533;80.019;93.468;49.658;50.478;51.334
3027767.891;102.520;100.397;113.547;72.531;82.105;50.627;53.234;50.142
3027767.899;92.685;88.662;101.887;64.075;69.141;45.858;48.168;46.566
3027767.907;86.427;76.890;96.746;65.230;55.581;47.088;47.013;48.317
3027767.915;90.078;86.948;101.179;70.669;69.328;53.719;52.378;55.879
3027767.923;93.170;82.478;103.600;66.012;82.925;64.857;63.702;67.055
3027767.931;76.368;67.055;88.066;45.709;63.032;61.020;59.679;61.356
3027767.939;83.856;85.160;95.889;61.803;61.579;54.091;53.644;53.532
3027767.947;80.131;79.758;90.748;62.846;51.707;55.954;56.475;54.613
3027767.955;83.782;78.566;93.654;63.032;50.403;60.275;61.616;58.562
3027767.963;86.874;81.286;99.540;66.124;62.138;56.662;58.077;56.438
3027767.971;82.180;78.790;93.579;59.605;55.768;51.521;51.968;52.378
3027767.979;81.025;68.955;88.550;55.395;52.266;49.882;52.825;51.707
3027767.987;85.309;77.225;94.920;61.281;54.650;54.874;60.201;54.948
3027767.995;82.329;77.672;92.015;66.869;52.266;60.946;65.006;60.573
3027768.003;80.951;72.941;89.519;67.018;53.756;72.941;75.549;70.557
3027768.011;80.615;80.988;88.774;67.018;50.478;73.463;76.070;71.712
3027768.019;80.205;79.796;89.929;66.683;54.874;68.434;70.222;67.502
3027768.027;71.526;68.061;81.174;62.957;47.125;55.134;56.960;55.581
3027768.035;69.365;70.967;79.535;61.989;35.800;45.113;48.578;47.348
3027768.043;69.365;73.090;78.902;62.473;42.394;45.151;50.999;46.082
3027768.051;73.165;73.984;86.389;70.147;54.352;47.833;54.017;49.286
3027768.059;68.173;70.632;79.572;62.510;48.801;47.535;52.825;49.509
3027768.067;61.132;62.585;74.618;53.048;43.139;51.372;55.470;51.707
3027768.075;58.524;51.856;74.506;38.557;40.717;61.095;63.181;60.052
3027768.086;65.677;58.934;82.776;44.219;46.007;65.938;66.012;63.181
3027768.094;96.522;91.605;113.696;75.437;68.732;66.869;66.943;61.244
3027768.102;116.006;109.188;130.609;98.236;79.498;72.271;71.898;67.018
3027768.110;129.975;129.379;146.329;113.621;90.450;69.588;69.104;65.826
3027768.118;155.233;161.976;171.140;137.873;106.841;68.173;67.241;65.640
3027768.126;180.155;189.878;198.334;173.636;130.683;72.867;70.967;69.849
3027768.134;205.301;227.205;220.835;213.683;147.298;78.008;75.847;73.947
3027768.142;218.600;235.513;231.005;231.043;156.164;84.415;82.999;78.529
3027768.150;215.098;223.257;223.406;222.325;148.341;85.533;84.750;76.033
3027768.158;210.553;235.662;218.563;218.935;139.438;86.352;83.670;76.331
3027768.166;199.899;226.833;206.307;215.769;130.236;82.403;77.561;72.867
3027768.174;180.826;201.240;187.084;189.021;120.252;72.308;65.453;65.081
3027768.182;168.905;186.376;179.410;173.971;115.260;72.606;65.379;63.851
3027768.190;153.333;165.924;167.079;157.207;100.210;72.047;65.491;61.095
3027768.198;132.322;142.232;145.659;135.116;73.463;63.479;56.364;53.942
3027768.206;119.023;124.462;130.013;117.980;63.740;64.783;58.152;53.607
3027768.214;107.810;111.572;117.980;108.816;52.266;65.304;58.636;52.378
3027768.222;99.130;101.142;107.139;95.032;45.337;63.404;54.650;51.074
3027768.230;95.442;94.734;106.618;92.722;52.340;67.055;55.768;57.183
3027768.238;97.342;94.287;104.904;100.583;51.446;73.873;63.255;65.602
3027768.246;82.888;86.166;90.785;87.731;31.218;65.677;55.581;53.495
3027768.254;75.623;76.666;83.372;75.661;29.840;59.642;50.366;45.188
3027768.262;69.737;65.640;77.598;68.545;26.450;57.705;46.827;43.921
3027768.270;70.296;64.671;79.088;71.451;29.877;61.505;50.105;45.002
3027768.282;73.165;69.626;79.200;77.188;33.267;67.689;55.283;46.678
3027768.290;78.343;85.607;80.317;82.739;21.942;78.380;67.651;53.719
3027768.298;74.580;82.068;74.431;73.761;22.054;74.096;62.883;49.025
3027768.306;66.981;62.361;71.190;72.569;29.765;70.818;60.983;44.368
3027768.314;65.528;65.044;69.663;71.526;29.467;71.973;64.336;46.231
3027768.322;65.900;66.496;69.551;68.285;25.406;68.955;62.399;46.864
3027768.330;62.846;63.702;64.597;56.438;13.411;63.926;56.252;45.560
3027768.338;67.800;67.949;68.955;73.612;22.836;61.058;54.017;45.225
3027768.346;65.006;64.299;67.055;79.274;18.775;60.052;53.607;43.251
3027768.354;59.381;64.336;62.250;74.655;24.848;60.685;53.495;44.256
3027768.362;62.287;65.826;62.808;62.026;22.277;62.175;54.501;48.652
3027768.370;67.353;64.299;70.259;67.875;29.057;60.759;52.229;49.546
3027768.378;56.662;51.558;56.364;62.920;19.111;50.552;41.425;39.414
3027768.386;52.936;52.154;50.589;56.960;15.832;53.234;43.735;38.669
3027768.394;59.716;58.562;63.144;64.000;24.475;57.183;48.578;41.388
3027768.402;57.183;48.466;58.375;55.395;11.176;53.048;45.486;39.898
3027768.410;45.672;46.603;43.698;48.727;-5.476;52.787;45.411;40.606
3027768.418;59.642;63.591;55.507;67.800;11.958;45.113;39.525;34.086
3027768.426;78.753;82.739;75.586;78.678;31.963;47.497;42.729;37.253
3027768.434;88.699;90.003;85.942;83.335;34.794;52.489;45.933;40.717
3027768.442;99.614;91.158;98.422;91.381;43.288;53.905;48.093;40.717
3027768.450;103.451;97.826;102.483;93.356;44.219;55.805;52.564;41.388
3027768.458;104.047;110.306;101.440;107.698;43.847;53.830;50.887;41.574
3027768.466;101.998;108.853;99.875;105.612;50.925;53.644;48.205;42.766
3027768.489;92.611;96.709;90.823;95.777;45.523;49.919;44.033;40.755
3027768.497;87.097;88.848;83.260;90.487;43.958;48.131;43.139;40.755
3027768.505;82.925;75.661;84.639;80.839;28.722;53.830;48.615;43.660
3027768.513;87.209;90.785;93.281;88.662;43.511;54.389;48.764;44.033
3027768.521;83.335;90.525;84.080;93.281;40.345;49.695;44.480;38.967
3027768.529;76.704;87.209;76.257;87.284;34.384;49.360;44.517;36.471
3027768.537;72.792;72.494;70.892;74.469;31.963;49.993;43.660;38.743
3027768.545;73.016;66.757;73.127;75.698;25.667;45.337;38.072;35.539
3027768.553;75.325;75.623;76.182;79.535;31.032;43.772;36.098;34.347
3027768.561;80.653;83.521;77.672;86.650;33.788;47.572;42.543;37.812
3027768.569;83.409;88.587;82.739;90.376;37.663;47.944;45.933;37.104
3027768.577;85.793;91.493;83.447;96.448;40.941;44.480;43.809;34.757
3027768.585;84.415;87.358;72.904;96.373;30.659;40.866;40.643;30.957
3027768.593;84.750;86.613;77.859;93.207;35.353;44.480;44.741;33.081
3027768.601;86.538;91.158;87.023;96.858;41.239;46.529;45.821;34.422
3027768.609;83.372;89.630;82.590;91.828;40.196;40.717;39.078;29.467
3027768.617;80.876;79.982;76.219;92.722;36.024;41.649;38.929;32.037
3027768.625;75.810;75.586;69.141;81.919;28.685;41.313;37.700;31.963
3027768.633;77.784;75.772;69.626;77.374;34.273;40.717;37.774;33.267
3027768.641;78.194;80.168;73.500;84.899;32.187;39.265;36.247;31.330
3027768.649;69.998;79.833;67.241;89.854;23.879;31.069;26.301;20.564
3027768.657;69.737;74.059;66.943;78.231;27.418;31.739;25.965;21.048
3027768.665;67.540;63.665;67.391;73.388;29.169;27.381;21.607;16.838
3027768.673;71.712;74.394;68.732;76.778;34.608;27.008;22.873;15.832
3027768.670;73.649;73.425;66.683;76.182;24.177;33.118;31.739;19.148
3027768.678;75.884;75.810;73.761;78.008;31.479;33.341;32.336;18.924
3027768.686;71.004;68.247;69.849;81.621;39.302;30.920;27.679;18.775
3027768.694;65.714;72.196;62.548;77.859;23.060;30.696;24.997;18.440
3027768.702;51.111;58.897;47.982;62.436;4.321;23.283;14.938;12.591
3027768.710;43.921;42.915;42.841;54.501;-1.788;22.538;13.411;12.331
3027768.718;50.478;49.546;49.733;58.338;10.841;29.765;19.744;19.334
3027768.726;57.928;58.934;54.091;65.267;20.899;36.061;26.524;25.406
3027768.734;60.946;65.565;56.699;68.396;21.011;37.886;30.771;23.283
3027768.742;61.281;67.092;58.115;76.182;18.999;37.886;32.187;19.781
3027768.750;60.648;64.857;57.779;75.959;9.127;36.247;30.845;17.658
3027768.758;59.307;57.295;58.226;67.912;12.890;38.482;32.745;20.042
3027768.766;56.103;60.201;51.446;69.775;12.703;35.167;29.318;19.819
3027768.774;57.444;64.634;51.223;70.520;13.337;35.241;29.169;20.489
3027768.782;55.879;58.003;52.080;68.173;17.956;35.353;29.765;22.203
3027768.790;42.878;45.262;40.419;57.518;-4.433;29.914;24.140;15.199
3027768.798;35.502;41.574;28.685;46.566;-18.142;29.840;24.140;13.299
3027768.806;51.148;50.887;44.852;57.854;-0.298;28.983;22.501;14.752
3027768.814;42.170;43.623;38.818;45.672;1.118;25.518;16.838;12.144
3027768.822;24.512;26.710;19.781;22.538;-9.015;12.890;2.570;1.863
3027768.830;17.807;16.168;10.505;10.505;-11.697;6.333;-4.657;-2.123
3027768.838;4.396;-1.639;-0.782;-8.121;-19.483;-0.149;-10.468;-7.190
3027768.846;-9.425;-20.899;-13.001;-18.515;-33.230;3.539;-6.892;-0.596
3027768.854;-11.437;-22.613;-14.603;-18.589;-30.436;3.204;-7.935;0.410
3027768.851;-7.972;-12.591;-10.654;-8.978;-27.120;8.196;-3.017;3.539
3027768.859;-4.880;-8.158;-9.611;-4.880;-25.854;13.746;1.453;9.127
3027768.867;-15.050;-18.515;-19.930;-19.670;-34.310;6.258;-7.115;2.421
3027768.875;-17.621;-21.942;-23.060;-18.887;-29.691;8.233;-5.588;5.215
3027768.883;-20.675;-22.538;-27.828;-23.618;-35.577;8.456;-5.998;3.725
3027768.891;-19.968;-24.699;-26.599;-23.209;-39.786;6.445;-9.574;-0.112
3027768.899;-17.360;-27.828;-24.103;-19.558;-37.178;8.754;-8.084;2.235
3027768.907;-23.283;-37.327;-29.206;-28.200;-42.804;3.353;-14.678;-6.482
3027768.915;-18.962;-22.799;-26.859;-25.369;-36.657;9.723;-8.605;-3.316
3027768.923;-19.409;-18.179;-30.026;-18.813;-38.967;19.930;1.304;5.513
3027768.931;-24.550;-26.599;-34.757;-27.642;-41.798;24.252;6.221;8.978
3027768.939;-17.583;-24.810;-27.902;-23.432;-31.330;29.616;12.890;13.784
3027768.947;-7.935;-19.707;-17.136;-15.795;-25.332;34.571;18.589;18.291
3027768.955;-3.055;-14.603;-8.941;-13.672;-29.206;33.751;18.924;18.626
3027768.963;-10.431;-15.981;-19.222;-13.374;-28.051;21.234;8.158;4.359
3027768.971;-17.025;-23.954;-26.338;-22.873;-28.498;12.666;0.186;-3.316
3027768.979;-13.374;-23.171;-25.593;-17.956;-30.734;14.752;2.123;1.304
3027768.987;-7.004;-14.231;-23.544;-12.144;-33.602;16.503;5.104;3.502
3027768.995;-7.600;-14.901;-25.481;-14.342;-31.628;17.658;7.376;5.029
3027769.003;-9.947;-17.919;-21.458;-16.540;-28.983;18.813;7.488;6.743
3027769.011;-14.119;-22.165;-25.742;-22.724;-36.731;16.280;7.302;3.986
3027769.019;-15.758;-22.873;-30.175;-22.575;-34.757;13.858;6.109;2.272
3027769.027;-19.409;-27.381;-34.049;-23.805;-36.396;9.723;2.049;-0.112
3027769.035;-16.578;-24.810;-31.330;-24.624;-33.081;7.600;-0.373;1.043
3027769.046;-14.119;-28.275;-24.810;-21.309;-31.106;9.015;1.378;3.763
3027769.054;-11.101;-20.154;-24.289;-15.385;-24.512;10.505;4.172;6.706
3027769.062;-9.425;-13.337;-24.103;-16.466;-27.865;9.164;2.794;6.706
3027769.070;-19.148;-26.226;-35.167;-22.501;-39.041;-0.037;-5.998;-5.141
3027769.078;-19.521;-28.573;-34.682;-19.744;-34.086;2.533;-5.290;-1.863
3027769.086;-27.232;-35.092;-40.159;-28.871;-37.029;-0.298;-8.345;-3.502
3027769.094;-29.765;-43.809;-43.064;-34.757;-39.712;2.123;-5.849;-1.378
3027769.102;-24.177;-38.184;-40.792;-31.590;-45.523;5.998;-0.857;3.912
3027769.110;-22.203;-25.220;-38.594;-21.718;-34.757;5.141;0.633;3.427
3027769.118;-22.277;-27.083;-34.273;-22.054;-29.840;5.737;2.459;4.172
3027769.126;-29.393;-38.035;-44.219;-36.918;-43.027;1.490;-0.671;-1.788
3027769.134;-33.341;-42.506;-50.254;-39.600;-50.962;-4.396;-6.184;-6.184
3027769.142;-27.418;-30.734;-43.325;-28.126;-41.611;-4.508;-6.296;-4.396
3027769.150;-22.575;-30.696;-39.302;-26.263;-41.239;1.602;-1.490;1.006
3027769.158;-24.810;-34.273;-43.027;-28.647;-45.300;-0.782;-4.061;-0.484
3027769.166;-24.848;-33.677;-42.655;-28.089;-49.435;-1.490;-3.651;-2.086
3027769.174;-23.283;-30.920;-41.649;-30.175;-42.990;-1.378;-4.172;-0.559
3027769.182;-24.363;-32.261;-36.843;-21.309;-33.863;-6.072;-11.288;-4.210
3027769.190;-27.046;-34.086;-38.780;-29.840;-40.457;-6.184;-12.554;-4.396
3027769.198;-25.481;-35.167;-39.786;-38.929;-40.606;-0.894;-6.631;1.043
3027769.206;-25.630;-34.459;-40.680;-35.465;-38.743;-3.465;-6.855;-3.316
3027769.214;-25.518;-35.651;-39.525;-25.816;-36.247;-8.009;-9.723;-9.127
3027769.222;-20.564;-25.928;-35.651;-20.489;-29.430;-2.943;-4.135;-5.141
3027769.230;-23.991;-32.037;-35.241;-24.773;-32.596;-6.706;-9.127;-7.972
3027769.241;-25.891;-33.192;-37.737;-30.249;-38.855;-9.760;-14.156;-7.115
3027769.249;-26.114;-32.298;-39.265;-35.949;-39.265;-10.170;-16.019;-7.153
3027769.257;-27.493;-30.175;-39.376;-31.553;-37.439;-13.374;-19.968;-10.766
3027769.265;-24.959;-28.089;-36.843;-18.179;-33.267;-16.168;-22.985;-14.193
3027769.273;-28.349;-38.370;-45.598;-21.383;-40.084;-15.981;-22.724;-15.087
3027769.281;-25.854;-29.616;-38.259;-27.493;-30.771;-9.425;-16.317;-6.258
3027769.289;-14.342;-15.013;-22.016;-19.707;-14.417;-7.823;-15.795;-5.700
3027769.297;-11.139;-16.168;-17.807;-24.550;-10.841;-11.399;-20.117;-9.276
3027769.305;-12.368;-21.160;-19.111;-31.367;-14.231;-11.548;-22.054;-10.319
3027769.313;-12.442;-21.458;-20.750;-37.439;-8.903;-12.964;-24.699;-14.156
3027769.321;-2.794;-12.591;-11.809;-28.759;1.490;-9.462;-21.122;-9.723
3027769.329;-3.763;-14.231;-14.789;-31.032;0.894;-4.768;-16.056;-5.774
3027769.337;-8.158;-17.472;-19.521;-38.147;-6.109;-7.898;-16.950;-8.531
3027769.345;-9.798;-20.750;-17.956;-32.522;-0.633;-12.182;-21.830;-11.437
3027769.353;-16.764;-25.928;-29.206;-33.416;-11.809;-15.125;-25.071;-15.646
3027769.361;-20.191;-21.122;-31.441;-38.445;-15.870;-16.727;-26.338;-16.727
3027769.369;-9.686;-8.084;-19.744;-20.489;3.576;-1.565;-12.368;-3.539
3027769.377;-10.729;-12.442;-21.458;-22.724;-4.917;5.886;-4.955;0.708
3027769.385;-18.217;-24.438;-26.785;-31.814;-9.872;-1.229;-10.543;-8.605
3027769.393;-21.234;-25.146;-28.685;-34.869;-9.425;-6.668;-16.913;-15.795
3027769.401;-19.036;-19.930;-28.424;-32.559;-13.039;-3.353;-14.193;-11.772
3027769.409;-22.687;-25.779;-30.622;-38.296;-16.615;-12.070;-22.799;-17.360
3027769.417;-29.244;-29.765;-38.221;-47.274;-18.291;-20.899;-31.516;-23.916
3027769.425;-31.851;-35.241;-41.462;-45.225;-26.338;-25.816;-36.284;-28.051
3027769.450;-28.126;-32.000;-38.184;-41.500;-22.054;-21.197;-31.181;-25.816
3027769.458;-27.008;-28.908;-35.204;-39.488;-16.168;-19.222;-28.722;-23.730
3027769.466;-32.112;-35.651;-40.345;-46.119;-23.320;-27.120;-38.035;-30.585
3027769.474;-29.281;-31.814;-38.967;-44.219;-20.005;-24.475;-38.333;-28.796
3027769.482;-17.695;-14.268;-29.095;-26.561;-16.987;-12.591;-27.753;-19.744
3027769.490;-18.515;-20.303;-27.977;-26.487;-15.423;-8.643;-23.805;-19.185
3027769.498;-25.854;-31.739;-35.912;-41.425;-18.962;-12.480;-28.536;-22.464
3027769.506;-27.716;-24.661;-36.694;-35.614;-17.546;-16.987;-33.863;-27.269
3027769.514;-29.169;-26.338;-37.812;-36.918;-20.638;-17.025;-34.086;-28.796
3027769.522;-27.604;-28.610;-37.216;-38.445;-16.764;-14.193;-30.696;-26.226
3027769.530;-28.908;-24.326;-42.059;-36.731;-23.954;-16.466;-36.359;-28.573
3027769.538;-20.303;-17.434;-34.012;-30.473;-23.469;-6.519;-28.200;-18.701
3027769.546;-17.434;-12.703;-30.436;-24.624;-14.789;-2.272;-24.177;-15.311
3027769.554;-24.326;-23.767;-39.600;-34.124;-24.885;-7.041;-27.940;-19.409
3027769.562;-26.524;-29.355;-37.141;-42.021;-25.481;-10.356;-28.536;-22.203
3027769.570;-31.479;-29.653;-40.457;-48.280;-17.546;-17.062;-32.298;-32.522
3027769.578;-29.132;-33.639;-41.090;-54.725;-23.246;-17.621;-32.932;-34.310
3027769.586;-24.438;-24.326;-39.041;-38.482;-23.358;-16.764;-31.926;-31.739
3027769.594;-19.819;-19.856;-36.955;-31.963;-15.236;-11.437;-27.642;-25.854
3027769.602;-18.477;-21.420;-35.167;-35.875;-16.689;-14.864;-31.292;-29.393
3027769.610;-14.789;-11.288;-31.590;-31.888;-18.403;-15.609;-33.751;-28.834
3027769.618;-12.480;-13.672;-29.318;-30.398;-12.293;-16.876;-35.092;-26.003
3027769.626;-10.692;-16.429;-25.593;-34.496;-9.947;-13.895;-31.814;-22.203
3027769.634;-15.609;-18.477;-30.547;-37.961;-10.766;-12.815;-29.914;-20.936
3027769.632;-25.406;-26.152;-41.239;-39.972;-17.881;-16.019;-31.963;-24.736
3027769.640;-31.479;-32.857;-46.380;-50.254;-29.467;-14.007;-27.753;-21.905
3027769.648;-31.553;-28.610;-47.646;-47.833;-28.871;-18.179;-33.043;-23.320
3027769.656;-28.759;-24.512;-45.896;-39.078;-24.624;-16.540;-32.373;-22.016
3027769.664;-25.332;-26.301;-39.935;-41.611;-14.938;-16.168;-31.441;-20.713
3027769.672;-21.309;-26.301;-36.657;-44.554;-9.686;-19.409;-33.900;-22.389
3027769.680;-30.994;-32.820;-45.970;-50.738;-21.122;-32.410;-46.901;-33.118
3027769.688;-24.550;-25.705;-41.462;-47.758;-19.260;-27.195;-41.239;-26.040
3027769.696;-17.546;-21.420;-33.155;-36.284;-13.858;-18.887;-35.390;-15.870
3027769.704;-22.762;-21.085;-39.265;-35.018;-16.578;-25.444;-40.829;-20.862
3027769.712;-25.667;-24.661;-35.316;-40.270;-8.866;-31.292;-45.262;-26.599
3027769.720;-22.203;-23.171;-34.422;-37.216;-4.321;-27.455;-38.631;-25.444
3027769.728;-21.160;-24.140;-38.594;-35.688;-11.846;-22.613;-31.255;-20.340
3027769.736;-24.699;-34.235;-42.245;-45.374;-22.613;-18.962;-26.487;-18.105
3027769.744;-29.653;-36.210;-46.939;-49.174;-19.260;-22.575;-30.249;-24.438
3027769.752;-34.049;-37.514;-54.017;-45.039;-29.989;-22.352;-29.430;-23.097
3027769.760;-29.542;-31.181;-48.093;-37.737;-21.011;-21.048;-27.381;-23.097
3027769.768;-25.779;-26.226;-41.351;-45.449;-12.480;-25.220;-32.485;-25.630
3027769.776;-38.110;-40.345;-53.197;-52.042;-28.685;-28.014;-36.396;-28.312
3027769.784;-26.859;-29.355;-44.107;-35.502;-22.724;-27.195;-35.129;-27.120
3027769.792;-11.921;-14.938;-28.498;-23.767;-8.121;-28.722;-38.706;-26.152
3027769.800;-21.122;-22.464;-37.514;-34.496;-18.775;-33.304;-44.592;-31.181
3027769.808;-16.503;-22.352;-35.726;-33.118;-18.850;-20.191;-30.622;-20.824
3027769.816;-7.264;-6.631;-22.650;-26.040;-5.215;-11.511;-21.011;-13.746
3027769.810;-14.268;-11.586;-27.530;-28.647;-3.651;-20.899;-29.095;-21.942
3027769.818;-15.311;-18.477;-28.871;-30.510;-1.043;-22.054;-28.759;-23.097
3027769.826;-16.019;-19.670;-29.057;-23.283;-3.427;-22.240;-28.424;-22.650
3027769.834;-14.901;-18.701;-27.902;-24.028;-8.643;-23.656;-29.542;-22.538
3027769.842;-19.334;-18.105;-34.496;-26.524;-8.680;-21.942;-28.051;-22.501
3027769.850;-22.054;-28.126;-37.700;-28.089;-15.609;-21.607;-26.673;-22.911
3027769.858;-19.073;-18.999;-30.473;-21.271;-3.614;-27.008;-30.547;-29.542
3027769.866;-25.854;-20.005;-37.067;-32.298;-9.313;-30.324;-34.422;-35.763
3027769.874;-26.189;-28.834;-40.866;-37.029;-21.420;-19.968;-25.071;-25.108
3027769.882;-24.512;-28.089;-43.027;-29.840;-19.483;-15.050;-20.750;-18.664
3027769.890;-21.085;-21.830;-38.221;-29.318;-8.047;-9.350;-16.168;-13.299
3027769.898;-19.036;-17.956;-34.869;-23.507;-9.313;-3.241;-9.611;-8.494
3027769.906;-19.781;-28.089;-29.877;-22.464;-4.806;-1.229;-5.551;-6.407
3027769.914;-18.366;-25.928;-24.587;-25.481;-4.247;-4.359;-7.860;-6.370
3027769.922;-24.661;-14.715;-32.447;-22.128;-13.672;-20.713;-22.836;-21.718
3027769.930;-24.401;-18.738;-34.161;-5.662;-6.519;-29.393;-31.553;-32.224
3027769.938;-16.578;-6.482;-27.716;-6.743;1.937;-27.828;-30.696;-31.739
3027769.946;-25.146;-18.440;-35.726;-26.040;-6.445;-32.783;-35.949;-37.365
3027769.954;-27.977;-27.493;-36.061;-24.661;-11.027;-31.665;-38.035;-35.204
3027769.962;-27.344;-32.075;-35.390;-28.983;-15.087;-31.516;-41.947;-35.428
3027769.970;-26.673;-21.234;-36.731;-25.593;-17.658;-33.490;-44.666;-37.588
3027769.978;-9.425;0.857;-18.887;2.980;5.178;-15.907;-26.263;-21.383
3027769.986;-14.864;-6.221;-22.724;-3.241;7.711;-17.211;-29.169;-25.816
3027769.994;-28.796;-21.085;-38.035;-24.028;-10.654;-24.699;-39.078;-34.086
3027770.021;-35.800;-33.453;-45.486;-35.688;-27.604;-24.326;-39.712;-35.800
3027770.029;-41.723;-39.414;-46.082;-37.923;-23.358;-25.630;-40.643;-37.849
3027770.037;-40.643;-31.255;-40.904;-29.691;-18.030;-28.349;-44.182;-41.984
3027770.045;-43.996;-40.010;-44.331;-41.351;-22.464;-31.516;-48.243;-47.274
3027770.053;-40.010;-32.485;-43.288;-35.875;-15.683;-26.599;-42.282;-42.655
3027770.061;-34.496;-24.401;-37.327;-22.911;-20.228;-21.830;-38.445;-38.333
3027770.069;-38.669;-34.310;-39.525;-25.816;-16.205;-23.134;-41.239;-42.096
3027770.077;-31.404;-21.681;-36.769;-23.805;-16.727;-14.342;-31.441;-34.012
3027770.085;-22.054;-4.396;-26.561;-7.488;-4.247;-13.076;-28.871;-34.906
3027770.093;-7.972;0.261;-15.236;12.442;11.995;0.633;-13.933;-21.979
3027770.101;-11.064;-22.389;-16.391;-1.639;4.396;4.768;-8.792;-17.956
3027770.109;-37.849;-36.508;-46.082;-33.379;-27.977;-22.389;-37.663;-42.208
3027770.117;-42.543;-35.912;-47.833;-33.788;-26.599;-23.320;-40.196;-42.506
3027770.125;-32.447;-17.695;-33.751;-13.448;-15.907;-10.580;-27.269;-33.453
3027770.133;-29.244;-17.323;-39.227;-13.001;-27.902;-4.321;-20.452;-26.375
3027770.141;-36.508;-26.152;-45.709;-23.432;-30.398;-15.423;-31.628;-36.247
3027770.149;-29.840;-23.581;-36.582;-8.009;-10.282;-17.397;-31.516;-39.265
3027770.157;-25.481;-15.087;-37.774;-6.706;-17.174;-10.766;-23.060;-33.155
3027770.165;-51.260;-41.425;-57.593;-44.778;-42.766;-32.112;-45.709;-51.893
3027770.173;-47.013;-41.798;-53.234;-35.167;-44.331;-15.944;-28.573;-36.173
3027770.181;-13.411;-4.806;-17.248;-5.253;-13.150;9.090;-0.894;-11.958
3027770.189;-19.744;-4.917;-16.950;-5.290;-2.310;-0.522;-10.468;-19.073
3027770.197;-39.190;-35.688;-39.116;-33.043;-20.936;2.310;-7.562;-16.056
3027770.205;-55.246;-57.742;-57.034;-55.544;-33.416;-7.339;-17.323;-24.289
3027770.200;-63.889;-66.198;-67.391;-68.136;-43.958;-20.191;-30.212;-32.820
3027770.208;-64.373;-55.134;-70.035;-72.643;-42.543;-19.260;-29.281;-30.920
3027770.216;-58.077;-43.064;-62.548;-50.440;-32.447;-18.664;-26.152;-28.275
3027770.224;-53.123;-49.844;-58.152;-55.395;-36.359;-18.999;-25.816;-27.306
3027770.232;-59.009;-55.321;-61.691;-55.060;-39.153;-21.383;-27.791;-29.244
3027770.240;-52.340;-51.819;-56.773;-47.237;-32.224;-7.525;-11.735;-15.236
3027770.248;-41.090;-46.827;-42.096;-42.319;-22.054;6.445;0.782;1.267
3027770.256;-53.495;-55.172;-51.111;-73.314;-29.244;-7.823;-15.683;-11.697
3027770.264;-37.476;-18.552;-39.451;-34.682;-18.217;4.433;-3.204;-2.459
3027770.272;-53.905;-40.196;-60.797;-44.070;-45.411;-14.193;-19.744;-24.177
3027770.280;-49.621;-53.495;-51.223;-63.255;-24.363;-8.047;-13.225;-20.415
3027770.288;-23.209;-26.859;-24.810;-38.818;-0.075;16.950;15.162;3.092
3027770.296;-23.544;-11.213;-28.275;-9.649;-10.207;11.809;12.182;1.416
3027770.304;-33.751;-24.363;-38.929;-24.401;-27.753;2.645;4.396;-6.482
3027770.312;-44.964;-43.921;-43.958;-50.962;-32.187;-5.662;-5.700;-11.995
3027770.320;-17.583;-11.735;-17.844;-37.551;-3.465;18.626;16.168;13.262
3027770.328;-11.064;-8.605;-9.835;-27.791;2.682;15.683;14.640;8.978
3027770.336;12.480;16.801;12.740;-2.310;16.652;38.259;36.657;36.508
3027770.344;-34.645;-35.539;-34.571;-51.409;-28.536;-3.874;-8.345;-1.825
3027770.352;-36.843;-38.743;-31.888;-61.095;-11.921;-14.752;-19.334;-20.377
3027770.360;11.362;21.979;17.360;-8.903;34.645;28.871;23.171;23.916
3027770.368;-14.789;-9.499;-16.242;-31.516;-6.147;16.354;13.597;0.447
3027770.376;-29.877;-58.934;-26.003;-70.706;-25.295;20.564;15.497;6.072
3027770.384;-2.421;9.127;4.359;-40.494;2.570;40.568;36.843;24.252
3027770.397;-20.415;-1.118;-9.947;-37.327;3.502;2.608;-2.421;-11.213
3027770.405;-17.472;-7.898;-7.860;-42.133;-11.548;-3.204;-7.711;-13.039
3027770.413;-15.385;-3.502;-1.006;-58.673;-3.763;0.037;-3.353;-5.700
3027770.421;-43.958;-36.918;-28.089;-78.194;-20.787;-23.879;-28.200;-26.859
3027770.429;-20.824;-16.280;-8.009;-54.464;-7.413;4.582;1.788;-1.751
3027770.437;-7.525;-26.450;4.917;-71.824;-11.399;33.006;31.814;23.544
3027770.445;0.298;-15.385;20.489;-72.904;11.809;41.015;41.761;31.143
3027770.453;-0.261;5.588;12.070;-45.598;21.011;35.986;37.998;24.214
3027770.461;31.963;47.870;38.520;-15.348;42.878;58.636;58.673;47.758
3027770.469;1.714;-24.214;18.664;-59.046;7.339;40.829;42.021;30.585
3027770.477;-6.519;12.666;9.276;-56.103;14.342;4.917;7.302;-6.296
3027770.485;3.092;38.110;16.913;-33.230;1.453;4.917;9.090;-4.917
3027770.493;9.052;26.636;32.596;-35.278;13.895;21.271;24.363;12.331
3027770.501;7.041;19.521;33.304;-53.458;28.014;31.963;34.422;23.767
3027770.509;-13.262;-1.229;1.006;-80.317;5.588;26.338;28.126;19.819
3027770.517;-29.244;-33.900;-27.120;-97.901;-38.520;25.257;25.071;17.472
3027770.525;-15.348;-18.589;-4.992;-91.195;-3.017;33.043;31.441;23.842
3027770.533;-4.210;19.819;0.671;-61.207;7.376;27.902;27.232;19.222
3027770.541;-13.746;10.841;-11.623;-56.624;-26.673;19.968;20.973;13.858
3027770.549;5.625;15.497;18.738;-79.535;34.794;27.008;29.430;21.048
3027770.557;14.603;20.526;21.197;-58.897;55.060;39.116;41.276;32.857
3027770.565;7.115;-9.499;19.930;-73.165;20.564;44.703;48.056;35.316
3027770.573;40.382;69.067;27.306;-44.145;31.739;55.544;57.444;43.921
3027770.581;30.212;81.025;32.857;-23.060;56.401;43.586;43.549;28.275
3027770.592;57.630;100.099;72.345;-14.603;88.960;83.819;82.925;68.098
3027770.600;17.732;30.510;24.736;-72.122;32.149;79.460;76.219;63.702
3027770.608;-27.567;-22.464;-26.971;-141.300;-31.739;54.948;49.584;37.253
3027770.616;-20.750;14.119;-33.490;-92.164;-28.983;49.472;46.231;28.722
3027770.624;-13.746;-26.748;-13.337;-108.816;25.928;72.718;71.637;51.074
3027770.632;2.533;12.182;-4.806;-104.792;35.986;58.115;58.301;38.445
3027770.640;38.370;100.359;0.671;-61.505;64.895;54.054;54.613;32.969
3027770.648;50.180;99.130;14.491;-24.997;67.651;82.515;81.658;59.307
3027770.656;-10.878;32.037;-96.038;-96.038;8.531;48.578;46.417;24.326
3027770.664;2.086;31.367;-141.487;-98.608;0.298;70.743;69.924;46.231
3027770.672;28.722;64.336;-121.258;-75.251;70.594;110.418;114.031;85.719
3027770.680;-4.582;50.813;-204.667;-101.142;9.537;77.188;79.833;51.446
3027770.688;-1.565;52.378;-238.717;-105.165;-28.796;62.473;62.287;41.202
3027770.696;-17.174;34.571;-341.348;-130.013;13.225;61.207;59.567;45.560
3027770.704;6.407;20.787;-477.731;-96.187;43.176;69.626;70.073;55.060
3027770.712;44.517;77.486;-605.024;-97.230;22.314;74.506;74.096;60.350
3027770.720;118.725;124.797;-594.743;-53.048;74.469;79.423;78.008;69.365
3027770.728;147.671;90.040;-616.200;-63.628;64.410;85.756;86.725;68.098
3027770.736;173.263;74.357;-629.649;-98.087;34.384;109.673;107.549;89.481
3027770.744;197.217;95.256;-594.892;-85.495;45.188;112.019;109.598;88.401
3027770.752;166.297;62.808;-631.511;-107.810;9.015;68.434;68.620;41.202
3027770.760;193.939;134.930;-625.737;-34.012;16.876;90.785;93.207;64.038
3027770.768;209.138;140.741;-621.825;-41.239;46.976;118.166;122.264;92.871
3027770.776;192.523;130.646;-717.752;-64.410;64.671;112.690;116.527;87.880
3027770.771;183.769;120.141;-784.472;-85.682;30.026;101.067;102.781;73.835
3027770.779;165.626;88.774;-824.518;-99.763;8.978;108.480;105.128;86.948
3027770.787;176.840;108.257;-816.882;-76.965;26.412;110.045;101.142;99.540
3027770.795;195.242;163.913;-828.318;-55.172;18.887;114.329;110.194;91.605
3027770.803;159.591;116.602;-843.815;-81.845;12.703;89.370;90.376;53.979
3027770.811;158.139;119.545;-828.616;-77.821;8.196;97.491;95.479;65.155
3027770.819;131.018;84.937;-844.114;-109.449;-22.054;89.370;81.658;62.622
3027770.827;128.560;69.775;-806.563;-154.115;-27.753;90.115;83.148;62.138
3027770.835;160.262;138.208;-768.378;-56.662;17.025;102.445;97.379;77.412
3027770.843;152.700;148.416;-777.952;-61.505;-1.937;94.883;92.983;67.279
3027770.851;148.825;135.601;-762.269;-90.972;-11.921;89.891;87.321;61.058
3027770.859;134.595;111.833;-773.072;-107.773;-33.863;103.079;98.683;78.306
3027770.867;109.188;87.284;-785.924;-157.803;-60.350;120.662;115.447;95.777
3027770.875;130.795;143.871;-748.187;-89.072;-44.629;117.943;113.808;93.877
3027770.883;101.104;119.321;-770.018;-98.757;-62.399;76.406;72.606;49.062
3027770.891;93.132;111.908;-784.136;-124.648;-90.748;73.388;68.806;45.076
3027770.899;117.570;146.814;-751.391;-110.343;-71.526;108.033;103.563;80.504
3027770.907;132.732;152.476;-737.384;-94.362;-49.099;131.130;128.672;103.191
3027770.915;100.434;133.999;-773.370;-128.895;-77.002;105.202;102.781;75.921
3027770.923;84.564;119.321;-763.647;-140.443;-98.832;93.244;86.203;66.683
3027770.931;119.433;164.434;-699.982;-104.122;-40.717;121.221;113.621;98.906
3027770.939;85.570;155.792;-745.952;-136.718;-91.791;85.719;77.598;60.536
3027770.947;74.655;145.137;-749.603;-140.630;-107.177;82.813;74.208;53.905
3027770.955;73.686;131.875;-742.041;-143.945;-113.249;93.058;86.538;64.224
3027770.967;69.402;135.042;-744.127;-142.306;-119.358;91.456;85.384;62.957
3027770.975;63.926;151.508;-732.169;-133.738;-109.933;86.278;79.349;58.003
3027770.983;60.387;141.934;-724.159;-141.934;-114.478;85.756;79.870;56.811
3027770.991;83.670;163.801;-704.452;-119.731;-102.259;99.912;95.218;72.829
3027770.999;82.925;159.964;-694.729;-124.350;-95.367;98.608;96.671;71.451
3027771.007;68.061;145.882;-698.492;-153.631;-115.745;89.519;88.327;62.510
3027771.015;79.758;169.612;-695.735;-129.193;-119.545;98.236;96.671;77.449
3027771.023;61.914;164.248;-717.677;-137.873;-128.336;74.506;72.084;55.730
3027771.031;59.009;164.323;-708.513;-137.277;-119.209;68.955;66.273;47.386
3027771.039;48.578;140.779;-720.285;-150.390;-131.503;63.702;59.493;44.815
3027771.047;49.695;140.183;-718.683;-152.849;-134.930;70.184;65.714;49.695
3027771.055;61.169;162.646;-704.266;-130.348;-122.227;86.986;81.994;61.244
3027771.063;24.140;121.221;-760.555;-161.044;-164.770;68.806;63.181;41.500
3027771.071;19.856;105.686;-745.133;-177.398;-181.310;64.634;58.971;38.184
3027771.079;35.949;150.278;-722.967;-160.821;-149.682;61.095;55.060;39.376
3027771.087;45.970;165.254;-717.007;-143.163;-141.971;72.569;66.049;50.291
3027771.095;33.639;134.632;-723.042;-161.566;-145.994;72.867;64.597;51.409
3027771.103;23.134;120.699;-715.405;-166.781;-148.080;66.906;57.295;46.343
3027771.111;45.300;155.941;-688.918;-140.928;-132.732;70.669;62.399;49.770
3027771.119;38.706;139.475;-690.110;-141.114;-144.541;68.806;61.095;47.199
3027771.127;44.294;136.383;-679.828;-142.083;-131.056;73.165;64.187;52.340
3027771.135;45.896;154.786;-671.484;-134.595;-116.937;68.918;57.481;48.988
3027771.143;32.261;130.422;-676.587;-144.467;-141.002;54.762;39.041;37.029
3027771.151;34.496;137.202;-671.297;-148.006;-142.418;58.152;41.723;42.468
3027771.162;30.957;141.487;-669.584;-152.141;-146.069;60.610;45.151;44.517
3027771.170;13.672;116.676;-674.836;-177.249;-168.644;52.303;38.557;35.018
3027771.178;10.245;119.917;-671.595;-171.885;-140.779;50.105;36.843;30.398
3027771.186;26.599;135.228;-659.339;-150.241;-138.395;50.031;36.173;30.100
3027771.194;51.558;148.267;-636.950;-129.119;-127.517;53.123;40.494;32.447
3027771.202;67.316;149.831;-621.565;-123.270;-112.019;60.014;47.050;39.600
3027771.210;71.265;149.272;-609.569;-112.057;-109.524;59.791;47.050;40.978
3027771.218;116.117;210.591;-573.173;-53.942;-80.653;84.899;73.314;68.359
3027771.226;96.150;198.744;-599.027;-53.272;-93.952;72.941;62.920;61.244
3027771.234;47.609;128.672;-652.187;-134.520;-137.836;37.812;32.224;22.613
3027771.242;60.461;156.574;-616.610;-113.621;-114.515;35.688;30.100;21.197
3027771.250;61.691;162.199;-616.126;-87.842;-107.065;36.806;31.628;21.011
3027771.258;61.840;143.237;-623.725;-101.142;-113.845;51.372;46.901;36.173
3027771.266;23.507;101.514;-654.086;-151.917;-159.480;20.117;16.280;7.749
3027771.274;27.083;110.045;-645.444;-143.610;-153.407;16.876;15.162;5.327
3027771.282;24.065;103.824;-652.336;-134.185;-160.895;14.193;13.001;4.396
3027771.290;39.302;130.869;-628.568;-99.428;-120.513;28.163;30.026;18.701
3027771.298;41.462;127.144;-617.579;-101.812;-129.119;30.547;35.800;21.085
3027771.306;44.852;114.627;-598.356;-118.315;-102.296;37.514;41.947;32.261
3027771.314;32.559;106.990;-611.655;-130.311;-126.809;32.410;35.726;27.008
3027771.322;19.521;91.642;-640.936;-127.144;-165.626;20.750;25.555;15.572
3027771.330;17.360;86.240;-635.237;-139.140;-154.860;19.632;25.034;13.597
3027771.338;59.344;147.261;-570.081;-84.341;-95.926;33.714;41.835;28.461
3027771.346;64.969;139.251;-558.160;-85.123;-96.187;41.053;51.409;37.998
3027771.357;40.270;108.480;-587.516;-121.780;-128.895;14.417;24.401;10.803
3027771.365;21.979;83.186;-598.617;-138.655;-149.757;1.565;10.282;1.788
3027771.373;9.760;64.783;-600.740;-160.001;-158.101;-3.614;3.874;-2.570
3027771.381;21.346;102.744;-574.663;-120.439;-130.087;1.043;8.568;0.633
3027771.389;36.620;105.351;-557.229;-99.912;-100.173;22.054;29.132;22.091
3027771.397;46.492;114.068;-551.306;-102.371;-112.541;33.230;41.872;32.037
3027771.405;36.992;100.881;-560.172;-106.804;-124.946;28.498;38.631;26.971
3027771.413;13.448;56.513;-559.464;-144.057;-133.775;16.503;24.550;14.156
3027771.421;16.019;81.584;-561.401;-138.320;-151.917;-12.219;-2.272;-13.858
3027771.429;23.581;90.636;-546.351;-119.470;-143.014;-10.468;-0.931;-8.121
3027771.437;48.317;109.226;-510.998;-109.076;-99.950;19.483;27.269;20.638
3027771.445;47.833;111.274;-510.626;-115.819;-112.168;14.938;21.048;14.491
3027771.453;33.453;80.690;-511.073;-131.764;-109.188;15.944;20.899;16.913
3027771.461;35.986;82.701;-506.155;-129.975;-114.478;16.913;24.289;15.460
3027771.469;69.067;120.699;-462.644;-90.934;-75.288;46.231;56.662;42.878
3027771.477;88.252;130.199;-447.221;-57.332;-67.018;65.342;72.643;64.075
3027771.485;34.980;95.442;-501.499;-105.463;-114.366;10.468;14.491;6.966
3027771.493;28.871;93.952;-484.660;-129.156;-104.904;5.476;7.749;0.447
3027771.501;0.484;58.338;-500.008;-148.751;-121.370;-15.236;-12.629;-23.209
3027771.509;-11.064;24.587;-513.680;-169.016;-140.518;-0.969;1.863;-9.686
