Timestamp,AFz,AF3,AF4,AF7,AF8,Pz,P3,P4,2024-05-16 12:00:54.439,fs=125
5446073.777;-129.081;-134.185;-127.926;-154.115;-75.102;1.229;7.339;-9.723
5446073.785;-137.240;-140.965;-135.899;-161.305;-84.229;-8.233;-3.688;-9.015
5446073.793;-136.867;-140.257;-135.377;-158.250;-82.254;-10.245;-6.221;-7.078
5446073.801;-135.414;-138.283;-134.967;-152.476;-79.051;-11.213;-8.605;-7.115
5446073.809;-129.230;-133.961;-131.130;-145.622;-74.506;-7.451;-5.662;-4.768
5446073.817;-125.691;-130.311;-127.852;-138.320;-69.663;-9.425;-6.072;-7.115
5446073.825;-126.958;-132.285;-126.399;-136.569;-63.665;-6.631;-1.527;-6.519
5446073.833;-125.282;-131.167;-125.021;-133.701;-60.312;-5.215;0.671;-10.915
5446073.841;-124.946;-130.609;-126.325;-133.291;-60.499;-11.735;-6.668;-19.558
5446073.849;-135.638;-140.034;-136.495;-141.300;-70.296;-24.587;-20.899;-31.963
5446073.857;-134.110;-136.755;-137.277;-138.171;-73.165;-27.679;-24.289;-33.081
5446073.865;-142.381;-146.218;-144.094;-147.969;-80.839;-36.545;-32.559;-37.029
5446073.873;-149.533;-153.556;-150.502;-152.402;-87.768;-37.253;-34.422;-34.086
5446073.881;-141.673;-146.665;-141.226;-146.702;-79.609;-28.647;-28.498;-26.263
5446073.889;-142.194;-146.963;-140.592;-148.416;-81.621;-24.512;-26.673;-24.363
5446073.897;-112.765;-117.011;-111.982;-118.613;-57.779;-21.160;-21.569;-24.997
5446073.905;-92.983;-96.336;-94.399;-97.230;-47.944;-15.795;-17.211;-23.060
5446073.913;-84.303;-88.662;-86.389;-94.734;-45.002;-21.383;-24.289;-30.026
5446073.921;-76.145;-79.386;-78.604;-84.899;-42.133;-29.951;-32.894;-38.147
5446073.929;-61.728;-62.101;-66.720;-67.763;-32.708;-26.375;-27.120;-36.247
5446073.937;-58.338;-57.928;-63.628;-64.373;-28.387;-23.879;-24.661;-28.275
5446073.945;-71.414;-71.600;-75.772;-76.517;-37.849;-27.604;-29.877;-21.905
5446073.953;-82.254;-82.590;-85.458;-85.421;-44.964;-27.455;-29.057;-19.670
5446073.961;-84.266;-84.788;-85.533;-86.986;-43.996;-20.787;-23.320;-16.652
5446073.986;-85.309;-84.713;-85.831;-87.060;-44.294;-20.750;-24.587;-22.203
5446073.994;-84.154;-84.639;-84.974;-86.352;-42.059;-20.899;-22.948;-29.430
5446074.002;-76.741;-76.368;-78.492;-76.629;-35.502;-15.236;-20.415;-26.114
5446074.010;-75.400;-75.847;-75.698;-75.288;-33.416;-5.253;-12.890;-14.193
5446074.018;-100.397;-101.663;-100.024;-99.614;-54.762;-20.862;-30.212;-28.759
5446074.026;-114.553;-115.335;-112.727;-112.094;-65.006;-32.447;-40.047;-43.176
5446074.034;-126.623;-126.995;-124.797;-122.003;-78.343;-37.178;-39.525;-42.282
5446074.042;-131.391;-130.981;-129.715;-125.393;-82.739;-40.419;-35.688;-40.457
5446074.050;-129.268;-128.672;-127.107;-121.519;-81.845;-34.384;-26.599;-33.081
5446074.058;-126.101;-126.287;-123.978;-118.166;-78.641;-31.292;-24.550;-32.261
5446074.066;-112.876;-113.212;-112.616;-105.910;-66.198;-24.177;-18.515;-26.710
5446074.074;-106.767;-108.853;-107.326;-102.036;-60.201;-20.862;-15.274;-23.805
5446074.082;-113.733;-116.676;-115.000;-109.710;-68.434;-22.277;-18.030;-28.238
5446074.090;-116.602;-118.315;-118.390;-110.902;-71.749;-22.054;-17.993;-29.691
5446074.098;-114.180;-114.739;-114.366;-106.320;-66.347;-24.922;-19.856;-29.318
5446074.106;-125.431;-126.846;-125.244;-118.464;-75.884;-39.227;-35.465;-40.345
5446074.114;-119.135;-121.109;-121.593;-110.678;-73.351;-35.316;-33.230;-36.918
5446074.122;-113.994;-114.329;-116.192;-103.489;-69.030;-28.163;-28.014;-28.759
5446074.130;-117.049;-118.539;-119.172;-107.363;-69.551;-25.332;-26.003;-24.438
5446074.138;-122.339;-123.605;-126.325;-110.269;-76.927;-28.536;-29.802;-27.157
5446074.146;-124.015;-126.883;-126.846;-114.068;-76.517;-35.167;-37.737;-33.677
5446074.154;-110.008;-112.653;-114.851;-100.322;-66.347;-34.645;-37.141;-33.528
5446074.162;-100.173;-102.222;-106.208;-92.052;-58.785;-35.129;-37.290;-35.614
5446074.170;-87.731;-89.705;-93.803;-80.727;-47.646;-25.630;-28.163;-27.418
5446074.227;-87.470;-88.066;-95.628;-76.704;-52.080;-22.985;-24.922;-24.997
5446074.235;-73.463;-75.549;-82.552;-64.820;-40.233;-23.060;-22.836;-22.091
5446074.243;-68.471;-70.967;-78.268;-60.610;-37.886;-30.883;-28.014;-29.318
5446074.251;-73.425;-75.251;-83.037;-65.044;-42.953;-31.106;-28.349;-32.447
5446074.259;-77.039;-78.864;-87.395;-66.608;-47.162;-25.146;-23.246;-27.493
5446074.267;-70.855;-72.680;-82.366;-55.097;-42.766;-19.707;-17.509;-22.464
5446074.275;-78.082;-78.790;-91.083;-57.332;-51.260;-30.696;-27.828;-33.863
5446074.283;-92.052;-92.201;-106.581;-68.434;-62.175;-41.574;-37.551;-39.972
5446074.291;-92.983;-90.227;-108.518;-66.347;-63.255;-42.692;-38.333;-36.918
5446074.299;-85.272;-81.770;-102.594;-52.750;-56.624;-34.645;-31.255;-25.779
5446074.307;-80.802;-80.094;-98.459;-51.744;-51.148;-28.536;-26.450;-22.091
5446074.315;-95.256;-94.734;-115.037;-65.677;-67.987;-36.061;-32.932;-30.249
5446074.323;-93.207;-92.424;-112.988;-61.542;-61.952;-35.353;-29.579;-29.989
5446074.331;-93.281;-90.413;-113.398;-58.822;-61.579;-36.098;-28.983;-32.224
5446074.339;-93.393;-89.072;-114.627;-56.438;-60.648;-33.714;-26.599;-28.946
5446074.347;-87.619;-84.676;-110.529;-50.925;-55.544;-33.118;-26.412;-27.418
5446074.355;-87.880;-86.986;-112.578;-54.017;-54.836;-35.353;-29.728;-29.020
5446074.363;-88.550;-87.433;-115.260;-56.103;-56.438;-38.669;-34.906;-32.373
5446074.371;-84.341;-85.458;-109.226;-55.507;-48.764;-34.682;-31.665;-27.828
5446074.379;-84.005;-84.490;-109.971;-51.148;-47.907;-31.888;-28.871;-25.183
5446074.387;-85.123;-84.490;-113.957;-48.205;-51.260;-33.304;-28.610;-28.126
5446074.395;-85.123;-84.862;-113.882;-47.758;-49.956;-34.645;-29.020;-30.212
5446074.403;-84.862;-83.447;-114.553;-47.535;-48.243;-38.072;-31.255;-32.894
5446074.411;-76.219;-75.549;-108.592;-39.227;-40.494;-35.129;-27.865;-30.473
5446074.406;-85.793;-85.086;-119.545;-48.690;-49.286;-32.522;-27.455;-30.622
5446074.414;-94.995;-92.573;-132.956;-51.856;-61.281;-27.120;-23.916;-24.550
5446074.422;-101.738;-98.459;-142.008;-56.475;-68.583;-28.610;-22.799;-25.220
5446074.430;-97.118;-96.597;-134.781;-54.985;-57.071;-26.561;-18.030;-21.383
5446074.438;-100.397;-101.514;-137.873;-57.481;-56.997;-36.024;-26.636;-28.312
5446074.446;-104.681;-105.463;-143.424;-60.499;-60.983;-42.506;-31.404;-36.396
5446074.454;-99.540;-99.242;-141.487;-51.521;-59.605;-40.457;-29.691;-35.316
5446074.462;-90.003;-86.129;-136.122;-35.614;-54.613;-36.098;-23.991;-32.708
5446074.470;-92.536;-88.960;-139.363;-35.316;-55.917;-41.723;-28.759;-36.992
5446074.478;-103.377;-102.967;-148.118;-48.392;-60.201;-46.045;-35.316;-37.774
5446074.486;-107.996;-108.369;-151.731;-53.868;-58.152;-43.735;-36.918;-30.547
5446074.494;-111.870;-110.343;-156.015;-54.054;-62.361;-41.723;-39.153;-29.132
5446074.502;-115.484;-113.696;-159.480;-58.375;-64.187;-44.480;-43.213;-34.310
5446074.510;-116.043;-114.404;-160.597;-60.014;-64.038;-49.435;-47.907;-39.786
5446074.518;-107.549;-103.861;-153.072;-46.566;-56.103;-41.761;-40.531;-33.453
5446074.526;-99.093;-96.001;-145.659;-36.024;-46.231;-37.812;-35.837;-31.106
5446074.534;-101.142;-100.434;-149.570;-39.339;-48.615;-43.102;-39.488;-36.769
5446074.542;-107.884;-109.300;-155.456;-47.758;-52.899;-48.466;-43.549;-41.462
5446074.550;-100.881;-100.210;-149.310;-36.694;-44.405;-42.915;-36.024;-35.278
5446074.558;-106.767;-105.090;-155.754;-39.488;-47.050;-47.386;-41.053;-40.308
5446074.566;-121.258;-120.923;-171.848;-55.470;-60.387;-52.452;-47.609;-45.560
5446074.574;-116.378;-117.347;-168.234;-50.142;-51.595;-44.890;-42.096;-37.514
5446074.582;-109.561;-108.220;-164.323;-36.731;-43.698;-40.233;-37.663;-34.682
5446074.590;-110.492;-106.283;-169.352;-32.485;-47.423;-44.405;-40.382;-40.829
5446074.605;-106.096;-101.738;-166.520;-25.854;-41.611;-42.319;-38.408;-39.786
5446074.613;-110.529;-105.798;-171.550;-26.748;-43.288;-42.990;-39.153;-39.265
5446074.621;-115.037;-110.082;-177.212;-29.579;-47.050;-46.603;-43.027;-40.457
5446074.629;-118.203;-111.461;-180.267;-28.349;-50.478;-43.474;-40.010;-42.543
5446074.637;-110.976;-105.947;-168.644;-23.767;-36.247;-41.611;-38.333;-39.376
5446074.645;-103.004;-97.863;-160.113;-16.689;-26.971;-43.362;-42.692;-36.843
5446074.653;-113.025;-109.151;-167.899;-27.642;-36.880;-50.031;-51.111;-44.517
5446074.661;-116.788;-115.074;-168.644;-34.682;-38.296;-48.354;-52.489;-43.586
5446074.669;-122.897;-121.854;-171.624;-39.935;-40.457;-47.721;-51.334;-40.010
5446074.677;-123.233;-123.009;-170.320;-37.961;-39.823;-46.305;-47.572;-36.135
5446074.685;-134.706;-133.477;-181.012;-44.256;-51.297;-56.513;-58.599;-44.443
5446074.693;-138.097;-138.134;-182.614;-49.546;-52.676;-62.026;-62.734;-50.552
5446074.701;-128.821;-124.872;-171.959;-36.918;-43.698;-54.017;-55.321;-43.437
5446074.709;-120.699;-115.186;-162.870;-25.071;-36.396;-41.164;-42.915;-36.992
5446074.717;-122.786;-119.135;-163.652;-29.840;-39.451;-41.388;-45.188;-40.568
5446074.725;-128.150;-125.468;-168.271;-35.726;-45.560;-46.566;-50.999;-43.884
5446074.733;-121.556;-117.272;-161.529;-24.103;-40.121;-43.623;-47.721;-35.167
5446074.741;-120.215;-117.049;-157.617;-23.805;-36.769;-46.529;-51.633;-33.751
5446074.749;-121.295;-117.905;-157.878;-22.613;-38.929;-50.776;-54.799;-38.520
5446074.757;-114.180;-109.896;-149.719;-13.188;-30.920;-43.251;-46.454;-30.212
5446074.765;-116.676;-110.827;-152.290;-14.156;-36.880;-52.042;-52.527;-37.774
5446074.773;-118.390;-112.057;-155.345;-14.491;-43.139;-61.691;-58.822;-50.291
5446074.781;-113.472;-107.847;-148.639;-10.356;-39.898;-59.493;-54.799;-51.484
5446074.789;-109.859;-106.022;-141.934;-7.190;-34.273;-59.418;-53.421;-51.334
5446074.797;-111.535;-109.561;-139.549;-11.325;-31.292;-63.144;-57.854;-52.042
5446074.805;-112.914;-111.423;-138.916;-10.841;-31.814;-63.553;-62.212;-48.950
5446074.813;-117.235;-115.186;-141.747;-13.225;-35.278;-66.087;-65.565;-54.240
5446074.821;-111.833;-109.673;-135.601;-8.158;-29.802;-59.009;-58.301;-47.237
5446074.829;-107.475;-104.904;-131.279;-1.118;-27.344;-54.836;-54.650;-47.460
5446074.837;-110.604;-107.698;-133.775;-4.694;-29.504;-58.264;-55.432;-51.558
5446074.845;-110.939;-109.561;-132.062;-4.768;-27.791;-56.699;-51.521;-49.137
5446074.853;-104.047;-104.308;-125.431;1.267;-23.469;-52.117;-46.492;-45.188
5446074.861;-95.181;-95.032;-118.203;14.305;-17.807;-43.549;-38.743;-37.923
5446074.869;-94.026;-91.977;-117.049;19.483;-15.385;-41.910;-38.929;-33.341
5446074.877;-105.016;-104.271;-126.511;6.370;-23.432;-50.999;-51.931;-42.208
5446074.885;-108.555;-109.188;-127.815;2.496;-27.455;-52.787;-52.527;-46.641
5446074.893;-99.055;-97.565;-119.843;14.454;-23.209;-43.102;-40.121;-40.680
5446074.901;-90.897;-86.948;-112.802;27.046;-17.807;-33.006;-32.037;-29.877
5446074.909;-98.199;-92.089;-119.135;22.464;-23.507;-28.983;-28.536;-24.624
5446074.917;-94.287;-93.579;-109.896;13.597;-10.543;-39.041;-38.370;-34.161
5446074.925;-90.376;-93.542;-101.253;7.115;-2.123;-38.594;-37.178;-32.187
5446074.933;-84.899;-90.823;-91.642;4.023;8.494;-42.319;-40.680;-36.769
5446074.941;-81.249;-91.679;-82.962;-4.545;20.526;-49.807;-47.795;-43.027
5446074.949;-79.274;-91.866;-79.572;-8.121;25.779;-49.211;-49.099;-42.096
5446074.957;-72.978;-84.303;-73.947;0.186;29.951;-42.953;-44.219;-36.247
5446074.965;-75.474;-87.917;-75.661;-1.416;26.412;-47.833;-47.870;-46.007
5446074.973;-83.335;-95.926;-83.372;-8.158;18.477;-49.546;-46.827;-44.629
5446074.981;-84.303;-94.287;-85.607;-4.657;15.348;-48.205;-45.411;-40.457
5446075.037;-85.197;-97.714;-86.054;-8.047;15.236;-53.197;-49.993;-46.864
5446075.045;-92.201;-106.320;-91.456;-16.429;10.505;-57.779;-56.252;-50.887
5446075.053;-94.213;-106.879;-92.797;-17.881;9.798;-51.148;-51.670;-46.864
5446075.061;-87.172;-96.262;-87.880;-5.960;15.497;-32.932;-36.210;-33.751
5446075.069;-86.948;-95.256;-88.625;-4.023;13.448;-23.134;-30.994;-28.461
5446075.077;-84.192;-94.399;-85.272;-4.508;16.913;-18.440;-28.722;-21.718
5446075.085;-85.831;-98.683;-85.682;-10.766;14.640;-25.742;-32.000;-28.238
5446075.093;-80.504;-93.617;-80.280;-4.247;19.819;-26.971;-25.593;-28.908
5446075.101;-82.739;-93.840;-83.372;-2.794;15.497;-37.663;-29.802;-36.471
5446075.109;-83.335;-93.021;-85.235;0.708;12.033;-46.268;-38.482;-37.998
5446075.117;-83.484;-91.791;-86.427;3.539;11.139;-49.695;-42.990;-38.520
5446075.125;-83.670;-90.450;-87.880;7.302;10.468;-52.191;-43.884;-43.660
5446075.133;-78.827;-86.948;-82.217;10.058;16.131;-44.405;-37.216;-38.259
5446075.141;-76.555;-85.607;-79.684;9.499;18.850;-39.488;-35.018;-31.777
5446075.149;-80.131;-88.699;-83.782;5.029;13.821;-44.182;-40.494;-38.520
5446075.157;-82.292;-89.556;-87.433;5.960;10.096;-47.460;-43.921;-39.525
5446075.165;-83.670;-92.611;-89.817;3.651;7.600;-47.870;-44.815;-35.129
5446075.173;-84.639;-93.728;-91.046;0.186;6.668;-46.715;-42.170;-35.726
5446075.181;-81.845;-89.258;-89.258;5.774;8.717;-38.967;-34.943;-30.622
5446075.189;-84.527;-90.301;-93.915;8.233;2.272;-36.173;-31.441;-32.559
5446075.197;-78.045;-83.260;-90.115;16.689;2.235;-28.908;-23.097;-27.604
5446075.205;-84.266;-90.562;-97.044;5.215;-4.284;-39.563;-34.608;-36.433
5446075.213;-84.229;-90.674;-97.938;5.700;-4.731;-39.861;-40.382;-40.010
5446075.221;-77.672;-83.223;-92.909;15.348;1.751;-29.318;-31.404;-32.000
5446075.247;-78.492;-83.111;-93.319;17.136;0.037;-21.942;-22.650;-22.091
5446075.255;-73.984;-83.409;-83.260;12.442;14.976;-29.728;-29.169;-24.736
5446075.263;-69.141;-80.690;-74.096;6.482;23.171;-41.276;-41.649;-34.980
5446075.271;-54.501;-66.683;-56.475;11.362;43.102;-39.861;-42.357;-33.975
5446075.279;-44.480;-58.524;-44.890;10.282;59.493;-38.333;-40.978;-33.453
5446075.287;-33.490;-50.142;-31.814;10.617;71.339;-32.187;-33.639;-28.722
5446075.295;-25.965;-43.400;-24.475;16.466;75.102;-31.069;-31.330;-29.840
5446075.303;-23.171;-42.692;-25.742;14.864;73.686;-31.218;-32.149;-26.152
5446075.311;-31.069;-49.919;-27.679;9.649;74.990;-34.161;-34.384;-28.200
5446075.319;-38.035;-56.364;-34.422;4.768;68.732;-32.969;-34.198;-27.157
5446075.327;-40.829;-58.711;-39.712;5.253;65.304;-35.390;-42.133;-24.252
5446075.335;-39.302;-55.470;-42.021;9.276;64.261;-31.218;-38.035;-18.254
5446075.343;-48.801;-64.261;-53.793;-0.931;53.644;-33.528;-41.388;-21.979
5446075.351;-59.642;-76.294;-65.714;-11.623;42.990;-34.012;-44.219;-30.026
5446075.359;-58.226;-76.331;-65.602;-10.505;44.554;-25.332;-39.339;-24.438
5446075.367;-45.076;-61.840;-54.762;6.109;57.258;-5.029;-21.271;-9.388
5446075.375;-48.764;-64.671;-56.848;5.178;54.874;1.043;-15.162;-8.866
5446075.383;-55.134;-71.824;-64.857;-1.751;48.280;-5.886;-21.048;-14.566
5446075.391;-54.203;-70.035;-65.789;-0.633;49.993;-7.004;-18.626;-10.617
5446075.399;-59.605;-75.549;-71.898;-5.960;47.237;-15.385;-19.819;-13.970
5446075.407;-68.583;-84.415;-81.174;-12.591;37.439;-23.544;-25.295;-16.429
5446075.415;-71.637;-89.332;-86.054;-16.727;34.720;-27.604;-29.393;-20.191
5446075.423;-63.628;-80.541;-77.672;-8.941;42.729;-25.705;-30.957;-17.211
5446075.431;-65.900;-78.864;-80.205;-7.339;39.227;-28.200;-34.943;-22.762
5446075.427;-68.285;-83.484;-86.054;-12.703;34.161;-30.324;-37.141;-25.630
5446075.435;-55.842;-73.649;-63.144;-5.811;45.635;-23.693;-29.840;-23.171
5446075.443;-54.166;-67.875;-62.175;0.484;44.666;-18.626;-27.232;-22.873
5446075.451;-55.097;-69.961;-60.722;-1.788;46.939;-18.366;-27.344;-20.675
5446075.459;-47.199;-65.826;-46.045;-1.527;60.759;-18.962;-31.218;-18.142
5446075.467;-51.856;-70.110;-48.615;-7.935;56.028;-16.801;-31.777;-15.870
5446075.475;-46.790;-62.957;-44.480;1.378;56.960;-11.139;-25.816;-14.491
5446075.483;-43.176;-57.891;-40.904;6.370;59.456;-9.350;-21.495;-16.242
5446075.491;-41.947;-57.183;-37.700;7.935;61.840;-12.815;-23.358;-19.073
5446075.499;-42.692;-61.095;-36.769;4.321;62.883;-19.781;-30.585;-23.097
5446075.507;-39.972;-57.034;-32.447;4.061;61.318;-20.452;-32.261;-18.142
5446075.515;-52.303;-70.482;-40.159;-8.531;48.466;-28.759;-41.649;-23.842
5446075.523;-55.172;-72.159;-42.655;-8.233;43.772;-24.848;-35.651;-22.277
5446075.531;-53.570;-71.302;-41.910;-7.674;46.529;-20.303;-31.330;-17.621
5446075.539;-45.188;-65.491;-28.908;-3.949;55.768;-15.199;-27.679;-13.821
5446075.547;-42.915;-64.000;-25.257;-3.725;56.215;-7.302;-19.930;-7.264
5446075.555;-51.558;-69.998;-36.322;-7.302;44.443;-9.499;-22.613;-11.995
5446075.563;-60.722;-77.784;-47.386;-15.199;33.118;-14.119;-27.046;-13.784
5446075.571;-55.321;-68.471;-38.780;-8.568;35.912;-13.933;-24.512;-8.866
5446075.579;-48.354;-60.275;-28.946;6.258;42.543;-13.001;-22.762;-7.525
5446075.587;-44.182;-55.134;-26.226;11.399;45.039;-10.021;-20.750;-8.158
5446075.595;-44.368;-56.438;-26.748;6.519;45.560;-8.717;-18.552;-8.419
5446075.603;-43.213;-55.134;-23.097;7.488;45.002;-11.288;-21.830;-10.952
5446075.611;-38.818;-49.993;-20.452;12.815;45.784;-11.586;-20.787;-10.841
5446075.636;-45.188;-57.034;-28.685;4.917;38.855;-16.801;-23.171;-16.093
5446075.644;-40.196;-53.272;-22.426;5.029;43.809;-12.666;-17.285;-8.531
5446075.652;-32.298;-46.864;-12.852;9.723;50.254;-6.594;-12.554;-1.788
5446075.660;-40.941;-53.458;-22.948;7.600;40.233;-18.068;-24.810;-12.517
5446075.668;-47.274;-61.914;-26.636;-0.224;34.869;-24.326;-30.026;-20.266
5446075.676;-45.747;-64.522;-25.667;-0.633;36.657;-22.352;-28.498;-17.434
5446075.684;-41.500;-55.432;-23.134;8.717;35.949;-16.540;-22.464;-13.597
5446075.692;-35.986;-46.827;-13.299;13.262;45.411;-14.305;-21.011;-10.952
5446075.700;-39.004;-50.850;-15.385;8.158;43.623;-16.727;-24.401;-12.405
5446075.708;-33.379;-45.821;-10.654;15.162;47.311;-14.491;-21.532;-11.809
5446075.716;-37.104;-49.323;-16.876;11.064;40.084;-23.283;-28.834;-18.217
5446075.724;-40.419;-51.446;-20.079;4.247;33.081;-29.430;-34.682;-21.085
5446075.732;-41.351;-52.303;-17.732;3.874;32.745;-32.783;-39.041;-25.779
5446075.740;-39.972;-51.372;-14.119;5.141;37.178;-27.493;-35.018;-22.314
5446075.748;-35.018;-46.752;-9.649;9.499;40.345;-22.240;-29.802;-17.770
5446075.756;-39.004;-49.286;-12.405;9.201;32.820;-26.599;-32.298;-23.507
5446075.764;-46.529;-55.544;-22.016;0.782;24.363;-32.634;-36.955;-29.318
5446075.772;-44.703;-52.899;-21.197;4.321;24.214;-27.083;-29.951;-21.085
5446075.780;-39.376;-46.529;-16.280;9.909;28.014;-25.295;-26.114;-17.472
5446075.788;-42.170;-52.080;-17.881;0.708;23.507;-28.759;-29.877;-23.954
5446075.796;-46.641;-56.662;-22.501;-0.112;19.185;-28.834;-32.410;-23.842
5446075.804;-37.923;-45.672;-14.156;8.754;28.238;-22.948;-29.132;-20.526
5446075.812;-35.726;-41.872;-11.325;10.878;30.547;-22.277;-29.691;-19.409
5446075.820;-30.771;-40.494;-8.382;12.703;29.951;-24.885;-29.877;-19.073
5446075.848;-35.726;-44.815;-10.915;7.898;24.587;-30.696;-33.490;-23.991
5446075.856;-39.935;-46.268;-14.678;6.557;22.873;-30.771;-33.341;-21.979
5446075.864;-40.717;-49.733;-17.807;0.820;23.209;-31.032;-33.416;-19.819
5446075.872;-32.000;-40.792;-8.382;11.772;31.330;-27.306;-29.504;-15.572
5446075.880;-28.759;-37.104;-6.557;15.721;31.814;-27.120;-29.355;-15.497
5446075.888;-32.224;-43.921;-10.654;2.533;27.418;-33.453;-37.886;-20.266
5446075.896;-28.983;-40.643;-6.780;4.098;29.355;-34.533;-40.121;-21.607
5446075.904;-30.920;-40.643;-8.121;6.407;27.344;-37.141;-41.947;-25.928
5446075.912;-32.857;-42.468;-11.921;6.482;25.183;-32.224;-34.943;-22.352
5446075.920;-29.020;-38.408;-8.754;9.462;27.828;-27.120;-28.946;-17.025
5446075.928;-32.783;-39.116;-13.262;7.972;21.271;-32.000;-34.682;-24.177
5446075.936;-33.341;-38.296;-16.168;9.313;17.919;-31.404;-33.230;-22.762
5446075.944;-23.618;-29.281;-8.307;18.999;24.997;-27.865;-30.026;-16.615
5446075.952;-24.512;-28.647;-11.362;20.154;19.632;-30.622;-33.602;-19.930
5446075.960;-26.077;-30.138;-11.623;18.217;20.191;-28.796;-32.000;-17.807
5446075.968;-26.524;-32.410;-10.133;14.566;22.985;-27.008;-32.820;-15.274
5446075.976;-26.785;-30.398;-11.995;16.168;21.681;-25.742;-32.447;-16.540
5446075.984;-34.422;-36.322;-23.656;10.878;9.611;-33.826;-38.296;-26.412
5446075.992;-29.951;-32.708;-19.968;14.231;14.342;-31.367;-34.347;-23.879
5446076.000;-34.906;-37.737;-26.450;9.649;9.276;-34.943;-38.370;-29.206
5446076.008;-34.198;-36.955;-26.189;9.462;10.282;-26.412;-32.336;-24.401
5446076.016;-32.932;-35.055;-25.816;12.256;9.499;-19.073;-28.759;-17.881
5446076.024;-28.834;-31.665;-22.054;15.385;14.454;-18.328;-28.275;-16.578
5446076.032;-22.091;-24.512;-16.838;20.675;20.489;-23.134;-31.516;-18.403
5446076.011;-16.317;-18.254;-10.803;26.301;24.699;-21.681;-28.238;-17.360
5446076.019;-16.913;-19.781;-14.380;24.401;22.091;-22.985;-28.498;-17.025
5446076.027;-17.248;-21.197;-16.205;20.191;19.707;-18.775;-27.381;-10.990
5446076.035;-25.444;-30.771;-22.650;14.529;15.236;-13.784;-21.346;-11.660
5446076.043;-25.071;-25.854;-27.828;24.810;6.109;-14.193;-19.334;-17.174
5446076.051;-21.234;-18.254;-29.802;34.496;-0.447;-7.935;-12.405;-16.578
5446076.059;-22.128;-16.987;-35.055;42.692;-8.233;-9.239;-13.635;-17.993
5446076.067;-19.073;-11.735;-35.055;52.415;-10.654;-14.529;-17.732;-18.626
5446076.075;-15.423;-5.588;-35.204;60.387;-14.417;-13.635;-16.131;-12.182
5446076.083;-15.832;-1.527;-41.835;69.514;-23.730;-14.305;-15.460;-14.715
5446076.091;-15.534;-1.080;-43.623;70.520;-25.444;-14.938;-16.131;-14.640
5446076.099;-16.689;-3.166;-45.076;69.700;-25.108;-8.456;-11.101;-8.680
5446076.107;-14.938;-1.900;-44.033;70.743;-23.916;-2.794;-6.706;-6.706
5446076.115;-23.171;-12.033;-53.607;58.636;-33.639;-14.864;-17.844;-22.911
5446076.123;-23.767;-13.113;-55.134;59.940;-34.347;-13.225;-18.403;-19.670
5446076.131;-24.922;-12.703;-56.475;61.505;-34.198;-8.792;-13.635;-19.111
5446076.139;-20.936;-8.568;-53.905;62.771;-32.932;-7.860;-10.766;-24.177
5446076.147;-9.537;2.757;-41.164;73.202;-21.048;5.253;-2.533;-9.090
5446076.155;-20.787;-9.090;-50.068;64.038;-31.739;10.096;-0.969;-6.221
5446076.163;-30.920;-17.993;-58.450;56.215;-42.319;11.101;-5.290;-5.066
5446076.171;-28.014;-14.678;-52.676;58.338;-36.806;19.036;4.508;3.651
5446076.179;-21.383;-6.482;-44.405;67.689;-29.914;14.193;4.992;-1.714
5446076.187;-28.796;-12.890;-50.254;59.977;-38.967;-3.166;-4.768;-12.591
5446076.195;-28.610;-12.703;-50.180;59.828;-42.170;-14.864;-11.250;-18.813
5446076.144;-27.418;-11.846;-47.013;60.499;-40.494;-19.446;-13.374;-20.824
5446076.152;-29.616;-16.540;-49.174;54.426;-43.027;-21.607;-18.328;-20.601
5446076.160;-33.267;-20.079;-52.005;51.558;-46.715;-30.696;-30.734;-30.063
5446076.168;-28.238;-12.368;-46.566;58.450;-43.921;-28.461;-28.946;-29.430
5446076.176;-20.638;-5.960;-36.806;62.957;-36.024;-20.601;-24.624;-19.930
5446076.184;-21.048;-7.451;-34.347;63.404;-35.204;-21.011;-28.834;-17.360
5446076.192;-16.689;-4.582;-28.014;66.310;-30.510;-16.317;-24.997;-13.486
5446076.200;-22.762;-13.076;-32.708;55.917;-37.290;-20.266;-28.014;-22.165
5446076.208;-21.905;-12.182;-30.100;54.389;-37.998;-20.936;-26.636;-20.824
5446076.216;-15.497;-5.178;-22.240;58.599;-33.788;-14.454;-19.185;-15.236
5446076.224;-19.148;-9.425;-24.214;53.123;-38.259;-18.962;-24.848;-20.452
5446076.232;-8.307;1.714;-12.703;64.895;-29.355;-14.156;-19.036;-16.950
5446076.240;-4.172;7.302;-6.296;68.918;-24.363;-9.499;-11.660;-12.927
5446076.248;-3.539;5.290;-4.731;66.869;-23.395;-3.390;-7.786;-2.198
5446076.256;-5.513;4.955;-8.643;65.640;-28.275;-1.416;-5.886;-1.527
5446076.264;-6.072;6.147;-9.686;66.236;-31.218;-6.817;-7.115;-11.884
5446076.272;-9.462;2.906;-11.399;61.579;-34.049;-13.709;-14.119;-15.013
5446076.280;-6.966;6.407;-7.823;65.789;-31.069;-20.191;-17.881;-23.767
5446076.288;-6.780;8.233;-8.270;65.863;-33.118;-21.160;-17.211;-24.624
5446076.296;-0.969;15.683;-1.229;71.526;-28.908;-16.689;-15.125;-20.191
5446076.304;6.557;25.779;5.811;79.572;-26.077;-9.425;-7.600;-13.076
5446076.312;24.736;45.486;26.152;94.771;-7.637;-6.370;-4.023;-11.362
5446076.320;63.367;84.303;70.296;122.190;35.949;-10.058;-7.860;-10.319
5446076.328;98.310;119.023;112.168;145.771;72.457;-11.921;-11.064;-10.654
5446076.336;118.166;132.583;140.779;144.690;100.918;-12.033;-13.188;-11.362
5446076.344;121.444;129.081;150.092;129.603;114.404;-13.448;-15.572;-10.617
5446076.352;123.791;126.474;153.966;120.960;121.780;-8.270;-11.250;-4.843
5446076.360;110.604;110.343;144.057;103.600;115.708;-10.468;-14.119;-7.749
5446076.312;97.528;95.032;132.993;89.407;105.426;-13.374;-16.131;-11.250
5446076.320;85.123;82.441;116.602;78.753;91.307;-17.919;-20.489;-14.454
5446076.328;75.549;72.606;104.830;69.477;84.676;-16.466;-19.222;-15.609
5446076.336;56.960;52.489;86.129;51.111;67.279;-16.466;-19.446;-14.976
5446076.344;34.384;27.977;63.293;27.902;47.013;-19.372;-21.644;-18.552
5446076.352;26.487;23.954;52.452;27.008;38.072;-11.176;-14.640;-10.878
5446076.360;24.252;22.575;47.348;28.238;36.880;-7.339;-11.623;-7.190
5446076.368;19.111;15.981;43.735;23.693;33.528;-13.374;-17.919;-13.448
5446076.376;18.999;15.944;44.070;25.779;32.261;-7.153;-14.827;-8.158
5446076.384;13.039;11.139;35.949;22.016;25.779;2.235;-9.947;-1.378
5446076.392;5.662;6.370;25.332;17.621;16.093;16.019;2.906;3.465
5446076.400;2.198;3.614;22.054;15.907;11.697;25.146;14.529;6.557
5446076.408;2.272;1.751;22.389;15.683;13.672;20.750;9.164;6.929
5446076.416;-1.416;-4.768;19.483;6.258;11.772;10.133;0.708;2.980
5446076.424;5.998;3.241;27.977;13.560;18.179;1.229;-3.725;0.335
5446076.432;10.729;8.754;33.192;16.540;23.767;-10.394;-10.878;-6.706
5446076.440;15.311;13.933;38.743;18.850;28.647;-19.483;-17.583;-10.617
5446076.448;29.393;29.169;54.389;31.553;44.927;-26.263;-21.830;-16.652
5446076.456;64.634;67.465;89.481;64.000;74.394;-19.670;-14.529;-13.970
5446076.464;99.130;107.624;123.531;97.528;100.471;-10.952;-10.319;-9.723
5446076.472;130.162;142.977;156.276;129.938;126.883;1.676;0.298;-2.384
5446076.480;152.253;164.025;179.149;147.708;145.398;11.884;8.754;6.929
5446076.488;152.029;162.013;179.447;143.535;147.708;6.631;3.502;5.141
5446076.496;142.939;149.831;169.240;129.268;140.667;7.562;6.519;8.270
5446076.508;127.964;133.067;152.960;113.063;123.754;8.009;4.396;10.766
5446076.516;117.682;124.797;136.383;106.096;105.835;-1.676;-5.513;-2.868
5446076.524;109.114;113.621;119.731;97.193;93.021;-1.974;-3.874;-1.602
5446076.532;93.095;99.055;97.603;87.805;72.047;-7.525;-9.649;-7.823
5446076.540;72.084;79.311;78.157;70.408;54.650;-15.832;-20.564;-14.678
5446076.548;61.430;66.087;66.757;61.356;47.535;-12.442;-14.491;-9.798
5446076.556;45.709;48.801;50.291;49.621;36.396;-11.921;-11.027;-9.723
5446076.564;32.559;34.235;33.565;37.663;23.879;-13.784;-12.666;-11.176
5446076.572;30.845;31.888;29.393;36.806;17.695;-16.689;-16.205;-9.537
5446076.580;26.897;26.710;23.730;30.361;11.735;-21.458;-20.638;-12.964
5446076.588;17.844;16.131;14.305;20.191;7.451;-20.787;-23.469;-9.313
5446076.596;10.431;10.580;5.886;17.881;2.086;-9.574;-16.615;-1.043
5446076.604;-0.112;-0.149;-6.631;8.903;-10.431;-2.459;-15.050;-0.186
5446076.612;-5.923;-8.047;-12.405;0.112;-15.274;-2.049;-13.970;-7.264
5446076.620;3.166;1.788;-6.109;14.119;-7.749;13.188;-1.341;7.376
5446076.628;-4.359;-5.811;-14.342;7.749;-16.056;11.623;0.522;4.768
5446076.636;-14.529;-17.062;-22.613;-1.267;-25.034;4.098;-2.012;-4.321
5446076.644;-16.838;-19.893;-25.891;-4.657;-26.450;0.112;-1.602;-7.413
5446076.652;-13.858;-16.280;-24.810;0.261;-23.171;3.055;2.980;0.224
5446076.660;-16.615;-18.030;-28.610;-1.751;-28.387;5.029;3.353;2.757
5446076.668;-21.085;-21.197;-34.943;-2.459;-33.416;-0.708;-3.614;-2.496
5446076.676;-16.056;-17.136;-31.516;1.416;-27.455;-2.123;-6.966;1.863
5446076.684;-18.887;-20.079;-35.800;-6.184;-30.585;-8.121;-15.274;-2.757
5446076.692;-20.377;-20.228;-37.923;-6.035;-31.590;-0.373;-8.531;2.049
5446076.719;-17.956;-15.870;-37.588;1.378;-31.553;13.635;6.557;7.339
5446076.727;-17.881;-14.268;-35.875;3.576;-29.169;17.136;11.586;7.823
5446076.735;-7.823;-3.763;-25.593;13.113;-16.354;24.699;21.756;13.374
5446076.743;-9.798;-3.465;-26.748;14.044;-18.962;16.764;15.870;1.974
5446076.751;-12.629;-5.960;-28.871;16.689;-23.246;10.319;7.451;-5.141
5446076.759;-7.264;-2.719;-20.601;18.179;-16.987;18.738;12.405;11.586
5446076.767;-13.299;-10.990;-24.177;6.929;-20.117;17.472;5.998;11.846
5446076.775;-18.515;-15.274;-31.888;1.974;-26.189;17.285;4.992;11.399
5446076.783;-14.640;-10.282;-27.493;5.923;-27.679;20.713;11.511;15.013
5446076.791;-17.956;-13.746;-26.412;-0.559;-30.883;11.101;5.476;4.880
5446076.799;-15.758;-11.511;-24.587;2.049;-30.808;10.729;6.706;3.539
5446076.807;-17.546;-14.082;-26.524;-0.224;-36.322;11.772;7.562;2.049
5446076.815;-15.534;-12.964;-23.879;-0.484;-35.875;15.534;8.866;5.700
5446076.823;-12.368;-10.692;-20.936;3.092;-34.086;14.938;6.966;8.158
5446076.831;-9.201;-8.084;-14.566;7.823;-30.175;16.056;8.903;13.597
5446076.839;-10.617;-9.425;-15.572;6.594;-31.665;10.282;6.557;6.966
5446076.847;-12.256;-9.313;-15.199;5.141;-33.192;0.857;-3.055;-2.198
5446076.855;-10.803;-9.090;-10.729;4.098;-29.430;0.149;-4.843;-2.421
5446076.863;-13.113;-11.101;-12.070;1.155;-31.367;1.863;-2.235;-5.215
5446076.871;-7.823;-3.166;-3.017;8.233;-24.885;10.766;8.158;2.570
5446076.879;-4.321;-0.931;3.576;10.319;-19.819;12.293;10.878;8.121
5446076.887;-8.233;-5.476;0.931;4.321;-22.016;5.737;5.364;4.284
5446076.895;-11.586;-6.817;-1.192;0.782;-25.965;0.075;-1.453;-1.267
5446076.903;-9.425;-4.619;-0.969;4.880;-28.647;-3.651;-5.290;-4.396
5446076.882;-5.513;-1.751;5.960;8.456;-22.538;-5.737;-5.960;-3.614
5446076.890;-10.654;-8.233;2.943;0.112;-23.916;-8.307;-6.780;-6.333
5446076.898;-10.431;-4.917;1.416;4.433;-26.710;-6.929;-4.955;-5.998
5446076.906;-1.863;4.992;10.133;14.156;-21.085;6.743;7.860;6.557
5446076.914;9.872;14.715;21.420;22.650;-9.127;18.552;22.836;15.348
5446076.922;-3.576;0.857;8.531;6.072;-22.464;0.112;8.941;-6.296
5446076.930;-15.162;-9.984;-3.651;-6.817;-35.651;-10.356;-1.825;-14.603
5446076.938;-15.050;-10.654;-4.135;-6.780;-37.104;-11.325;-0.969;-13.597
5446076.946;-8.158;-3.278;1.937;1.676;-34.273;-9.276;-4.098;-9.276
5446076.954;-5.364;-1.527;4.359;3.241;-31.032;-9.350;-6.855;-7.413
5446076.962;-7.488;-4.545;0.931;-1.118;-33.490;-10.692;-10.468;-6.296
5446076.970;-8.196;-5.662;0.633;-1.192;-35.465;-3.092;-2.459;1.080
5446076.978;-15.013;-11.772;-6.221;-7.972;-42.692;-4.955;-3.129;-4.657
5446076.986;-8.829;-2.533;0.149;-1.676;-37.104;-1.192;0.782;-1.937
5446076.994;-3.278;3.092;3.837;4.396;-35.837;1.825;4.880;2.980
5446077.002;0.447;3.502;7.935;7.488;-30.622;-0.596;5.588;0.782
5446077.010;2.943;6.109;11.362;8.419;-26.301;1.229;8.196;-0.857
5446077.018;-3.986;-0.596;7.600;-1.416;-30.808;-6.035;-0.745;-9.574
5446077.026;-4.843;-2.496;10.021;-2.868;-28.498;-7.488;-2.645;-9.313
5446077.034;-2.906;-0.745;10.058;0.037;-28.834;-14.380;-9.313;-10.319
5446077.042;1.304;4.768;12.629;3.502;-29.616;-9.462;-5.849;-7.153
5446077.050;1.043;0.261;12.629;-8.866;-29.653;2.459;3.986;0.484
5446077.058;-4.917;-5.364;5.327;-7.935;-37.737;0.112;3.576;0.335
5446077.066;-3.055;1.378;1.006;7.562;-45.933;-7.115;-1.676;-5.998
5446077.034;7.302;13.597;3.576;24.661;-49.025;-5.811;2.831;-7.376
5446077.042;9.537;17.397;0.671;33.639;-58.003;-7.860;0.931;-9.350
5446077.050;1.490;12.293;-12.890;35.763;-77.225;-9.388;-2.682;-9.313
5446077.058;2.086;15.199;-16.093;42.729;-83.856;-3.502;2.868;-1.229
5446077.066;9.350;25.518;-14.752;57.779;-85.868;6.594;14.864;7.525
5446077.074;12.703;29.765;-13.188;64.969;-85.980;3.092;11.250;1.229
5446077.082;8.382;26.673;-18.366;63.330;-93.505;-0.484;6.668;-3.092
5446077.090;9.649;27.344;-14.640;62.324;-88.885;3.725;11.697;0.447
5446077.098;5.625;22.314;-17.807;57.444;-90.897;-2.012;4.619;-4.731
5446077.106;2.868;21.383;-21.383;59.530;-96.224;-0.894;6.557;-1.788
5446077.114;6.594;23.693;-17.397;61.952;-92.462;5.327;12.964;-0.075
5446077.122;1.863;17.472;-21.532;55.246;-94.771;5.104;10.841;-3.651
5446077.130;2.757;17.881;-20.079;54.576;-90.860;9.984;15.497;-1.378
5446077.138;-0.261;15.721;-25.071;51.484;-97.230;8.605;12.070;-0.261
5446077.146;-7.227;8.382;-31.553;42.953;-103.265;7.637;9.723;-4.135
5446077.154;-8.903;5.960;-34.533;40.270;-103.489;13.933;15.013;0.373
5446077.162;-8.233;7.860;-36.620;44.592;-104.234;16.168;22.836;4.470
5446077.170;-12.852;5.178;-42.282;44.778;-107.475;7.264;24.103;0.149
5446077.178;-13.597;5.178;-43.996;45.523;-107.773;0.373;22.016;-4.731
5446077.186;-15.907;2.794;-47.833;42.915;-113.249;-5.066;14.864;-6.668
5446077.194;-18.217;-1.118;-50.552;38.818;-116.080;-10.692;8.568;-14.342
5446077.202;-16.317;0.373;-48.839;40.829;-113.472;-10.468;7.488;-12.666
5446077.210;-18.999;-2.347;-50.664;35.800;-114.255;-13.821;-0.186;-14.193
5446077.218;-17.174;0.484;-49.844;37.029;-111.647;-10.692;-0.969;-8.792
5446077.182;-11.474;6.035;-45.262;44.405;-106.804;-0.298;8.233;1.565
5446077.190;-19.558;-3.986;-52.713;34.794;-113.696;-3.614;5.811;-6.519
5446077.198;-19.744;-5.066;-52.974;33.304;-113.696;-2.235;9.276;-6.445
5446077.206;-18.068;-2.086;-52.266;35.912;-111.535;-1.080;10.729;-6.817
5446077.214;-18.030;-1.900;-52.489;33.490;-110.567;0.857;11.548;-2.868
5446077.222;-17.546;-1.937;-50.589;33.043;-106.804;1.714;11.884;-1.267
5446077.230;-16.652;-1.043;-52.378;32.783;-108.778;1.937;14.380;-1.714
5446077.238;-19.632;-4.917;-57.928;31.255;-111.349;3.576;16.168;-0.671
5446077.246;-9.499;5.551;-48.764;42.096;-101.626;4.135;15.348;0.335
5446077.254;-4.061;11.660;-44.219;44.219;-96.522;-0.820;11.623;-4.955
5446077.262;-4.023;10.058;-44.629;41.686;-95.889;-8.047;5.513;-11.958
5446077.270;-9.909;3.949;-52.266;35.390;-105.649;-11.176;2.496;-14.454
5446077.278;-10.207;4.843;-51.744;38.147;-104.867;-9.388;2.347;-13.225
5446077.286;-5.178;9.984;-45.411;43.213;-98.720;1.676;13.299;-4.396
5446077.294;0.000;14.305;-38.631;45.262;-92.499;15.572;27.791;6.147
5446077.302;5.402;18.701;-30.920;48.541;-84.676;20.862;33.304;10.319
5446077.310;6.109;17.062;-27.977;48.019;-80.615;18.142;31.441;11.958
5446077.318;-2.049;9.611;-34.459;40.382;-89.407;8.419;17.956;8.419
5446077.326;-5.700;8.009;-38.221;35.912;-95.963;5.737;11.548;2.459
5446077.334;-3.316;12.107;-37.067;40.457;-96.112;8.196;12.144;0.857
5446077.342;-4.284;11.772;-35.092;40.382;-94.958;11.846;16.503;2.496
5446077.350;-7.227;8.233;-36.769;35.912;-97.193;9.798;15.907;2.459
5446077.358;-8.233;7.115;-36.769;33.863;-99.577;8.605;18.217;1.565
5446077.366;-8.717;7.302;-33.267;34.347;-95.069;6.519;18.813;0.894
5446077.376;4.806;21.569;-18.962;48.243;-80.541;13.448;25.555;10.654
5446077.384;5.774;21.011;-18.701;44.070;-81.323;7.525;18.328;3.986
5446077.392;-8.047;6.482;-31.069;29.020;-96.373;-7.227;2.012;-10.133
5446077.400;-5.588;9.872;-26.934;32.149;-93.505;-13.076;-5.662;-13.188
5446077.408;3.539;16.354;-16.242;36.955;-82.850;-6.929;-0.447;-5.960
5446077.416;-5.253;5.700;-23.060;24.587;-91.121;-16.578;-7.413;-16.205
5446077.424;-1.751;9.313;-18.738;27.679;-90.562;-7.749;0.745;-12.368
5446077.432;5.551;16.093;-12.107;34.571;-84.005;6.333;13.337;-4.023
5446077.440;12.182;24.326;-3.912;42.468;-74.841;10.617;17.695;5.625
5446077.448;5.476;18.217;-9.611;37.216;-81.919;-0.782;4.247;-1.490
5446077.456;-3.688;9.462;-16.615;28.871;-88.513;-15.050;-7.935;-12.331
5446077.464;-8.270;3.241;-20.154;21.569;-89.891;-18.738;-8.196;-17.919
5446077.472;-6.519;3.465;-16.652;21.532;-85.086;-10.729;-0.186;-10.766
5446077.480;-1.900;8.605;-12.629;28.126;-83.111;-1.527;8.829;-2.235
5446077.488;-2.347;9.649;-15.832;31.292;-87.470;0.857;10.841;-1.118
5446077.496;-7.041;7.041;-22.650;27.791;-94.324;1.229;9.388;0.112
5446077.504;-7.153;7.972;-22.873;29.281;-93.766;3.837;10.990;5.402
5446077.512;-8.978;4.992;-23.246;23.730;-94.622;0.149;7.153;1.490
5446077.520;-11.474;0.596;-23.879;15.758;-95.554;-7.264;1.863;-1.639
5446077.528;-15.944;-6.221;-25.555;4.917;-95.628;-17.062;-4.433;-10.952
5446077.536;-12.517;-4.731;-22.352;5.029;-91.754;-16.019;-2.533;-10.282
5446077.544;0.522;8.158;-11.437;19.446;-81.435;-5.215;6.147;0.261
5446077.552;7.898;15.907;-5.253;29.057;-76.666;-2.421;8.270;-2.347
5446077.560;11.697;20.564;-3.688;36.322;-76.778;-0.037;12.331;-3.539
5446077.557;18.328;27.269;3.465;41.761;-69.775;4.880;17.285;-0.857
5446077.565;12.703;21.234;-0.075;34.310;-74.133;-1.304;12.480;-10.841
5446077.573;4.247;12.740;-7.376;25.928;-80.653;-7.562;6.072;-16.950
5446077.581;-1.192;4.359;-10.803;14.119;-81.919;-7.935;4.321;-11.213
5446077.589;3.465;7.786;-7.860;13.709;-79.051;-3.129;4.992;-1.937
5446077.597;5.849;9.649;-5.923;11.474;-79.758;-7.004;2.161;-6.780
5446077.605;8.419;15.162;-1.751;17.323;-76.629;-0.075;12.666;-1.341
5446077.613;12.331;19.930;2.310;25.108;-70.706;8.419;21.830;3.278
5446077.621;14.640;20.489;4.992;26.189;-66.832;12.368;25.034;7.153
5446077.629;1.527;5.811;-6.333;12.703;-78.268;3.688;15.870;0.075
5446077.637;-7.898;-4.023;-14.938;4.992;-84.788;-7.786;5.029;-11.288
5446077.645;2.533;6.445;-4.880;14.678;-75.139;-5.141;4.992;-5.290
5446077.653;13.448;18.515;3.241;25.034;-69.030;-0.782;8.121;3.539
5446077.661;14.193;19.781;1.602;23.246;-71.116;-5.588;3.353;-1.825
5446077.669;15.162;20.713;3.278;22.054;-69.663;-3.241;5.104;-5.327
5446077.677;15.907;20.899;4.806;21.085;-68.434;3.725;11.213;3.539
5446077.685;6.631;8.903;-3.837;6.333;-75.549;-1.863;5.998;-2.570
5446077.693;-3.427;-2.533;-16.838;-5.290;-83.558;-9.164;-2.198;-9.313
5446077.701;-0.857;0.224;-15.758;-1.602;-78.119;-6.296;2.161;-6.780
5446077.709;0.596;-0.224;-14.044;-3.055;-76.517;-10.096;-3.204;-7.078
5446077.717;3.316;2.123;-11.809;-1.900;-74.245;-10.878;-3.837;-11.399
5446077.725;13.523;15.087;-3.427;12.629;-65.826;-2.868;4.061;-6.631
5446077.733;13.001;15.423;-6.631;14.566;-68.620;1.192;7.860;-3.502
5446077.741;18.030;19.260;-0.522;18.999;-60.089;8.903;16.727;4.731
5446077.725;9.947;10.990;-7.302;13.001;-65.304;3.651;10.319;1.118
5446077.733;-1.788;0.075;-21.420;3.539;-77.933;-3.763;2.496;-5.104
5446077.741;-0.745;2.943;-22.054;7.190;-80.094;-4.210;4.731;-8.531
5446077.749;0.261;2.868;-21.756;6.109;-78.492;-2.012;7.115;-5.066
5446077.757;1.863;5.215;-20.340;6.333;-74.916;2.906;9.239;0.373
5446077.765;5.513;10.394;-17.434;11.921;-71.451;8.494;13.299;7.302
5446077.773;8.568;13.635;-14.566;16.093;-68.173;5.066;10.319;4.061
5446077.781;7.004;12.405;-14.305;14.752;-68.285;-0.745;5.662;-2.086
5446077.789;7.637;14.417;-13.337;17.956;-65.267;-0.559;6.333;3.912
5446077.797;16.652;23.469;-4.508;28.387;-56.736;4.321;13.709;6.445
5446077.805;12.927;18.813;-8.345;24.438;-61.095;3.539;11.362;1.825
5446077.813;14.119;18.477;-6.966;22.985;-56.997;8.643;14.566;5.625
5446077.821;16.578;18.738;-4.508;19.297;-53.495;8.866;16.242;6.780
5446077.829;9.313;11.288;-12.442;9.052;-62.324;-3.055;5.364;-6.706
5446077.837;14.827;19.707;-10.766;18.626;-60.871;-3.688;4.657;-4.508
5446077.845;16.317;20.005;-10.356;21.532;-60.871;-0.410;7.153;-0.820
5446077.853;12.070;14.827;-13.411;16.615;-59.418;1.192;10.841;-3.576
5446077.861;11.660;14.752;-11.995;16.764;-55.246;2.049;12.368;-3.092
5446077.869;13.746;19.260;-10.356;22.389;-53.383;-1.267;7.562;-2.012
5446077.877;19.036;25.257;-5.551;27.679;-49.509;-2.384;7.637;-4.619
5446077.885;18.850;24.289;-5.551;24.326;-50.180;-3.912;5.290;-5.811
5446077.893;23.432;28.647;2.719;28.238;-42.729;1.714;10.133;-1.639
5446077.901;27.455;33.528;7.600;33.006;-40.755;7.898;15.497;3.688
5446077.909;27.008;34.720;8.047;32.932;-41.798;11.921;17.472;8.084
5446077.917;28.424;37.886;11.399;36.955;-39.302;13.746;19.521;11.884
5446077.925;24.550;34.906;9.499;37.067;-44.331;10.394;18.291;10.766
5446077.933;25.332;34.235;11.548;34.980;-43.213;11.139;19.260;8.307
5446077.941;35.726;44.294;24.401;45.858;-32.336;14.901;22.128;12.778
5446077.932;25.071;32.671;16.801;33.155;-41.388;-0.186;7.562;-0.522
5446077.940;24.363;30.585;16.838;28.498;-42.096;-3.725;3.129;-0.782
5446077.948;29.765;34.235;22.352;29.840;-38.706;-0.149;5.141;2.384
5446077.956;25.295;28.014;19.073;21.793;-43.139;-1.192;3.017;1.490
5446077.964;23.581;29.020;18.142;21.867;-45.821;1.863;6.333;4.321
5446077.972;29.504;36.471;24.624;31.292;-41.239;8.903;15.236;6.482
5446077.980;37.365;42.878;30.883;37.849;-35.428;13.448;17.881;13.784
5446077.988;34.384;40.457;27.269;34.310;-41.090;11.437;15.944;11.250
5446077.996;33.714;40.643;27.195;34.608;-43.362;12.331;16.578;9.909
5446078.004;29.802;34.943;25.705;28.238;-43.362;9.462;14.566;8.047
5446078.012;26.748;31.888;23.879;24.438;-43.921;5.364;10.878;1.825
5446078.020;29.393;34.347;27.530;26.301;-38.818;8.829;14.752;6.109
5446078.028;29.355;33.490;29.840;23.693;-36.582;13.709;22.203;10.543
5446078.036;34.869;38.482;34.943;25.816;-31.777;20.117;28.089;15.981
5446078.044;32.336;34.906;31.590;21.011;-37.365;11.697;14.752;9.052
5446078.052;24.512;27.195;25.183;15.125;-42.580;2.384;4.582;0.522
5446078.060;25.146;29.765;26.114;19.670;-39.451;3.427;9.239;0.261
5446078.068;27.269;31.143;27.753;20.713;-38.557;3.390;11.511;1.714
5446078.076;26.040;28.759;25.854;16.056;-40.345;0.745;9.015;1.788
5446078.084;24.885;28.200;25.481;16.689;-39.972;0.782;9.723;0.522
5446078.092;24.848;28.647;23.916;18.217;-42.133;6.482;13.597;4.098
5446078.100;23.879;26.338;24.214;14.268;-40.457;7.823;14.156;4.284
5446078.108;22.240;22.613;23.097;8.941;-41.351;4.694;10.580;1.714
5446078.116;27.679;27.306;27.604;12.852;-38.892;8.196;14.901;5.886
5446078.098;30.883;31.255;29.132;15.981;-39.078;8.196;17.248;6.482
5446078.106;33.900;33.714;32.671;16.540;-34.831;8.754;14.864;10.207
5446078.114;31.926;30.845;32.112;14.082;-34.384;9.052;16.019;9.798
5446078.122;27.232;27.344;27.530;10.729;-39.376;10.319;18.664;9.388
5446078.130;24.065;25.444;26.412;10.319;-40.457;8.233;15.013;7.227
5446078.138;23.097;25.667;25.444;11.697;-41.239;-2.161;3.912;-0.745
5446078.146;27.679;28.424;30.063;13.150;-35.465;0.820;7.674;3.204
5446078.154;34.086;34.608;35.577;17.658;-32.671;10.915;18.887;12.964
5446078.162;26.859;28.163;27.716;9.984;-40.531;6.855;13.597;9.798
5446078.170;25.816;25.854;26.152;7.972;-41.537;4.955;10.841;-0.484
5446078.178;23.805;24.103;23.767;7.227;-42.357;2.533;9.574;-4.098
5446078.186;25.108;28.014;26.487;12.480;-39.414;0.000;9.835;-4.545
5446078.194;30.398;33.751;31.404;18.440;-33.602;6.631;16.242;6.966
5446078.202;20.862;23.581;21.756;8.978;-44.517;2.123;11.511;6.035
5446078.210;16.429;20.340;15.646;7.637;-51.297;-3.502;6.221;-3.725
5446078.218;17.695;18.924;16.987;1.229;-46.194;-1.714;9.425;-1.937
5446078.226;15.534;15.497;14.789;-4.135;-47.199;-0.447;9.723;-0.857
5446078.234;14.938;16.391;12.927;-2.719;-51.409;2.645;11.735;3.166
5446078.242;14.678;18.068;11.176;-0.149;-52.936;6.147;15.311;8.494
5446078.250;19.260;24.103;16.466;6.258;-46.976;11.474;23.283;11.325
5446078.258;21.756;27.493;16.019;9.127;-47.013;11.623;26.450;10.133
5446078.266;18.738;23.432;12.554;6.109;-50.738;8.419;22.426;4.247
5446078.274;17.025;19.111;10.468;1.304;-50.813;10.915;22.277;7.600
5446078.282;13.784;14.342;8.605;-4.396;-51.185;9.127;18.850;7.674
5446078.262;11.362;11.325;5.551;-6.109;-54.576;5.960;15.050;3.316
5446078.270;16.615;18.924;9.127;2.384;-49.397;7.525;16.950;6.519
5446078.278;17.807;22.240;11.846;4.284;-44.852;7.302;15.795;10.170
5446078.286;15.199;18.887;11.399;-1.527;-45.598;1.639;9.537;0.633
5446078.294;14.640;16.652;12.480;-4.694;-45.076;-1.490;4.582;-3.092
5446078.302;12.033;13.001;8.307;-6.892;-48.093;2.608;9.425;2.496
5446078.310;10.803;12.964;6.221;-6.445;-48.019;4.433;12.219;3.316
5446078.318;21.458;26.524;17.025;7.860;-37.774;13.374;21.197;12.293
5446078.326;26.934;32.410;21.346;14.715;-34.310;13.784;24.028;11.735
5446078.334;21.122;26.934;13.523;10.133;-40.792;3.539;16.354;0.224
5446078.342;17.248;22.352;10.096;3.688;-41.090;1.900;12.927;1.229
5446078.350;9.052;12.517;2.533;-7.711;-48.354;-2.161;9.127;-0.261
5446078.358;12.480;16.615;5.364;-4.396;-44.256;-0.596;10.617;1.676
5446078.366;15.683;20.973;9.164;0.298;-40.196;3.986;14.678;6.780
5446078.374;10.096;15.683;3.166;-5.104;-45.784;-0.857;11.250;-0.857
5446078.382;14.864;19.856;7.227;-3.763;-41.723;-0.969;12.591;-0.037
5446078.390;26.822;29.467;19.446;5.551;-29.877;-1.714;10.058;0.931
5446078.398;31.032;34.571;23.730;10.990;-25.667;-2.533;8.307;-0.559
5446078.406;26.301;30.734;18.962;4.023;-29.542;-2.794;7.637;-0.820
5446078.414;21.607;26.189;14.789;-0.820;-34.682;-2.757;5.811;-0.633
5446078.422;18.440;24.512;13.523;-0.931;-36.135;-0.149;7.637;-1.863
5446078.430;20.564;27.306;15.907;1.267;-33.639;4.880;14.678;3.204
5446078.438;28.610;34.533;25.444;7.153;-25.705;10.729;22.091;7.898
5446078.446;33.043;38.370;30.734;9.425;-20.638;8.866;19.595;6.445
5446078.441;24.363;31.441;21.383;4.694;-31.143;1.416;11.101;1.341
5446078.449;21.644;28.908;21.756;3.502;-31.032;2.310;11.884;1.304
5446078.457;16.615;23.842;19.968;-2.198;-34.571;-1.267;6.631;-4.992
5446078.465;23.134;31.628;26.822;3.800;-29.728;3.502;11.399;-0.373
5446078.473;26.263;35.614;30.473;4.433;-27.008;6.706;15.832;4.582
5446078.481;21.979;30.957;27.567;-1.229;-32.149;3.837;13.746;0.484
5446078.489;22.054;29.840;29.653;-1.639;-31.367;6.817;12.517;3.353
5446078.497;26.785;32.336;36.433;-0.298;-24.140;9.276;14.976;6.668
5446078.505;23.171;29.132;33.341;-4.768;-27.977;5.253;10.580;2.123
5446078.513;22.650;29.206;33.975;-6.072;-29.504;11.474;16.466;10.617
5446078.521;26.152;33.975;38.221;-0.745;-26.897;19.111;26.152;15.087
5446078.529;28.126;35.726;39.414;1.155;-26.375;21.309;28.163;13.821
5446078.537;30.510;38.370;41.910;2.012;-24.363;21.309;28.461;16.913
5446078.545;29.504;38.072;40.717;3.204;-29.504;19.297;28.461;15.572
5446078.553;21.867;31.441;35.577;-2.161;-34.086;13.337;22.799;7.637
5446078.561;18.515;28.647;34.422;-1.900;-34.459;11.250;20.638;6.631
5446078.569;25.481;34.384;43.549;3.390;-26.040;15.795;24.065;12.890
5446078.577;29.355;36.284;48.839;-0.149;-21.458;15.423;22.054;12.629
5446078.585;27.157;35.167;45.411;-3.912;-27.083;8.233;15.907;1.974
5446078.593;29.244;37.104;46.603;-2.459;-26.934;10.803;20.191;5.476
5446078.601;24.028;30.212;41.574;-9.574;-29.355;12.219;23.246;8.084
5446078.609;25.146;29.616;43.996;-9.127;-25.295;12.666;23.656;10.841
5446078.617;24.587;29.132;43.511;-8.158;-25.854;6.221;15.162;7.600
5446078.625;28.275;32.112;47.199;-5.178;-23.060;6.631;12.815;6.668
5446078.633;26.673;28.759;45.374;-11.027;-27.269;4.023;7.786;2.421
5446078.641;29.653;32.671;47.684;-7.674;-25.965;11.809;13.784;7.935
5446078.649;29.504;33.379;48.652;-8.345;-23.954;18.440;19.372;14.566
5446078.657;20.191;23.693;41.202;-18.850;-30.212;8.084;12.629;3.241
5446078.653;16.354;18.328;38.221;-22.240;-31.404;9.127;16.615;6.072
5446078.661;22.464;24.363;43.288;-15.572;-27.567;9.499;18.291;8.270
5446078.669;29.653;32.298;50.031;-6.482;-20.601;10.058;18.403;8.866
5446078.677;34.608;38.370;55.209;0.261;-15.646;10.468;18.105;7.339
5446078.685;37.476;41.090;58.748;1.043;-12.740;10.431;16.429;5.998
5446078.693;52.676;58.934;72.122;16.466;-3.353;12.331;17.472;5.327
5446078.701;75.847;85.048;94.920;38.594;14.491;10.952;17.136;5.327
5446078.709;105.835;119.917;127.144;69.328;38.333;9.090;16.578;5.178
5446078.717;134.595;155.345;156.797;100.285;60.014;8.233;18.775;5.215
5446078.725;159.740;184.216;181.086;121.482;78.455;3.614;14.454;3.651
5446078.733;178.814;206.456;199.489;139.065;92.387;2.906;14.342;3.688
5446078.741;196.882;227.466;214.800;157.803;102.073;7.339;18.217;5.960
5446078.749;216.179;246.353;231.452;175.610;117.011;21.532;32.112;16.168
5446078.757;210.404;240.840;223.629;171.140;112.355;22.985;30.659;15.274
5446078.765;193.641;223.704;205.040;156.648;97.714;19.297;25.816;11.995
5446078.773;180.751;208.393;190.325;140.965;87.805;25.071;31.888;16.615
5446078.781;159.368;181.831;168.607;114.068;72.792;20.117;28.200;12.219
5446078.789;139.363;160.933;147.149;93.058;56.699;15.348;23.954;14.193
5446078.797;116.788;137.873;122.599;70.445;34.943;7.637;17.062;9.201
5446078.805;103.302;122.376;106.283;58.636;22.762;5.662;14.305;5.066
5446078.813;97.677;115.149;99.577;55.656;20.675;18.701;25.257;13.486
5446078.821;87.395;102.222;89.854;45.598;16.689;22.687;26.487;17.621
5446078.829;73.351;86.725;74.133;33.155;4.619;10.915;16.093;4.359
5446078.837;65.304;77.151;63.926;24.475;-2.161;5.811;12.182;5.402
5446078.849;60.722;70.333;57.742;16.354;-4.768;7.637;13.821;9.425
5446078.857;51.707;59.865;48.243;7.898;-11.437;11.437;13.970;14.417
5446078.865;42.059;49.397;39.525;-1.453;-16.727;12.480;14.603;12.703
5446078.873;40.866;46.678;39.376;-4.135;-15.497;19.409;20.564;14.603
5446078.881;40.606;45.784;38.520;-2.719;-15.497;27.046;27.791;17.919
5446078.889;32.447;38.669;30.063;-8.158;-22.762;25.593;26.412;15.497
5446078.897;24.587;30.398;19.073;-15.348;-32.410;20.005;23.916;8.345
5446078.905;25.146;29.616;17.360;-14.566;-33.006;12.740;19.111;5.029
5446078.913;23.879;29.579;17.025;-14.901;-30.249;7.004;14.342;6.668
5446078.921;21.085;24.661;16.913;-17.732;-28.349;3.800;10.617;7.004
5446078.929;20.824;23.320;16.652;-18.142;-29.095;-0.559;8.903;-0.559
5446078.937;23.246;25.146;18.142;-14.491;-27.008;6.594;18.179;6.482
5446078.945;19.930;22.016;14.789;-17.025;-28.051;14.231;25.257;13.523
5446078.953;15.534;19.260;10.096;-19.297;-29.206;16.950;26.189;14.491
5446078.961;6.631;10.319;0.224;-28.498;-36.433;12.442;18.962;10.915
5446078.969;2.198;5.513;-3.688;-33.230;-39.004;4.061;9.686;0.931
5446078.977;5.215;7.898;0.447;-30.063;-33.341;0.373;4.657;-5.625
5446078.985;7.004;8.754;2.831;-30.808;-29.095;1.900;5.774;-6.258
5446078.993;15.944;17.174;12.107;-23.171;-20.005;11.548;15.274;3.166
5446079.001;13.709;14.380;13.337;-26.897;-20.079;13.523;18.477;7.190
5446079.009;8.941;10.431;9.201;-29.057;-24.810;11.958;18.887;3.986
5446079.017;3.874;6.706;3.092;-31.963;-29.951;9.835;17.248;2.049
5446079.025;-0.037;3.874;-0.335;-37.588;-31.963;3.949;10.282;1.192
5446079.033;1.788;6.072;2.682;-36.620;-29.281;7.451;13.523;7.041
5446079.027;1.565;5.290;2.682;-37.625;-29.579;6.147;11.176;4.582
5446079.035;6.333;10.133;9.090;-35.278;-24.922;4.992;10.394;5.178
5446079.043;10.356;13.635;15.944;-32.820;-21.011;6.743;10.356;5.625
5446079.051;9.127;12.182;15.683;-34.347;-20.713;8.754;10.878;8.009
5446079.059;11.921;14.827;17.062;-29.914;-21.197;8.605;12.405;7.115
5446079.067;23.134;23.395;29.020;-22.091;-13.784;12.070;19.968;7.451
5446079.075;23.060;22.016;32.037;-24.177;-12.107;8.531;15.646;6.855
5446079.083;17.956;16.168;28.200;-29.653;-16.578;0.708;8.754;2.198
5446079.091;13.709;12.890;24.848;-32.708;-19.930;-1.974;5.029;1.267
5446079.099;10.394;9.537;21.011;-35.390;-26.561;-5.215;0.820;-3.651
5446079.107;8.605;5.998;21.942;-39.153;-24.810;-0.335;4.545;-1.192
5446079.115;6.482;1.006;22.650;-44.964;-24.848;2.794;11.176;0.037
5446079.123;7.376;4.023;25.146;-43.102;-23.954;4.284;13.709;4.880
5446079.131;9.201;8.307;26.710;-37.476;-25.034;7.227;16.093;8.754
5446079.139;3.129;2.868;19.595;-41.761;-33.900;1.937;9.350;1.676
5446079.147;-0.224;-0.782;18.142;-45.896;-35.092;2.421;7.935;4.396
5446079.155;3.800;2.682;23.432;-42.953;-29.169;9.276;14.156;12.182
5446079.163;4.321;2.421;25.891;-42.319;-27.344;12.629;16.913;13.150
5446079.171;-5.104;-7.562;18.887;-51.893;-32.634;7.525;12.629;8.419
5446079.179;-6.407;-8.047;17.360;-53.383;-33.192;6.333;12.070;8.494
5446079.187;-2.719;-1.974;20.042;-46.976;-30.249;6.706;11.660;13.262
5446079.195;-6.333;-5.513;17.211;-51.446;-33.341;-2.682;3.614;4.582
5446079.203;-8.345;-8.047;16.652;-54.911;-35.390;-5.662;-1.118;-0.522
5446079.211;-9.313;-10.170;16.913;-56.103;-34.124;-4.992;0.894;-2.757
5446079.298;-5.849;-6.929;20.191;-54.948;-31.851;-0.820;8.047;1.490
5446079.306;-1.825;-2.608;24.512;-52.825;-26.077;2.608;11.623;4.247
5446079.314;-4.061;-6.333;22.985;-55.246;-26.599;-2.943;6.594;-0.075
5446079.322;0.931;-1.043;27.232;-47.609;-22.389;-0.224;9.350;5.066
5446079.330;1.602;0.857;26.263;-45.598;-23.022;-2.496;6.519;4.731
5446079.338;2.310;0.820;24.810;-46.641;-25.406;-4.023;4.880;1.155
5446079.346;8.456;6.706;30.063;-43.437;-19.595;3.278;11.772;6.966
5446079.354;6.855;5.364;29.504;-47.497;-19.372;4.731;14.268;6.221
5446079.362;3.800;1.453;28.275;-52.750;-19.968;3.651;12.219;2.496
5446079.370;4.433;2.608;29.579;-52.676;-18.850;-0.112;9.574;1.378
5446079.378;6.035;4.619;30.249;-50.403;-19.595;-0.969;9.015;3.949
5446079.386;8.680;6.258;32.298;-49.397;-18.477;-0.745;9.499;2.868
5446079.394;10.617;8.047;33.975;-47.125;-17.472;0.112;10.915;1.825
5446079.402;15.907;15.236;40.270;-37.923;-9.872;7.339;15.460;9.239
5446079.410;22.091;24.773;44.741;-28.461;-5.588;6.035;12.740;8.866
5446079.418;41.127;47.274;64.224;-6.109;10.729;6.892;12.517;10.394
5446079.426;68.285;75.661;92.946;17.583;33.528;8.866;14.901;10.952
5446079.434;97.938;105.537;126.697;40.382;60.759;5.439;11.511;8.792
5446079.442;132.658;146.441;161.380;79.609;86.017;8.941;16.764;10.431
5446079.450;167.340;185.668;193.976;113.510;110.529;21.830;30.622;20.340
5446079.458;185.631;205.711;210.255;130.832;119.694;28.536;34.086;27.940
5446079.466;193.752;217.184;213.422;143.349;118.241;22.314;26.971;19.670
5446079.474;189.506;214.502;203.736;143.424;107.363;12.070;17.136;7.674
5446079.482;186.041;212.230;195.764;144.541;99.801;17.919;21.085;13.076
5446079.537;173.524;201.017;178.702;136.346;87.954;22.836;24.848;19.185
5446079.545;145.584;173.151;148.378;113.174;63.702;19.260;25.034;15.646
5446079.553;120.811;147.000;122.413;91.381;45.039;19.558;27.679;16.280
5446079.561;94.138;120.439;92.275;68.508;21.085;13.113;20.675;14.082
5446079.569;67.987;92.313;63.293;43.437;-2.421;5.513;10.692;7.153
5446079.577;52.601;75.251;45.821;28.647;-11.995;2.272;6.035;2.868
5446079.585;41.798;64.597;32.373;21.011;-21.532;4.321;5.551;3.055
5446079.593;33.565;53.383;24.848;11.623;-25.891;8.643;8.866;11.139
5446079.601;19.558;37.327;13.113;-2.272;-34.869;2.682;4.582;7.413
5446079.609;7.860;23.246;0.596;-16.540;-43.809;4.172;5.402;6.370
5446079.617;-6.519;7.823;-12.703;-30.771;-53.234;9.239;7.413;9.649
5446079.625;-17.807;-3.166;-25.406;-39.265;-64.969;8.196;5.364;6.631
5446079.633;-14.864;-2.757;-22.650;-38.855;-59.120;10.729;5.811;10.692
5446079.641;-21.309;-10.468;-29.020;-45.076;-62.846;7.451;3.017;4.880
5446079.649;-27.083;-15.385;-35.912;-48.243;-66.981;11.176;5.960;2.161
5446079.657;-24.289;-12.293;-33.379;-43.735;-59.865;19.930;16.205;7.339
5446079.665;-28.647;-18.179;-36.694;-49.770;-60.983;20.154;19.148;6.296
5446079.673;-30.324;-20.415;-36.024;-51.893;-57.146;27.716;27.530;14.976
5446079.681;-38.557;-30.324;-43.809;-60.573;-62.771;28.498;28.163;17.397
5446079.689;-48.503;-41.537;-55.432;-72.159;-72.792;25.369;25.406;14.827
5446079.697;-48.950;-42.543;-55.432;-72.122;-71.824;21.756;24.438;8.978
5446079.705;-48.205;-42.878;-54.464;-72.196;-70.222;10.654;14.268;0.894
5446079.713;-50.589;-45.784;-56.885;-76.965;-72.010;-0.596;0.894;-5.290
5446079.721;-51.633;-48.093;-57.481;-80.019;-73.649;-1.229;-0.969;-5.402
5446079.733;-50.999;-46.715;-54.836;-78.194;-69.290;7.190;7.600;0.559
5446079.741;-52.713;-47.833;-53.346;-79.982;-67.651;12.927;11.437;3.912
5446079.749;-53.383;-49.882;-52.117;-80.802;-66.608;14.603;11.548;6.557
5446079.757;-54.501;-51.074;-51.372;-80.205;-67.353;11.399;8.084;5.178
5446079.765;-55.023;-52.415;-49.844;-81.249;-68.545;3.725;2.235;2.868
5446079.773;-51.297;-49.658;-44.294;-78.343;-65.304;-0.112;0.149;-0.075
5446079.781;-51.633;-50.217;-43.362;-79.572;-66.310;-1.565;-0.820;-0.596
5446079.789;-49.733;-47.572;-40.494;-77.821;-65.826;2.086;3.651;2.943
5446079.797;-46.194;-44.852;-35.167;-77.039;-61.505;6.929;11.399;5.476
5446079.805;-44.331;-43.996;-31.441;-76.033;-56.848;5.029;12.629;-0.075
5446079.813;-43.251;-42.655;-28.759;-72.829;-55.470;2.384;10.803;-3.055
5446079.821;-45.821;-46.678;-30.957;-76.890;-59.865;-3.874;2.831;-6.594
5446079.829;-49.621;-50.254;-34.422;-80.913;-67.092;-5.774;-2.719;-8.233
5446079.837;-53.309;-53.346;-37.923;-83.782;-71.004;-1.900;-3.837;-1.080
5446079.845;-50.887;-50.962;-33.341;-80.951;-64.820;7.972;2.943;13.746
5446079.853;-57.966;-55.470;-39.265;-84.080;-73.239;11.250;2.570;14.715
5446079.861;-54.166;-51.148;-35.278;-80.019;-70.333;16.466;9.164;13.001
5446079.869;-46.156;-43.921;-25.444;-72.606;-61.356;20.266;20.005;12.331
5446079.877;-46.864;-43.325;-26.301;-73.314;-66.683;20.228;20.005;13.225
5446079.885;-50.329;-44.666;-29.132;-77.523;-68.620;16.093;17.025;11.586
5446079.893;-51.409;-49.807;-25.742;-82.143;-59.754;4.061;7.898;3.874
5446079.901;-57.071;-58.860;-29.616;-92.871;-59.269;3.576;7.190;4.768
5446079.909;-60.163;-62.287;-31.926;-97.863;-60.312;6.780;9.052;8.009
5446079.917;-68.285;-70.632;-40.047;-106.953;-67.391;5.625;6.407;5.253
5446079.883;-67.540;-70.781;-38.482;-109.412;-66.645;3.166;4.433;2.496
5446079.891;-64.522;-67.800;-35.428;-105.798;-63.069;3.874;4.470;2.086
5446079.899;-63.889;-69.141;-33.341;-107.400;-60.312;2.347;5.886;-0.261
5446079.907;-66.347;-72.345;-34.422;-109.822;-61.728;-2.310;-0.224;-1.639
5446079.915;-66.832;-71.414;-35.055;-109.263;-60.946;-1.341;0.335;-3.912
5446079.923;-65.900;-69.402;-34.459;-109.114;-60.610;-0.782;1.527;-3.390
5446079.931;-66.794;-70.818;-33.118;-110.194;-59.530;1.192;1.118;0.671
5446079.939;-69.365;-74.320;-34.496;-110.939;-58.189;3.465;1.416;7.898
5446079.947;-73.276;-78.455;-37.774;-113.696;-59.791;10.952;7.451;14.976
5446079.955;-82.776;-87.991;-46.231;-122.935;-68.173;10.431;6.296;12.517
5446079.963;-84.490;-88.736;-48.168;-124.909;-69.141;9.574;9.127;11.921
5446079.971;-81.956;-86.240;-46.343;-122.413;-67.018;5.253;6.966;5.849
5446079.979;-81.137;-84.825;-48.243;-120.662;-69.067;3.092;4.284;6.258
5446079.987;-85.086;-88.848;-54.315;-123.829;-76.108;-3.874;-4.321;1.043
5446079.995;-76.778;-81.733;-44.741;-117.421;-66.385;-2.980;-1.341;1.192
5446080.003;-71.414;-73.835;-39.935;-113.100;-60.238;-2.868;1.825;0.261
5446080.011;-67.465;-68.359;-37.886;-104.234;-58.785;-1.863;3.651;-0.745
5446080.019;-67.689;-70.035;-40.531;-103.451;-61.542;-3.874;-0.298;-4.508
5446080.027;-66.124;-68.694;-39.972;-101.589;-60.834;2.347;4.657;3.912
5446080.035;-58.413;-60.573;-33.639;-93.430;-54.762;10.133;11.995;12.740
5446080.043;-64.149;-65.453;-40.345;-99.018;-59.865;2.906;3.055;6.743
5446080.051;-70.930;-71.861;-46.492;-103.936;-63.963;-4.396;-4.657;0.633
5446080.059;-75.549;-77.374;-49.472;-109.971;-65.379;-13.337;-11.064;-7.227
5446080.067;-76.666;-75.810;-52.117;-108.741;-68.247;-12.890;-8.084;-7.972
5446080.030;-67.167;-66.683;-44.107;-101.328;-61.467;-4.321;1.825;-1.565
5446080.038;-64.336;-65.677;-41.313;-100.844;-59.418;-7.004;-4.508;0.633
5446080.046;-70.892;-73.761;-47.870;-108.704;-65.602;-8.829;-7.376;-0.894
5446080.054;-77.337;-81.994;-54.464;-118.427;-70.035;-11.623;-11.288;-4.917
5446080.062;-73.649;-80.504;-51.558;-116.676;-66.385;-10.170;-9.723;-7.413
5446080.070;-67.763;-73.053;-45.747;-107.959;-61.095;-3.614;-1.937;0.447
5446080.078;-72.494;-75.027;-53.644;-111.125;-68.918;-11.064;-11.548;-7.637
5446080.086;-79.982;-84.452;-62.063;-120.029;-75.623;-18.664;-20.638;-13.821
5446080.094;-74.096;-79.237;-56.699;-120.252;-69.737;-15.572;-17.099;-11.660
5446080.102;-68.545;-71.228;-51.595;-108.294;-64.075;-18.328;-17.844;-14.603
5446080.110;-68.396;-70.892;-50.701;-105.426;-62.883;-20.340;-22.277;-14.305
5446080.118;-68.173;-74.506;-49.807;-108.145;-60.201;-14.789;-17.658;-10.990
5446080.126;-68.918;-73.574;-52.601;-106.059;-61.579;-9.835;-11.511;-4.768
5446080.134;-71.824;-75.214;-54.687;-107.773;-64.038;-17.062;-17.323;-10.468
5446080.142;-68.210;-70.110;-51.856;-104.196;-61.244;-20.824;-21.905;-10.841
5446080.150;-60.946;-63.181;-48.988;-97.081;-57.332;-21.346;-21.905;-11.958
5446080.158;-57.630;-60.499;-47.237;-92.611;-56.140;-21.495;-20.936;-12.890
5446080.166;-53.421;-56.624;-43.139;-88.140;-51.521;-15.981;-12.778;-9.872
5446080.174;-48.727;-51.558;-38.967;-83.297;-46.529;-11.139;-6.780;-8.270
5446080.182;-53.309;-56.103;-43.586;-88.885;-51.931;-10.282;-8.233;-9.313
5446080.190;-54.091;-58.711;-47.088;-88.029;-54.948;-5.439;-4.172;-5.998
5446080.198;-47.348;-49.844;-41.910;-81.025;-48.466;1.490;2.384;0.522
5446080.206;-48.466;-49.770;-42.543;-82.962;-48.392;-0.261;0.969;0.373
5446080.214;-53.830;-57.817;-47.423;-90.525;-51.521;0.969;2.198;1.155
5446080.167;-54.389;-60.424;-45.523;-93.952;-48.801;-0.224;1.304;1.229
5446080.175;-56.587;-62.883;-46.529;-97.230;-48.913;-4.098;-2.533;0.708
5446080.183;-55.693;-63.404;-45.300;-97.603;-49.695;-6.706;-4.768;-4.284
5446080.191;-50.217;-55.544;-40.196;-91.791;-46.678;-4.470;-2.906;-2.980
5446080.199;-51.148;-55.842;-40.457;-90.338;-47.274;-3.539;-2.310;-2.421
5446080.207;-55.246;-60.350;-43.325;-93.617;-52.154;-4.545;-4.806;-1.267
5446080.215;-55.544;-60.946;-43.437;-92.089;-54.426;-6.445;-9.164;-2.235
5446080.223;-52.378;-59.940;-38.967;-87.358;-51.148;-3.129;-5.588;3.055
5446080.231;-43.735;-47.088;-29.095;-79.460;-42.319;6.109;2.384;11.958
5446080.239;-53.868;-58.562;-35.800;-92.797;-47.274;-3.166;-4.023;-1.378
5446080.247;-61.840;-66.012;-42.245;-99.055;-54.836;-7.078;-6.855;-5.141
5446080.255;-57.630;-61.654;-37.663;-94.324;-53.607;2.906;1.714;6.147
5446080.263;-55.246;-59.269;-33.714;-94.846;-50.664;4.284;3.465;5.662
5446080.271;-59.158;-62.995;-36.173;-98.683;-53.607;-0.559;-0.149;3.725
5446080.279;-64.038;-67.800;-39.041;-103.600;-57.854;-7.339;-8.047;-5.439
5446080.287;-56.252;-59.567;-30.994;-92.313;-54.091;-7.972;-10.878;-7.041
5446080.295;-52.154;-59.530;-25.183;-92.462;-50.366;-1.043;-4.284;0.112
5446080.303;-50.291;-57.258;-23.395;-95.032;-47.982;2.831;-2.272;2.235
5446080.311;-44.368;-48.093;-17.732;-85.160;-43.213;9.276;4.321;8.084
5446080.319;-42.431;-48.056;-13.337;-82.552;-39.302;5.774;1.527;6.333
5446080.327;-40.904;-40.233;-10.878;-79.088;-38.929;2.272;-2.347;7.823
5446080.335;-42.357;-44.592;-13.076;-83.074;-44.070;-2.012;-6.966;4.806
5446080.343;-43.213;-47.795;-13.746;-85.942;-45.560;-3.874;-6.594;-2.384
5446080.351;-45.076;-50.180;-13.448;-88.625;-43.064;-1.602;-0.708;-2.794
5446080.406;-46.268;-50.217;-14.901;-85.682;-42.617;1.602;2.421;4.657
5446080.414;-49.658;-52.713;-20.638;-85.048;-49.397;1.341;1.267;3.874
5446080.422;-47.162;-54.389;-17.174;-87.842;-47.348;7.078;5.811;12.107
5446080.430;-54.277;-63.106;-21.681;-96.522;-51.484;4.098;1.192;7.227
5446080.438;-61.877;-75.698;-29.020;-105.761;-57.220;-2.347;-6.445;-0.075
5446080.446;-61.840;-64.112;-30.175;-103.526;-55.879;-8.680;-12.666;-6.594
5446080.454;-57.109;-55.581;-24.587;-88.140;-54.054;-6.966;-9.350;-3.241
5446080.462;-55.619;-64.112;-20.601;-96.336;-50.962;-4.433;-5.290;-1.304
5446080.470;-57.742;-77.523;-21.420;-112.280;-54.464;-2.831;-1.714;-2.980
5446080.478;-54.985;-60.014;-22.538;-97.007;-53.830;2.868;5.476;3.465
5446080.486;-46.603;-46.976;-13.411;-84.043;-42.990;5.476;8.084;7.339
5446080.494;-42.357;-33.900;-11.213;-68.545;-43.362;3.465;3.874;2.794
5446080.502;-48.690;-42.655;-16.466;-68.136;-44.368;-4.992;-8.829;-5.439
5446080.510;-55.581;-53.197;-21.495;-81.919;-47.088;-7.041;-11.176;-8.233
5446080.518;-55.619;-54.799;-20.079;-85.421;-46.156;1.378;-1.341;0.484
5446080.526;-59.456;-60.797;-23.656;-93.505;-50.552;-1.676;-2.831;1.229
5446080.534;-60.685;-61.132;-24.922;-100.657;-52.974;-3.800;-2.682;0.745
5446080.542;-57.220;-56.587;-21.793;-96.485;-50.366;-1.080;-0.410;3.129
5446080.550;-55.842;-54.538;-21.383;-93.989;-52.042;-4.917;-4.582;-1.676
5446080.558;-52.601;-51.185;-16.093;-91.903;-48.429;-1.527;-1.602;1.565
5446080.566;-54.203;-50.738;-16.913;-91.605;-51.446;2.198;1.825;2.868
5446080.574;-58.562;-54.613;-20.564;-101.067;-57.481;1.527;-1.155;0.447
5446080.582;-54.613;-51.223;-10.729;-98.795;-47.944;-2.198;-5.066;-1.378
5446080.590;-58.524;-54.725;-13.150;-101.477;-50.068;-7.078;-10.617;-4.433
5446080.602;-61.430;-60.499;-13.746;-108.071;-46.678;-8.866;-12.442;-4.023
5446080.610;-66.571;-71.190;-16.391;-117.011;-49.211;-9.686;-12.480;-3.837
5446080.618;-69.886;-72.345;-20.787;-118.464;-55.246;-8.717;-10.654;-4.172
5446080.626;-65.640;-61.765;-18.328;-111.163;-53.309;-8.456;-10.803;-5.327
5446080.634;-57.928;-54.426;-6.184;-106.208;-43.064;-8.754;-11.288;-2.757
5446080.642;-62.957;-61.393;-11.660;-112.355;-47.833;-15.125;-17.695;-12.219
5446080.650;-64.559;-65.081;-12.070;-116.155;-48.243;-16.801;-20.228;-15.013
5446080.658;-58.524;-59.307;-3.241;-110.827;-39.339;-14.529;-17.956;-11.586
5446080.666;-57.518;-59.456;-2.682;-111.759;-39.563;-11.437;-15.013;-8.829
5446080.674;-56.811;-61.430;-4.210;-110.082;-40.755;-3.725;-10.431;2.161
5446080.682;-63.814;-73.761;-11.250;-123.195;-46.901;-11.399;-18.328;-7.600
5446080.690;-69.216;-86.762;-15.981;-143.461;-51.633;-17.211;-24.699;-12.405
5446080.698;-59.418;-52.452;-7.898;-115.186;-47.050;-13.374;-20.005;-9.537
5446080.706;-51.074;-39.227;-0.335;-92.015;-36.359;-0.782;-5.774;-1.118
5446080.714;-56.885;-51.260;-5.476;-102.706;-41.239;-1.974;-3.017;-3.353
5446080.722;-59.158;-62.771;-10.356;-122.227;-45.709;-1.900;-0.373;1.453
5446080.730;-57.444;-78.753;-10.915;-123.605;-40.568;-0.857;0.000;5.402
5446080.738;-57.481;-52.042;-10.058;-107.735;-41.276;-7.637;-8.233;-4.359
5446080.746;-59.642;-50.850;-12.629;-103.712;-40.382;-3.055;-4.247;-1.192
5446080.754;-60.834;-58.375;-13.895;-112.094;-39.451;-3.688;-5.811;-1.043
5446080.762;-61.691;-59.940;-17.211;-116.825;-40.904;-5.029;-7.190;-3.316
5446080.770;-54.613;-56.587;-8.345;-113.547;-33.490;-5.476;-8.531;-2.421
5446080.778;-39.414;-38.780;5.625;-92.387;-18.850;0.708;-1.602;5.774
5446080.786;-41.761;-40.382;1.118;-92.089;-24.252;-3.465;-6.296;4.508
5446080.781;-46.529;-45.262;-7.600;-101.514;-34.347;-11.325;-14.193;-6.221
5446080.789;-54.687;-64.075;-15.497;-116.304;-40.270;-14.231;-17.807;-12.927
5446080.797;-60.834;-77.933;-21.420;-144.355;-41.127;-7.264;-12.442;-8.531
5446080.805;-46.864;-29.616;-9.462;-98.422;-35.241;2.310;-2.272;-0.186
5446080.813;-47.497;-29.765;-13.895;-87.284;-39.376;-4.284;-7.078;-6.035
5446080.821;-33.081;-26.822;12.144;-102.185;-15.609;-6.184;-8.494;-7.302
5446080.829;-25.257;-17.807;29.355;-88.811;-4.731;-1.676;-4.619;-1.378
5446080.837;-38.520;-37.886;12.815;-97.789;-14.976;-3.874;-9.313;-1.490
5446080.845;-54.017;-53.979;-3.502;-127.219;-27.940;0.969;-7.413;1.676
5446080.853;-71.265;-83.968;-21.644;-141.710;-46.268;-1.974;-9.499;-5.253
5446080.861;-70.110;-79.162;-23.618;-162.087;-42.170;3.986;-2.570;4.843
5446080.869;-31.441;-6.370;24.661;-126.660;-12.852;6.706;0.857;10.617
5446080.877;-4.061;40.978;64.448;-46.715;4.433;-1.788;-4.247;-6.035
5446080.885;-21.346;15.348;48.429;-71.563;-1.341;-12.070;-14.044;-13.188
5446080.893;-27.716;10.245;38.259;-95.963;-7.823;-9.127;-12.778;-6.855
5446080.901;-40.345;-9.798;30.547;-119.433;-13.374;6.407;3.800;5.923
5446080.909;-64.299;-27.567;24.028;-140.667;-21.122;2.384;-3.390;0.000
5446080.917;-51.223;-8.196;36.210;-151.470;-22.836;10.878;2.570;12.331
5446080.925;-51.782;2.533;40.419;-162.795;-25.891;12.890;4.470;15.795
5446080.933;-51.334;50.701;39.563;-124.797;-38.520;9.499;-0.224;14.566
5446080.941;-59.828;32.745;48.913;-168.607;-39.265;10.319;-1.118;14.417
5446080.949;-6.184;95.032;119.768;-127.070;15.646;27.381;16.019;34.906
5446080.957;-8.196;102.557;138.655;-106.953;16.801;27.381;11.809;37.476
5446080.965;-37.514;82.627;113.919;-148.676;-17.695;10.319;1.527;8.047
5446080.917;-37.178;92.238;124.499;-165.142;-21.681;21.979;12.927;22.911
5446080.925;-33.006;108.108;145.957;-162.385;-16.913;32.373;18.440;38.333
5446080.933;-35.167;115.559;154.376;-165.738;-23.432;34.496;26.114;39.861
5446080.941;-2.794;153.407;195.131;-153.929;1.453;61.244;49.546;76.555
5446080.949;-15.385;143.424;196.137;-174.455;-9.462;42.282;22.762;63.255
5446080.957;-44.182;112.765;176.840;-207.908;-43.064;4.061;-13.262;8.196
5446080.965;-40.159;111.982;187.792;-220.574;-42.133;6.184;-3.614;12.107
5446080.973;-28.983;121.370;205.487;-212.453;-36.918;22.836;13.262;33.937
5446080.981;-5.066;142.008;232.868;-191.592;-25.034;52.303;42.915;65.193
5446080.989;9.798;150.427;250.749;-184.141;-12.331;70.296;61.914;86.203
5446080.997;15.683;147.149;261.292;-189.207;-5.849;70.967;61.877;85.160
5446081.005;13.188;135.154;261.962;-198.670;-11.064;62.399;52.452;70.147
5446081.013;16.131;128.597;266.619;-200.719;-12.852;63.181;54.762;71.861
5446081.021;42.915;143.237;291.690;-176.318;2.198;79.088;73.463;86.203
5446081.029;66.049;154.600;318.550;-158.139;20.117;90.413;85.048;98.869
5446081.037;88.997;166.260;345.744;-139.587;41.500;101.663;97.863;114.627
5446081.045;98.906;164.285;359.304;-134.408;50.217;111.312;108.406;132.248
5446081.053;108.033;163.428;371.188;-127.554;57.705;128.597;125.319;148.676
5446081.061;94.250;146.367;356.883;-127.926;39.339;115.484;113.845;129.677
5446081.069;95.479;144.765;356.063;-115.633;34.571;109.971;107.177;126.176
5446081.077;104.494;148.565;363.290;-101.551;37.625;116.453;114.553;134.557
5446081.085;120.699;161.417;379.011;-79.423;51.036;132.844;134.148;148.974
5446081.093;133.179;171.363;389.777;-58.413;60.126;140.928;141.971;160.187
5446081.101;133.067;167.713;385.009;-50.776;56.438;134.856;135.377;156.946
5446081.054;122.413;154.600;370.182;-55.358;40.233;116.788;120.625;134.595
5446081.062;117.272;147.298;365.227;-53.868;34.086;109.263;117.645;131.689
5446081.070;131.801;157.245;383.109;-33.751;56.140;127.368;137.277;154.674
5446081.078;143.461;165.999;396.818;-16.056;69.924;141.673;148.639;169.054
5446081.086;155.009;177.026;407.584;4.470;79.125;142.604;149.347;168.718
5446081.094;138.544;161.566;389.516;0.112;60.461;123.829;129.715;149.608
5446081.102;138.357;159.182;389.628;7.600;63.665;125.803;130.199;157.394
5446081.110;153.817;170.432;404.418;24.661;80.615;137.128;142.381;162.199
5446081.118;164.099;178.702;412.874;44.033;90.785;145.026;149.757;167.936
5446081.126;179.149;192.150;428.259;65.416;111.237;165.664;168.160;194.535
5446081.134;171.736;184.886;419.952;67.875;107.735;167.489;171.848;190.958
5446081.142;168.160;181.906;411.086;74.953;102.632;164.844;172.853;182.278
5446081.150;176.504;189.655;415.444;91.195;112.616;168.942;178.069;191.815
5446081.158;163.093;174.008;399.686;82.478;103.526;157.170;163.876;190.474
5446081.166;157.543;165.999;391.491;81.770;102.296;150.539;156.425;188.798
5446081.174;160.448;167.713;392.608;90.562;105.500;140.965;145.137;177.287
5446081.182;159.927;166.781;390.746;93.468;105.761;143.088;147.484;179.708
5446081.190;172.481;177.324;400.618;109.710;121.035;147.745;153.556;186.600
5446081.198;175.573;179.186;397.898;118.501;121.407;139.549;145.026;177.510
5446081.206;171.512;173.226;391.528;117.682;118.501;136.420;141.114;174.344
5446081.214;168.085;169.277;387.691;121.295;120.066;136.420;140.369;171.177
5446081.222;182.949;183.210;401.549;142.492;137.128;147.820;154.711;182.055
5446081.230;168.197;168.011;383.370;135.340;121.295;127.964;137.426;164.248
5446081.238;175.424;175.908;387.877;152.178;130.720;132.211;143.349;169.016
5446081.232;176.020;175.163;388.063;154.488;137.277;130.609;140.741;167.005
5446081.240;165.738;164.174;376.552;146.516;132.360;127.293;131.167;164.285
5446081.248;156.201;154.786;364.073;143.386;124.797;114.366;115.260;150.427
5446081.256;161.715;161.678;364.482;156.909;127.889;114.515;116.602;146.516
5446081.264;162.274;161.380;361.130;162.050;129.938;109.188;110.455;143.498
5446081.272;156.127;154.711;351.295;157.021;124.052;101.477;105.239;133.514
5446081.280;139.810;137.910;334.457;139.661;109.710;89.146;93.728;114.664
5446081.288;126.809;123.754;318.438;133.514;97.528;84.825;85.309;110.231
5446081.296;121.742;117.384;308.976;131.540;95.032;82.888;77.747;112.839
5446081.304;121.556;116.266;307.709;132.620;100.955;86.203;80.317;117.384
5446081.312;117.645;112.392;302.978;133.030;100.508;81.845;76.108;109.076
5446081.320;119.694;114.515;302.158;139.400;104.010;79.386;75.400;104.494
5446081.328;119.433;113.957;296.570;144.094;101.328;71.414;66.496;95.814
5446081.336;116.006;110.529;289.008;144.169;98.534;68.024;60.312;94.958
5446081.344;112.578;104.904;282.265;140.667;97.565;66.049;57.891;93.579
5446081.352;113.882;104.606;280.850;140.816;97.267;62.846;56.513;91.232
5446081.360;106.953;97.454;269.376;136.085;89.072;52.266;48.168;78.976
5446081.368;84.601;75.512;244.640;115.521;70.855;30.510;26.934;49.323
5446081.376;86.613;78.380;245.199;121.035;76.070;37.029;29.318;58.748
5446081.384;84.974;75.959;240.020;123.158;74.394;45.039;35.055;66.869
5446081.392;84.229;74.878;234.917;125.282;72.531;49.733;38.482;71.377
5446081.400;81.249;74.022;228.621;125.654;70.743;49.360;37.365;69.886
5446081.408;85.421;78.343;229.664;132.099;74.655;56.066;44.703;67.763
5446081.416;81.249;73.314;222.027;128.746;71.675;56.103;43.660;66.012
5446081.457;72.345;62.734;208.765;119.656;65.491;53.458;37.439;69.179
5446081.465;74.171;62.883;207.350;121.221;70.184;56.587;40.345;73.388
5446081.473;66.906;54.054;197.329;113.063;64.075;45.188;29.020;57.071
5446081.481;64.708;51.036;189.692;108.071;59.418;41.500;23.767;52.117
5446081.489;72.047;57.854;192.784;114.106;70.259;51.670;29.542;64.224
5446081.497;66.161;51.446;183.173;110.641;68.545;44.927;20.601;64.746
5446081.505;76.555;61.914;186.339;120.811;75.437;46.752;23.693;68.285
5446081.513;71.153;55.954;173.226;114.366;64.187;34.720;14.044;41.388
5446081.521;80.429;64.448;179.373;124.536;75.921;49.025;26.263;52.862
5446081.529;74.208;57.556;168.569;117.198;69.812;53.793;29.579;54.725
5446081.537;66.832;50.217;156.350;111.610;61.430;54.277;30.771;52.862
5446081.545;75.102;58.487;160.299;119.172;71.004;61.244;40.159;59.716
5446081.553;74.357;56.587;156.090;115.596;69.514;59.642;37.253;64.708
5446081.561;85.048;65.565;160.709;122.078;76.741;65.193;40.196;74.953
5446081.569;104.681;85.011;176.765;142.157;98.795;80.355;54.911;89.332
5446081.577;106.506;87.880;174.083;147.671;95.740;84.676;60.424;87.209
5446081.585;107.959;89.519;168.644;147.372;91.791;79.311;54.836;79.982
5446081.593;118.725;100.359;174.455;157.207;99.540;94.809;66.757;88.066
5446081.601;107.549;90.189;159.666;148.080;87.172;85.086;55.581;77.970
5446081.609;117.198;99.093;166.669;157.319;97.565;94.846;65.900;91.381
5446081.617;119.433;101.663;167.191;159.293;99.614;94.511;63.069;91.977
5446081.625;116.974;100.397;161.268;157.245;95.665;91.232;58.003;93.430
5446081.633;107.437;89.854;147.969;148.118;83.335;81.360;49.286;81.100
5446081.641;120.923;102.930;159.591;162.870;99.726;94.809;64.969;92.983
5446081.667;120.588;103.861;155.643;163.503;99.838;91.530;63.144;87.768
5446081.675;123.829;106.171;154.190;166.148;102.483;91.605;66.049;78.939
5446081.683;128.374;109.188;155.903;170.320;108.518;96.224;71.526;80.317
5446081.691;129.081;108.704;154.227;170.879;107.177;96.299;68.806;83.074
5446081.699;120.029;98.161;143.386;156.872;97.305;80.392;51.558;72.643
5446081.707;121.593;100.359;141.934;156.127;101.477;73.090;44.331;65.193
5446081.715;126.362;105.612;147.149;165.440;113.025;77.784;50.515;70.669
5446081.723;119.656;97.007;139.102;159.405;109.263;75.698;47.907;72.122
5446081.731;119.843;96.485;135.899;160.597;106.096;78.380;51.372;73.835
5446081.739;123.419;100.657;136.867;162.087;109.226;83.745;54.799;71.973
5446081.747;127.330;102.259;139.475;161.305;120.960;84.154;54.613;69.700
5446081.755;121.891;95.852;132.583;152.700;118.390;78.604;47.125;67.204
5446081.763;116.080;89.668;123.829;148.378;113.547;76.368;43.660;62.101
5446081.771;106.581;79.274;112.019;141.151;105.612;71.786;39.898;55.954
5446081.779;111.423;83.745;113.398;144.057;110.343;75.512;45.635;57.966
5446081.787;120.662;92.946;118.464;152.215;115.931;88.401;59.344;70.892
5446081.795;120.513;92.238;114.627;157.915;115.745;91.605;62.026;70.147
5446081.803;118.054;90.115;112.206;153.966;119.507;88.699;58.077;65.304
5446081.811;122.413;94.362;113.621;160.336;122.823;89.183;59.903;65.938
5446081.819;123.493;94.064;109.933;163.391;122.748;87.023;57.779;65.044
5446081.827;116.229;87.284;98.757;153.035;113.957;83.372;51.670;62.846
5446081.835;112.914;86.389;91.381;155.196;108.667;84.601;52.974;61.430
5446081.843;110.678;83.558;86.315;150.055;108.369;83.074;54.613;53.272
5446081.851;112.988;85.868;88.438;151.731;111.423;86.874;58.971;59.493
5446081.831;121.035;93.281;95.293;159.852;125.132;88.736;59.344;64.336
5446081.839;120.290;92.126;93.319;158.846;129.119;84.117;55.321;62.287
5446081.847;128.113;101.067;97.007;170.507;132.881;91.009;62.473;69.067
5446081.855;131.465;106.506;94.548;173.822;128.150;93.654;66.869;65.826
5446081.863;129.268;105.053;90.152;170.320;125.319;94.026;68.620;64.708
5446081.871;136.085;110.455;98.683;174.306;136.010;101.253;77.598;72.680
5446081.879;138.842;110.902;99.987;173.636;136.718;100.471;78.268;70.296
5446081.887;131.242;102.818;90.785;164.695;124.052;90.525;70.073;64.708
5446081.895;129.566;100.508;88.699;162.087;126.995;84.974;64.075;59.418
5446081.903;127.181;100.732;86.091;162.981;125.431;83.260;59.716;58.413
5446081.911;122.637;94.287;82.478;155.047;120.364;84.601;59.940;62.287
5446081.919;140.890;111.312;100.434;171.512;138.581;107.475;84.192;85.123
5446081.927;133.067;107.288;91.903;168.458;129.603;102.744;83.968;71.973
5446081.935;117.533;91.381;77.039;156.872;114.329;85.533;64.895;56.624
5446081.943;119.805;94.585;80.019;161.119;118.949;80.653;61.579;56.215
5446081.951;131.615;106.655;91.642;170.246;128.970;78.045;60.797;52.862
5446081.959;144.839;119.656;105.537;182.837;138.991;77.933;60.461;57.854
5446081.967;169.761;145.659;132.993;205.636;163.913;85.942;64.448;69.737
5446081.975;190.027;168.867;155.494;224.598;184.998;83.856;60.871;65.900
5446081.983;217.445;201.836;182.874;253.804;198.334;86.427;65.193;64.373
5446081.991;256.300;242.144;222.065;285.618;228.509;88.066;69.030;65.230
5446081.999;291.318;279.434;256.374;314.116;257.045;89.929;72.569;65.863
5446082.007;316.761;307.374;280.514;338.629;273.772;93.691;79.051;70.594
5446082.015;333.413;325.367;294.857;352.599;281.148;91.717;77.523;65.342
5446082.023;329.725;319.891;290.237;344.589;278.167;81.472;66.720;54.948
5446082.031;319.779;307.895;274.479;333.786;266.880;82.925;66.869;61.840
5446082.039;291.988;276.119;243.075;309.497;240.207;81.249;61.356;63.851
5446082.047;270.382;260.770;217.557;288.002;222.959;80.690;58.636;62.436
5446082.073;251.681;244.826;196.099;277.497;204.891;73.239;52.527;55.358
5446082.081;236.705;227.354;182.167;261.851;201.426;70.259;49.658;49.286
5446082.089;218.041;207.424;162.274;241.883;192.374;72.829;54.576;48.354
5446082.097;200.868;187.270;142.008;225.753;175.089;77.784;61.728;50.999
5446082.105;175.163;154.637;114.217;196.919;149.459;73.016;58.338;47.535
5446082.113;162.423;146.851;96.560;186.414;136.606;71.600;61.616;44.443
5446082.121;140.630;121.631;73.165;161.678;118.017;59.232;45.784;32.000
5446082.129;120.252;96.932;53.532;138.134;103.675;51.819;31.292;32.708
5446082.137;111.610;86.464;45.225;132.099;99.130;56.364;33.341;36.210
5446082.145;105.686;79.386;38.072;126.250;91.493;61.095;39.935;39.302
5446082.153;92.089;64.820;21.905;110.120;75.437;56.028;36.694;29.653
5446082.161;74.320;46.082;3.763;92.909;67.130;48.727;28.387;15.981
5446082.169;74.394;45.709;4.731;94.213;72.159;58.971;38.035;25.779
5446082.177;56.773;28.126;-12.890;77.188;55.209;51.558;29.579;20.079
5446082.185;50.738;20.936;-19.073;73.239;47.535;58.748;37.104;26.152
5446082.193;49.435;17.285;-21.718;71.488;44.182;57.928;36.769;27.418
5446082.201;57.705;25.965;-14.529;75.661;48.317;55.060;34.384;24.326
5446082.209;63.740;31.963;-6.706;80.988;60.126;61.058;44.443;33.267
5446082.217;54.613;22.538;-17.062;72.531;56.922;53.048;37.737;30.734
5446082.225;46.380;15.497;-28.089;66.832;46.641;48.913;31.255;29.691
5446082.233;41.127;9.723;-33.937;60.908;38.631;43.921;31.590;27.604
5446082.241;41.611;10.431;-31.963;55.879;42.506;46.603;34.720;33.230
5446082.249;29.579;0.373;-43.996;49.993;32.857;37.402;27.046;15.497
5446082.257;32.596;3.427;-40.792;57.667;37.923;43.064;30.138;21.234
5446082.267;35.129;6.631;-40.047;61.393;36.173;47.311;32.857;20.675
5446082.275;22.948;-7.264;-52.005;45.300;19.297;37.253;22.948;9.909
5446082.283;37.439;3.390;-36.061;57.481;44.294;49.956;34.869;27.642
5446082.291;38.855;6.072;-34.571;55.321;47.833;50.813;37.439;32.075
5446082.299;28.312;-3.912;-46.678;47.870;33.379;43.847;31.590;26.561
5446082.307;30.659;-2.682;-43.586;54.501;35.428;49.099;39.339;30.100
5446082.315;31.739;-2.570;-44.182;53.719;32.783;45.784;36.098;30.659
5446082.323;38.408;4.247;-39.153;61.169;33.304;43.958;34.496;28.312
5446082.331;43.400;8.047;-33.379;64.634;40.643;43.884;35.241;26.152
5446082.339;44.033;6.706;-29.765;61.728;45.858;44.852;37.029;26.263
5446082.347;46.976;10.729;-28.312;64.038;44.703;43.847;37.551;22.054
5446082.355;44.294;7.376;-33.230;60.350;39.004;41.164;32.820;18.440
5446082.363;54.389;19.297;-24.848;71.861;48.578;51.893;42.617;29.877
5446082.371;53.905;19.521;-25.444;73.873;52.638;53.048;42.431;33.863
5446082.379;48.801;15.087;-31.888;68.843;43.064;50.515;39.116;35.539
5446082.387;54.799;21.122;-23.618;76.480;52.564;51.111;40.866;38.669
5446082.395;61.505;26.785;-17.546;81.696;60.312;52.452;43.847;40.345
5446082.403;63.144;26.971;-17.732;82.813;63.367;51.185;42.468;41.053
5446082.411;68.024;33.230;-14.789;86.017;66.310;50.850;43.251;37.663
5446082.419;74.469;40.941;-9.239;90.972;70.371;52.415;44.219;37.476
5446082.427;61.281;26.226;-23.060;77.374;51.446;41.574;30.473;23.022
5446082.435;69.737;33.565;-14.417;83.111;63.367;47.795;34.831;33.304
5446082.443;74.692;37.923;-9.462;82.888;70.594;49.397;36.471;34.645
5446082.451;82.590;46.715;-2.123;97.565;74.059;52.936;42.394;34.869
5446082.462;93.691;59.009;6.147;110.045;78.753;59.232;51.148;40.755
5446082.470;82.590;49.658;-3.204;99.316;70.333;51.856;40.457;34.273
5446082.478;80.988;45.896;-2.980;95.144;72.531;51.036;41.462;38.706
5446082.486;82.888;44.890;2.608;91.046;77.412;47.088;37.476;32.037
5446082.494;92.983;56.811;14.082;105.128;84.378;53.979;43.958;38.035
5446082.502;83.037;48.503;2.906;97.305;72.755;47.833;39.861;29.467
5446082.510;65.342;30.361;-11.921;77.225;59.977;44.778;37.476;27.679
5446082.518;40.084;2.980;-32.187;53.532;34.794;34.347;27.567;21.607
5446082.526;33.937;-3.166;-32.969;49.286;37.663;37.551;29.318;23.581
5446082.534;29.914;-7.339;-33.602;44.741;39.563;34.310;26.748;20.303
5446082.542;27.493;-11.325;-33.937;43.772;36.061;34.012;26.114;19.409
5446082.550;28.722;-6.631;-32.745;46.752;33.639;37.327;27.269;21.495
5446082.558;25.854;-12.442;-35.986;41.090;25.891;36.247;24.959;21.718
5446082.566;29.244;-9.090;-31.888;45.449;29.840;39.414;29.020;20.489
5446082.574;31.106;-1.192;-29.579;52.713;29.616;46.007;36.955;27.046
5446082.582;11.958;-17.546;-47.423;34.980;7.711;34.273;27.269;13.970
5446082.590;30.696;-2.757;-27.940;46.492;29.244;31.777;24.438;14.305
5446082.598;62.585;28.871;1.416;76.368;57.556;46.901;40.792;26.748
5446082.606;75.139;42.468;12.368;86.017;63.144;48.541;45.821;24.885
5446082.614;75.884;38.818;11.697;77.672;60.871;46.454;43.027;22.873
5446082.622;70.743;32.037;6.668;68.471;56.773;40.680;34.682;17.695
5446082.630;79.125;42.655;16.131;79.796;69.179;46.194;40.159;29.542
5446082.638;77.151;42.953;16.168;85.719;71.190;51.744;48.168;39.600
5446082.646;57.854;22.426;-1.416;64.485;56.252;33.751;31.628;21.830
5446082.642;48.392;11.250;-9.872;54.091;49.509;31.106;30.957;16.205
5446082.650;38.669;-0.484;-16.317;43.474;42.208;30.026;28.908;14.454
5446082.658;40.270;4.098;-14.454;50.254;41.276;38.855;38.818;22.650
5446082.666;39.451;4.470;-14.566;51.148;47.274;38.818;37.998;27.008
5446082.674;35.912;1.267;-19.334;48.652;46.045;34.906;32.149;27.120
5446082.682;28.834;-4.061;-26.077;42.394;37.439;34.869;32.373;28.163
5446082.690;27.306;-4.694;-29.355;42.059;35.092;37.886;36.135;30.585
5446082.698;24.773;-5.998;-30.994;40.829;33.677;41.462;39.190;35.539
5446082.706;23.879;-5.811;-31.665;43.921;28.871;34.682;34.906;30.324
5446082.714;31.590;2.235;-24.177;51.036;35.614;25.891;25.779;17.844
5446082.722;44.703;16.354;-9.499;60.983;50.142;21.085;20.042;11.735
5446082.730;64.708;41.462;7.786;84.080;61.467;18.515;19.595;7.451
5446082.738;108.592;89.630;51.670;128.448;97.789;26.301;28.573;15.758
5446082.746;161.640;143.275;108.033;170.507;145.808;31.330;34.124;23.022
5446082.754;200.532;185.780;149.049;206.046;180.192;41.984;43.660;38.818
5446082.762;226.982;218.563;173.710;234.805;194.497;42.394;41.351;38.072
5446082.770;245.795;239.126;190.437;249.781;203.438;40.308;39.265;35.949
5446082.778;245.385;237.450;189.804;244.193;199.527;31.814;32.857;26.003
5446082.786;231.564;221.878;176.020;227.727;186.190;20.936;23.060;16.540
5446082.794;217.333;207.648;159.033;215.434;178.516;22.054;23.656;18.813
5446082.802;210.293;200.458;147.074;213.496;171.699;35.502;36.024;33.751
5446082.810;177.212;169.054;110.380;185.221;138.283;22.762;24.773;20.117
5446082.818;151.843;143.610;82.776;158.623;119.843;18.440;18.924;11.809
5446082.826;139.922;134.036;67.912;152.476;109.784;27.046;29.430;18.179
5446082.791;117.384;110.716;43.511;132.062;90.785;21.681;25.295;12.368
5446082.799;99.540;89.854;25.444;113.621;77.672;14.417;18.217;5.588
5446082.807;92.797;77.114;19.409;101.253;80.653;15.572;19.073;7.413
5446082.815;86.911;70.110;10.468;97.342;73.537;23.097;27.232;14.268
5446082.823;72.122;54.762;-3.241;82.105;68.694;17.621;22.240;13.374
5446082.831;57.518;39.525;-19.334;67.614;59.120;22.948;24.661;22.016
5446082.839;51.297;32.596;-26.375;66.198;54.128;34.012;32.187;27.232
5446082.847;44.033;24.401;-33.937;55.805;47.348;32.261;28.834;19.632
5446082.855;37.737;18.030;-41.202;52.191;44.629;29.802;25.220;17.136
5446082.863;31.218;10.356;-48.764;44.890;43.251;30.287;25.257;16.615
5446082.871;21.532;0.298;-60.089;36.322;35.726;29.951;23.581;13.039
5446082.879;16.615;-6.035;-65.602;28.461;34.161;33.975;27.344;16.205
5446082.887;13.895;-11.101;-67.614;20.787;34.198;34.422;29.057;22.501
5446082.895;-6.855;-31.888;-88.513;0.484;12.070;13.150;9.425;2.421
5446082.903;-4.917;-28.573;-89.146;5.178;16.913;9.313;6.072;6.407
5446082.911;3.390;-20.228;-79.051;9.723;32.075;12.740;13.225;8.941
5446082.919;-14.901;-39.898;-95.293;-11.213;18.142;-4.172;-3.017;-8.568
5446082.927;-9.052;-33.788;-90.003;-5.253;20.675;0.633;0.633;-6.221
5446082.935;-0.708;-25.034;-79.721;2.198;33.043;13.039;13.448;0.484
5446082.943;-0.447;-26.748;-83.521;-0.224;28.238;15.050;14.640;-3.092
5446082.951;-4.768;-29.542;-89.072;-3.055;21.346;15.385;11.362;-1.714
5446082.959;2.719;-21.122;-79.572;3.092;33.006;27.530;21.495;8.717
5446082.967;1.118;-21.607;-78.082;-2.943;33.863;30.659;23.805;15.981
5446082.975;14.007;-11.288;-62.399;6.333;50.403;36.396;31.553;22.575
5446083.002;15.534;-12.107;-57.593;7.078;53.495;32.000;26.226;20.675
5446083.010;-0.522;-28.461;-69.626;-10.952;32.447;16.987;10.952;7.302
5446083.018;-0.522;-27.083;-71.637;-10.952;28.722;15.311;11.586;5.066
5446083.026;-2.012;-27.865;-72.531;-10.245;34.161;9.723;7.562;-6.147
5446083.034;-16.578;-44.033;-81.584;-25.630;26.189;2.533;-1.043;-13.784
5446083.042;-23.507;-48.801;-86.799;-32.522;18.105;8.345;3.017;-4.880
5446083.050;-18.105;-41.015;-82.515;-23.730;21.271;15.683;11.548;1.192
5446083.058;-17.360;-41.872;-80.019;-25.257;21.234;15.348;10.952;-0.931
5446083.066;-20.601;-45.523;-80.876;-29.653;17.956;5.327;0.820;-9.611
5446083.074;-16.652;-40.606;-75.661;-25.667;24.326;7.823;2.272;-3.465
5446083.082;-16.205;-39.674;-75.325;-27.232;23.954;5.849;2.757;-0.484
5446083.090;-25.071;-49.211;-85.235;-39.227;9.909;-10.431;-11.437;-19.744
5446083.098;-26.226;-48.317;-84.676;-37.588;7.451;-8.270;-11.288;-19.260
5446083.106;-20.824;-44.368;-79.237;-32.894;11.399;-1.043;-5.439;-12.554
5446083.114;-12.852;-35.614;-68.769;-26.040;23.134;5.178;1.900;-8.233
5446083.122;-5.998;-27.008;-59.269;-20.079;37.141;8.382;6.892;-3.241
5446083.130;-5.141;-27.232;-59.083;-17.658;33.230;8.568;7.898;-0.745
5446083.138;-10.282;-31.143;-65.863;-22.724;21.122;6.743;6.072;-2.012
5446083.146;-11.325;-29.728;-68.843;-21.309;17.174;6.631;7.115;-5.662
5446083.154;-27.567;-44.405;-83.297;-34.273;5.700;-2.682;-1.006;-13.746
5446083.162;-20.340;-39.041;-75.325;-29.281;17.248;10.319;12.778;-3.614
5446083.170;-14.752;-33.602;-71.228;-26.599;20.936;15.944;17.583;2.272
5446083.178;-20.452;-35.129;-80.392;-30.138;12.778;5.886;7.190;-7.004
5446083.186;-23.432;-40.606;-90.338;-33.677;2.459;-4.731;-5.476;-17.770
5446083.348;-16.727;-36.433;-83.372;-29.355;8.754;-1.676;-2.049;-15.907
5446083.356;24.587;4.768;-39.898;6.147;48.056;21.532;23.134;4.321
5446083.364;37.104;16.317;-24.438;13.374;57.556;19.372;22.538;0.969
5446083.372;29.616;8.829;-35.577;5.066;46.156;6.109;9.276;-8.345
5446083.380;30.510;10.096;-36.098;5.737;48.988;3.427;7.339;-8.456
5446083.388;42.506;21.309;-21.867;16.205;62.659;18.403;21.383;7.786
5446083.396;37.029;16.131;-27.046;11.511;53.383;15.199;16.131;4.098
5446083.404;40.196;17.323;-21.867;9.462;61.467;22.911;25.406;13.933
5446083.412;30.436;7.451;-31.143;-1.788;53.570;21.495;23.656;14.789
5446083.420;15.125;-6.445;-47.535;-15.683;39.563;11.474;12.219;0.298
5446083.428;11.697;-9.164;-51.558;-16.578;33.788;10.990;11.697;0.075
5446083.436;-0.410;-19.856;-64.112;-23.656;21.867;9.052;11.846;-2.384
5446083.444;-22.240;-42.468;-84.825;-44.964;-0.559;-3.092;-0.447;-13.225
5446083.452;-15.721;-35.129;-79.311;-38.520;1.416;4.545;7.860;-3.129
5446083.460;-19.222;-37.886;-80.913;-40.382;7.004;0.782;3.390;-4.433
5446083.468;-26.859;-41.574;-87.880;-42.059;-3.800;-6.631;-3.353;-12.442
5446083.476;-26.338;-41.239;-85.719;-42.617;1.155;-7.674;-3.725;-15.274
5446083.484;-23.358;-39.749;-83.335;-39.600;4.619;-6.296;-2.086;-10.543
5446083.492;-32.298;-47.050;-94.473;-52.080;-8.047;-15.981;-11.511;-18.403
5446083.500;-31.181;-44.778;-93.356;-49.919;-5.290;-19.372;-16.280;-22.501
5446083.508;-29.430;-42.021;-92.611;-46.976;-6.445;-18.850;-15.087;-25.220
5446083.516;-19.856;-34.496;-84.303;-40.755;-1.378;-8.643;-3.055;-17.844
5446083.524;-21.122;-37.774;-86.688;-43.288;-2.310;-8.419;-2.049;-16.205
5446083.532;-26.636;-43.847;-92.760;-48.727;-8.158;-9.201;-4.321;-12.927
5446083.587;-31.553;-46.417;-95.181;-51.223;-17.546;-10.245;-6.072;-14.640
5446083.595;-39.786;-53.197;-103.526;-60.163;-16.317;-17.770;-13.635;-23.656
5446083.603;-44.517;-57.854;-109.673;-64.485;-19.632;-22.799;-16.950;-27.530
5446083.611;-38.669;-51.148;-104.047;-55.060;-12.815;-16.466;-13.374;-18.999
5446083.619;-31.553;-46.045;-98.087;-52.117;-5.588;-6.966;-7.078;-7.972
5446083.627;-38.669;-54.799;-104.234;-59.754;-10.617;-10.133;-10.505;-9.388
5446083.635;-25.779;-39.302;-94.287;-45.225;-0.522;-0.708;-1.974;-2.347
5446083.643;-25.444;-38.147;-99.689;-48.541;-6.184;-6.407;-7.637;-14.231
5446083.651;-30.063;-41.462;-106.618;-49.546;-15.795;-18.217;-16.205;-30.510
5446083.659;-24.997;-35.875;-102.371;-44.666;-12.331;-25.369;-19.595;-36.284
5446083.667;-5.290;-17.658;-83.186;-30.398;2.757;-11.101;-4.694;-18.664
5446083.675;4.731;-10.058;-71.563;-25.108;22.389;-4.731;-2.831;-13.970
5446083.683;9.611;-4.731;-64.857;-20.154;29.206;-0.075;0.410;-6.407
5446083.691;13.337;-1.751;-59.865;-15.981;28.089;1.788;0.671;-1.714
5446083.699;13.113;-2.421;-58.264;-17.807;28.349;0.000;-2.421;-3.986
5446083.707;13.895;-1.192;-55.693;-18.477;34.310;3.316;1.416;1.937
5446083.715;13.672;-2.310;-55.470;-19.521;32.298;4.023;3.241;-2.086
5446083.723;5.774;-12.144;-62.473;-31.851;19.372;-12.070;-12.293;-22.277
5446083.731;11.809;-4.321;-56.103;-25.034;22.687;-8.233;-7.227;-17.136
5446083.739;22.426;5.327;-40.941;-13.411;34.943;5.178;2.459;-1.416
5446083.747;17.211;2.086;-44.294;-18.068;32.224;-3.390;-8.456;-12.256
5446083.755;13.672;0.410;-46.343;-20.936;29.132;-6.631;-9.462;-14.789
5446083.763;5.960;-8.009;-52.080;-29.095;16.242;-10.170;-10.356;-14.454
5446083.771;7.413;-4.210;-48.429;-25.332;16.503;-9.462;-7.153;-11.250
5446083.767;13.709;0.857;-38.370;-22.016;30.510;-2.310;1.378;-5.960
5446083.775;14.678;-1.378;-35.763;-19.446;33.006;4.172;6.892;-2.794
5446083.783;4.806;-17.062;-43.064;-30.100;20.415;3.129;4.247;-10.692
5446083.791;11.027;-11.437;-39.041;-20.750;20.415;8.382;7.302;-4.955
5446083.799;12.293;-9.090;-37.216;-22.165;11.660;7.339;4.768;-0.186
5446083.807;5.849;-18.068;-37.327;-32.298;18.179;2.086;1.341;-7.600
5446083.815;11.101;-14.827;-29.616;-27.977;30.510;9.723;10.766;-1.788
5446083.823;13.560;-9.090;-27.604;-20.973;24.661;6.072;8.233;-0.708
5446083.831;0.075;-22.091;-40.904;-36.322;7.935;-9.350;-9.164;-12.144
5446083.839;2.310;-18.515;-36.508;-32.671;14.454;-9.127;-10.803;-9.798
5446083.847;7.525;-13.299;-27.306;-25.518;22.613;-5.439;-4.210;-7.525
5446083.855;7.786;-13.150;-26.003;-26.338;19.446;-7.339;-5.700;-11.176
5446083.863;2.235;-17.770;-31.255;-31.963;12.480;-8.158;-4.619;-13.895
5446083.871;-5.327;-27.679;-37.700;-45.523;3.986;-18.850;-18.738;-21.420
5446083.879;-7.115;-28.387;-42.804;-47.646;-1.192;-21.905;-22.464;-23.991
5446083.887;-7.041;-29.169;-43.400;-47.572;-2.533;-19.483;-18.589;-22.091
5446083.895;-4.657;-22.836;-41.388;-39.116;1.043;-16.205;-13.262;-20.713
5446083.903;-3.539;-20.266;-39.563;-37.961;2.086;-14.827;-11.325;-15.721
5446083.911;-0.522;-18.366;-32.708;-34.496;5.960;-14.268;-11.437;-10.058
5446083.919;-15.087;-31.479;-46.566;-46.529;-8.903;-27.381;-25.779;-31.330
5446083.927;-3.204;-18.589;-36.396;-37.849;1.788;-18.850;-19.222;-23.209
5446083.935;6.780;-5.811;-24.587;-27.940;13.784;-17.546;-19.111;-23.432
5446083.943;14.044;1.490;-14.193;-20.750;22.277;-19.036;-18.254;-25.071
5446083.951;19.073;5.439;-7.972;-20.079;27.046;-22.836;-23.283;-25.965
5446083.933;35.800;27.567;8.047;3.688;41.574;-14.678;-14.938;-16.615
5446083.941;53.942;50.478;26.487;24.736;57.705;-10.505;-7.860;-14.007
5446083.949;77.002;76.741;45.672;48.280;68.769;-6.072;-1.825;-5.998
5446083.957;84.080;86.315;55.730;52.936;74.953;-12.480;-11.884;-13.076
5446083.965;89.891;95.852;61.914;56.811;74.916;-20.638;-18.366;-26.897
5446083.973;112.206;122.488;81.062;80.466;88.848;-14.752;-13.895;-20.228
5446083.981;140.928;155.345;109.114;106.022;113.137;-2.831;-1.155;-9.835
5446083.989;170.767;187.233;136.383;132.956;133.142;-4.731;-3.278;-12.219
5446083.997;174.567;189.729;142.083;129.454;133.403;-14.454;-12.666;-19.521
5446084.005;186.078;200.197;153.854;140.890;145.398;-10.170;-4.582;-15.385
5446084.013;194.460;204.295;160.746;147.745;156.201;-0.112;4.396;-2.645
5446084.021;172.406;179.596;135.303;124.797;129.044;-6.482;-3.017;-10.058
5446084.029;144.951;155.568;105.128;96.560;102.781;-15.125;-11.027;-20.191
5446084.037;125.132;140.592;84.974;85.607;97.118;-14.864;-11.437;-19.595
5446084.045;106.618;119.992;62.808;70.557;85.011;-17.062;-12.778;-21.346
5446084.053;86.315;98.385;43.660;52.229;65.789;-19.334;-16.354;-19.334
5446084.061;71.861;82.739;27.232;39.116;55.023;-13.597;-13.784;-9.984
5446084.069;58.785;65.677;11.772;24.214;48.988;-12.778;-12.033;-8.009
5446084.077;43.586;48.652;-4.545;11.995;37.588;-16.727;-13.709;-19.670
5446084.085;22.203;24.959;-25.257;-15.236;21.495;-23.060;-18.403;-27.455
5446084.093;13.448;15.683;-33.155;-23.283;17.770;-21.644;-15.832;-22.016
5446084.101;11.250;13.560;-38.184;-23.916;12.442;-15.385;-9.313;-15.423
5446084.109;5.662;7.972;-48.690;-26.524;2.831;-18.999;-16.317;-18.068
5446084.117;-3.651;-0.298;-58.673;-33.192;-5.662;-20.377;-18.515;-25.295
5446084.142;-6.780;-3.763;-61.579;-37.253;1.229;-10.654;-5.662;-20.973
5446084.150;-10.319;-9.723;-65.230;-40.717;0.373;-1.192;3.055;-11.474
5446084.158;-21.271;-21.346;-77.449;-51.223;-9.462;5.774;8.009;-9.537
5446084.166;-26.375;-27.716;-82.776;-55.730;-10.692;9.201;10.170;-7.078
5446084.174;-36.694;-38.780;-92.909;-64.969;-19.372;2.496;3.688;-13.113
5446084.182;-51.334;-53.160;-105.798;-79.311;-24.736;-9.388;-4.619;-21.830
5446084.190;-54.166;-53.123;-108.890;-80.653;-31.590;-15.721;-10.021;-24.661
5446084.198;-53.421;-49.211;-110.902;-77.188;-32.894;-21.085;-17.546;-26.189
5446084.206;-48.205;-44.927;-106.022;-76.406;-28.759;-18.999;-14.007;-21.793
5446084.214;-48.019;-47.684;-105.761;-75.959;-30.622;-18.589;-15.274;-18.552
5446084.222;-55.395;-55.619;-111.237;-82.739;-30.957;-22.277;-22.128;-25.816
5446084.230;-59.679;-57.742;-112.839;-83.074;-33.081;-21.420;-19.930;-27.195
5446084.238;-60.983;-59.381;-111.535;-84.527;-34.310;-15.385;-13.337;-21.122
5446084.246;-60.648;-58.487;-111.051;-83.856;-35.912;-6.631;-5.737;-12.331
5446084.254;-45.709;-39.116;-97.267;-67.353;-26.077;7.935;7.525;1.453
5446084.262;-42.282;-38.594;-91.456;-71.786;-19.930;2.831;1.714;-0.708
5446084.270;-58.264;-55.619;-102.893;-84.862;-30.287;-17.360;-12.890;-25.928
5446084.278;-66.534;-64.000;-108.145;-97.863;-35.614;-24.587;-18.626;-32.000
5446084.286;-63.404;-60.983;-104.122;-93.877;-33.937;-26.077;-20.675;-30.734
5446084.294;-62.771;-58.077;-103.824;-86.501;-34.533;-19.819;-16.391;-25.444
5446084.302;-63.069;-61.169;-105.314;-92.275;-36.322;-20.303;-18.440;-22.203
5446084.310;-63.777;-60.201;-104.196;-94.101;-39.861;-23.171;-18.552;-28.238
5446084.318;-59.716;-56.475;-96.671;-90.636;-33.192;-15.162;-9.127;-20.787
5446084.326;-64.708;-63.255;-100.695;-96.932;-37.812;-20.787;-17.844;-22.352
5446084.382;-65.044;-64.038;-100.955;-95.554;-37.029;-20.191;-19.893;-20.526
5446084.390;-71.824;-67.689;-105.575;-99.875;-40.904;-21.942;-21.309;-24.177
5446084.398;-77.039;-72.531;-107.139;-103.712;-45.151;-29.542;-25.705;-34.682
5446084.406;-70.594;-64.857;-101.179;-101.179;-41.537;-25.928;-17.956;-30.324
5446084.414;-69.141;-63.665;-100.844;-98.348;-42.319;-25.854;-18.701;-27.642
5446084.422;-75.884;-70.296;-104.122;-100.769;-46.529;-29.840;-25.406;-34.459
5446084.430;-77.821;-72.010;-105.500;-101.402;-45.560;-28.424;-23.283;-32.783
5446084.438;-69.812;-61.281;-101.253;-89.556;-39.972;-19.483;-13.262;-21.681
5446084.446;-71.861;-64.708;-102.185;-96.448;-42.282;-23.954;-18.552;-25.555
5446084.454;-78.194;-73.574;-108.033;-105.388;-52.378;-35.837;-28.573;-33.788
5446084.462;-77.337;-71.414;-106.916;-103.787;-46.305;-36.657;-28.498;-33.900
5446084.470;-77.300;-71.563;-109.673;-101.440;-48.429;-37.029;-28.871;-36.210
5446084.478;-67.614;-61.840;-100.359;-98.236;-43.958;-30.920;-21.532;-29.393
5446084.486;-65.602;-61.058;-94.362;-94.660;-40.270;-33.304;-23.507;-32.373
5446084.494;-71.786;-65.155;-98.795;-95.665;-41.537;-38.706;-29.542;-39.265
5446084.502;-80.056;-73.425;-107.139;-102.893;-52.489;-41.015;-31.553;-43.660
5446084.510;-87.470;-81.770;-114.925;-111.237;-61.169;-43.437;-34.235;-43.921
5446084.518;-81.398;-76.704;-108.257;-106.879;-48.988;-40.010;-31.069;-38.929
5446084.526;-85.942;-80.727;-112.243;-110.865;-51.260;-42.059;-32.485;-41.276
5446084.534;-85.942;-82.664;-111.535;-113.659;-51.931;-49.174;-42.170;-48.913
5446084.542;-79.200;-77.449;-104.420;-112.206;-43.996;-45.560;-43.325;-41.313
5446084.550;-75.921;-71.786;-102.371;-104.345;-41.686;-43.660;-39.563;-37.849
5446084.558;-79.349;-73.314;-109.226;-101.179;-49.733;-37.812;-33.267;-33.751
5446084.566;-79.349;-75.027;-104.345;-104.345;-39.898;-37.812;-30.883;-36.247
5446084.546;-78.157;-73.537;-102.185;-107.288;-40.755;-48.093;-36.582;-46.380
5446084.554;-77.225;-73.202;-102.706;-104.420;-42.282;-48.727;-33.006;-46.752
5446084.562;-73.314;-70.669;-98.385;-99.652;-37.886;-43.921;-28.312;-43.847
5446084.570;-81.174;-77.263;-107.028;-105.835;-47.646;-51.297;-39.190;-49.435
5446084.578;-81.584;-76.890;-108.480;-106.953;-51.185;-53.048;-43.698;-50.776
5446084.586;-77.114;-73.276;-102.893;-104.718;-46.715;-51.334;-43.288;-48.950
5446084.594;-78.157;-76.033;-104.643;-110.604;-43.921;-54.687;-45.523;-52.303
5446084.602;-77.337;-74.469;-105.612;-106.767;-44.927;-55.470;-46.045;-55.879
5446084.610;-71.861;-67.502;-101.477;-98.199;-42.543;-45.821;-33.863;-47.497
5446084.618;-65.230;-62.250;-94.473;-94.101;-38.557;-36.769;-27.269;-37.514
5446084.626;-72.271;-71.451;-100.508;-102.967;-38.370;-43.400;-34.161;-46.417
5446084.634;-74.953;-70.557;-102.036;-100.285;-38.855;-46.790;-36.359;-48.541
5446084.642;-77.002;-66.981;-107.661;-96.932;-41.164;-56.140;-44.517;-51.819
5446084.650;-74.916;-62.734;-110.380;-93.132;-46.603;-55.246;-45.113;-48.317
5446084.658;-74.506;-65.491;-106.990;-94.958;-44.107;-49.248;-39.041;-41.537
5446084.666;-58.115;-53.570;-84.452;-87.954;-24.177;-47.125;-38.780;-42.170
5446084.674;-47.646;-47.237;-75.549;-85.235;-11.697;-45.560;-41.276;-40.382
5446084.682;-34.720;-39.041;-68.024;-88.513;6.333;-49.993;-45.113;-48.131
5446084.690;-15.683;-29.728;-35.092;-92.536;29.691;-43.176;-37.663;-41.462
5446084.698;4.359;-4.545;-7.786;-71.861;50.664;-30.547;-23.842;-28.983
5446084.706;0.037;-16.280;-9.723;-85.980;54.687;-39.749;-33.714;-33.453
5446084.714;-6.333;-12.890;-11.250;-100.322;65.491;-54.538;-48.280;-44.629
5446084.722;-4.135;-8.754;-6.557;-99.130;76.294;-50.962;-43.735;-40.606
5446084.730;-10.468;-19.334;-13.635;-106.469;78.008;-47.982;-44.107;-40.233
5446084.712;-1.043;-11.288;0.112;-99.093;95.144;-41.798;-38.184;-34.645
5446084.720;13.299;-2.906;17.211;-95.442;108.667;-41.984;-36.471;-32.708
5446084.728;1.453;-11.623;6.892;-101.738;96.001;-53.123;-47.050;-48.205
5446084.736;-12.033;-17.136;-12.815;-117.905;70.706;-59.307;-55.507;-53.160
5446084.744;-5.104;-16.615;-13.821;-113.733;66.794;-53.942;-52.527;-45.151
5446084.752;-10.878;-16.205;-13.225;-117.756;78.753;-49.658;-48.988;-39.823
5446084.760;-6.035;-2.757;3.465;-114.739;88.699;-49.137;-48.317;-38.855
5446084.768;3.241;0.373;25.965;-107.028;89.519;-45.784;-45.449;-36.769
5446084.776;10.021;2.459;40.866;-98.683;103.042;-45.523;-45.970;-38.147
5446084.784;-9.164;-10.282;28.908;-107.251;92.462;-49.993;-51.372;-45.821
5446084.792;-20.005;-19.111;23.320;-114.068;75.586;-49.137;-50.552;-40.121
5446084.800;-18.105;-18.477;30.398;-116.564;69.514;-51.223;-52.638;-39.861
5446084.808;-27.120;-26.040;27.120;-124.946;58.264;-49.248;-51.297;-41.798
5446084.816;-25.630;-20.973;31.702;-120.066;54.687;-38.408;-43.735;-33.267
5446084.824;-31.106;-25.257;34.310;-126.362;45.709;-32.857;-40.419;-28.349
5446084.832;-31.888;-25.332;37.588;-125.542;38.520;-28.424;-34.906;-27.567
5446084.840;-34.384;-26.077;35.614;-125.505;31.032;-26.561;-30.845;-25.220
5446084.848;-35.316;-30.138;38.743;-128.523;27.753;-29.206;-34.012;-24.550
5446084.856;-33.192;-30.436;46.566;-133.701;29.095;-29.057;-32.745;-22.016
5446084.864;-34.757;-30.920;47.386;-133.812;28.461;-32.820;-33.863;-25.108
5446084.872;-29.393;-26.375;50.776;-122.488;31.739;-31.292;-28.834;-24.661
5446084.880;-29.802;-23.544;48.205;-125.989;26.599;-34.422;-28.424;-26.524
5446084.888;-25.146;-17.881;52.340;-125.431;28.312;-31.181;-25.108;-22.799
5446084.896;-25.183;-22.128;49.286;-123.642;28.983;-33.788;-31.814;-24.922
5446084.906;-14.976;-14.380;63.442;-116.266;50.142;-25.705;-24.363;-17.472
5446084.914;-20.564;-18.179;58.897;-115.521;43.362;-31.032;-28.461;-27.716
5446084.922;-29.765;-26.897;43.064;-125.170;25.183;-36.582;-32.820;-35.092
5446084.930;-25.108;-27.642;42.021;-127.852;30.249;-32.894;-30.659;-30.510
5446084.938;-25.630;-27.455;46.939;-128.858;30.808;-31.255;-30.249;-32.187
5446084.946;-35.390;-29.691;37.290;-129.640;19.856;-37.961;-38.296;-39.078
5446084.954;-39.153;-36.955;30.287;-137.538;15.199;-38.445;-37.365;-38.557
5446084.962;-41.500;-48.243;28.349;-149.868;11.884;-41.053;-39.078;-36.173
5446084.970;-43.549;-50.776;25.555;-160.187;12.256;-42.804;-42.617;-36.471
5446084.978;-55.581;-53.495;11.697;-155.196;2.384;-48.764;-49.807;-46.082
5446084.986;-52.974;-48.317;13.858;-139.214;7.525;-39.041;-39.600;-38.967
5446084.994;-37.365;-35.837;29.653;-130.311;28.349;-34.794;-34.422;-35.428
5446085.002;-38.706;-37.588;26.971;-133.775;26.561;-45.970;-45.076;-41.947
5446085.010;-25.257;-27.083;38.706;-122.376;35.577;-37.327;-37.178;-33.043
5446085.018;-36.359;-38.706;27.046;-131.503;22.911;-41.388;-42.133;-41.239
5446085.026;-45.821;-48.690;24.512;-145.920;14.752;-50.887;-51.670;-52.415
5446085.034;-43.325;-46.007;19.707;-140.555;11.176;-49.397;-48.988;-47.907
5446085.042;-38.110;-28.647;19.483;-129.789;16.280;-50.999;-51.185;-45.672
5446085.050;-34.794;-25.816;32.298;-124.648;23.730;-56.252;-55.842;-48.950
5446085.058;-29.653;-27.269;37.141;-116.490;30.734;-49.099;-49.733;-41.947
5446085.066;-35.800;-35.278;32.000;-121.817;24.959;-51.074;-51.782;-46.343
5446085.074;-44.443;-43.623;17.099;-137.873;17.621;-51.968;-52.489;-47.907
5446085.082;-47.274;-44.741;13.560;-142.083;9.649;-48.056;-46.566;-42.394
5446085.090;-38.855;-40.382;22.165;-137.128;20.713;-40.159;-37.812;-30.957
5446085.117;-56.624;-62.399;4.172;-158.660;8.866;-61.840;-59.418;-50.776
5446085.125;-60.089;-62.250;3.614;-161.082;2.421;-72.271;-69.700;-60.983
5446085.133;-54.836;-59.158;5.215;-162.460;2.235;-69.849;-66.943;-57.966
5446085.141;-53.123;-53.048;6.109;-149.980;7.153;-69.886;-65.267;-56.885
5446085.149;-58.040;-53.458;0.745;-149.086;9.350;-71.302;-68.247;-59.605
5446085.157;-56.997;-55.805;4.806;-153.705;12.740;-69.924;-68.396;-57.407
5446085.165;-51.819;-52.899;5.327;-154.600;10.990;-66.981;-64.969;-52.489
5446085.173;-48.503;-46.492;8.903;-147.484;14.156;-63.702;-61.356;-49.397
5446085.181;-42.543;-40.121;12.591;-139.177;14.715;-64.783;-60.648;-55.395
5446085.189;-33.267;-33.230;21.420;-131.838;26.226;-49.211;-46.231;-39.823
5446085.197;-47.088;-48.019;2.794;-145.584;8.754;-51.446;-49.323;-43.698
5446085.205;-48.168;-51.893;1.043;-147.112;7.115;-52.154;-52.154;-45.151
5446085.213;-50.180;-58.934;-1.341;-159.219;4.321;-57.258;-58.301;-49.919
5446085.221;-50.217;-52.266;5.327;-158.437;3.055;-64.448;-62.548;-58.301
5446085.229;-36.247;-34.794;13.299;-139.512;16.205;-60.648;-56.550;-51.446
5446085.237;-37.029;-33.230;10.952;-142.865;17.136;-61.020;-56.550;-50.329
5446085.245;-38.631;-34.831;5.849;-134.856;18.701;-58.077;-52.713;-49.621
5446085.253;-38.147;-35.614;7.339;-128.411;14.007;-58.487;-53.458;-49.062
5446085.261;-38.408;-33.863;4.657;-135.787;15.981;-61.132;-55.693;-52.117
5446085.269;-33.155;-26.859;7.376;-127.330;26.487;-53.160;-48.652;-43.735
5446085.277;-35.726;-33.490;-2.421;-134.595;18.999;-49.584;-47.982;-41.425
5446085.285;-55.581;-53.868;-23.730;-156.909;1.527;-52.042;-52.378;-41.388
5446085.293;-47.162;-41.202;-16.503;-142.977;7.711;-52.750;-52.415;-43.176
5446085.301;-28.387;-20.191;5.625;-126.436;23.507;-49.360;-48.205;-41.649
5446085.357;-36.471;-32.112;-1.788;-129.864;17.807;-54.985;-54.426;-44.778
5446085.365;-43.213;-30.026;-11.660;-138.059;8.605;-58.450;-58.003;-48.056
5446085.373;-46.641;-36.210;-12.703;-136.085;7.302;-59.716;-58.301;-52.303
5446085.381;-39.302;-29.989;-11.027;-129.752;16.727;-46.194;-42.841;-39.265
5446085.389;-34.086;-27.269;1.043;-132.434;12.591;-42.357;-38.370;-33.230
5446085.397;-41.798;-36.880;-2.831;-148.229;7.115;-48.950;-45.113;-43.809
5446085.405;-49.211;-41.127;-1.788;-148.937;4.731;-50.701;-48.317;-47.013
5446085.413;-48.801;-47.535;-8.531;-144.653;0.298;-46.790;-47.982;-39.935
5446085.421;-50.291;-46.715;-8.829;-151.768;5.178;-41.202;-41.872;-34.757
5446085.429;-66.087;-53.346;-20.564;-170.842;-10.766;-50.031;-48.056;-48.280
5446085.437;-60.350;-47.050;-11.437;-151.619;-6.296;-42.282;-39.339;-36.843
5446085.445;-51.968;-43.064;4.768;-156.201;-0.745;-44.927;-42.468;-29.877
5446085.453;-45.300;-39.376;17.844;-142.828;4.545;-48.131;-44.517;-36.806
5446085.461;-50.552;-45.039;7.786;-152.662;-3.427;-43.511;-39.674;-32.969
5446085.469;-71.824;-55.656;-15.274;-170.134;-35.092;-55.730;-51.856;-44.964
5446085.477;-52.527;-41.686;-1.490;-151.768;-25.742;-49.435;-44.666;-39.116
5446085.485;-42.506;-28.126;36.880;-151.694;-7.190;-46.752;-42.729;-36.284
5446085.493;-53.048;-47.348;45.560;-163.540;3.502;-55.358;-53.570;-42.394
5446085.501;-56.699;-48.913;37.551;-158.176;-2.757;-51.856;-49.062;-38.221
5446085.509;-52.005;-45.039;49.025;-165.813;-2.310;-46.715;-45.560;-30.547
5446085.517;-52.750;-32.932;56.587;-165.999;-12.107;-47.870;-45.784;-35.763
5446085.525;-50.142;-37.029;61.095;-157.133;-21.458;-51.111;-48.950;-43.213
5446085.533;-58.599;-46.082;64.149;-166.558;-17.770;-54.240;-54.017;-42.133
5446085.541;-62.697;-52.601;56.736;-181.049;-29.095;-58.040;-57.295;-42.878
5446085.491;-94.920;-77.523;18.887;-211.261;-75.921;-92.909;-91.866;-74.431
5446085.499;-113.249;-96.038;4.396;-229.999;-98.683;-113.547;-111.349;-97.565
5446085.507;-43.325;-25.406;87.358;-160.597;-17.695;-48.354;-43.809;-38.743
5446085.515;26.785;43.213;165.105;-97.305;58.636;16.280;24.997;18.142
5446085.523;4.582;22.799;147.223;-116.341;32.373;-7.898;0.633;-5.439
5446085.531;2.012;10.803;145.435;-127.219;22.128;-23.879;-14.119;-18.850
5446085.539;-13.933;4.768;121.854;-136.644;7.562;-31.479;-21.271;-22.836
5446085.547;-23.693;11.809;119.470;-134.856;-4.061;-34.869;-26.077;-23.991
5446085.555;-30.585;-5.029;120.029;-149.421;-9.872;-37.178;-34.831;-28.759
5446085.563;-39.339;-18.440;115.409;-164.509;-14.678;-41.686;-42.878;-35.204
5446085.571;-37.439;-26.859;120.737;-145.026;-7.786;-36.210;-35.875;-30.324
5446085.579;-24.885;-2.086;110.492;-145.659;-20.638;-33.826;-27.195;-30.957
5446085.587;-75.847;-58.413;86.501;-184.365;-39.898;-22.799;-19.073;-12.554
5446085.595;-62.659;-37.327;120.699;-168.420;-29.951;-5.886;-7.115;6.892
5446085.603;-47.423;-19.744;130.013;-188.053;-25.965;-14.082;-10.803;-2.198
5446085.611;-149.757;-101.067;35.986;-238.530;-102.781;-74.543;-72.122;-58.748
5446085.619;-187.121;-117.719;38.296;-202.991;-65.304;-76.965;-64.224;-72.233
5446085.627;86.166;150.539;331.961;-29.244;187.010;44.107;61.095;39.674
5446085.635;65.528;220.723;326.633;19.856;181.720;81.435;92.760;86.129
5446085.643;96.448;225.976;376.590;10.841;168.718;82.888;98.124;93.654
5446085.651;105.202;236.444;369.959;-23.320;157.990;36.396;53.756;47.274
5446085.659;123.568;255.331;394.657;-17.770;135.414;-3.166;9.723;13.709
5446085.667;108.927;271.648;390.597;-22.389;113.957;-26.636;-17.360;-6.892
5446085.675;110.380;257.194;368.729;-47.609;95.367;-44.703;-34.869;-27.046
5446085.642;102.930;264.086;362.694;-49.807;70.259;-57.444;-52.676;-39.376
5446085.650;114.068;310.987;334.904;-68.918;23.991;-79.535;-81.360;-63.069
5446085.658;67.279;259.280;278.056;-121.407;-33.751;-97.565;-99.987;-80.280
5446085.666;38.072;232.160;233.240;-166.968;-80.653;-109.226;-113.398;-88.997
5446085.674;7.004;200.234;200.160;-212.230;-113.621;-126.548;-132.509;-100.657
5446085.682;-16.093;170.283;170.991;-255.480;-143.833;-146.404;-148.900;-123.158
5446085.690;-25.034;150.576;150.874;-286.587;-166.707;-159.815;-158.660;-138.581
5446085.698;-28.200;133.552;134.446;-307.336;-185.668;-174.157;-167.824;-151.619
5446085.706;-27.567;119.731;118.166;-320.151;-192.113;-188.537;-180.043;-165.962
5446085.714;-35.055;104.308;105.128;-331.029;-210.702;-191.294;-183.024;-166.334
5446085.722;-55.432;64.597;66.683;-354.797;-228.845;-195.652;-189.282;-170.805
5446085.730;-43.772;47.237;74.357;-354.648;-228.100;-197.440;-195.988;-175.945
5446085.738;-29.132;62.250;100.024;-333.190;-203.736;-184.104;-186.972;-164.099
5446085.746;-24.810;49.770;102.781;-325.851;-195.354;-177.920;-182.502;-167.638
5446085.754;-54.874;11.586;80.056;-342.056;-206.940;-184.886;-189.319;-180.379
5446085.762;-71.079;-4.582;73.500;-350.624;-207.201;-179.633;-182.576;-173.599
5446085.770;-67.540;-3.800;88.513;-329.241;-202.991;-169.761;-171.699;-162.013
5446085.778;-53.979;7.264;109.226;-299.439;-187.941;-161.193;-161.342;-151.508
5446085.786;-41.202;15.087;114.590;-282.414;-175.945;-146.292;-143.088;-135.861
5446085.794;-45.002;1.043;108.629;-286.773;-181.086;-149.012;-143.945;-142.455
5446085.802;-54.240;-12.070;119.098;-289.418;-183.918;-153.892;-151.768;-146.888
5446085.810;-58.115;-19.856;121.705;-279.956;-178.665;-140.518;-142.157;-128.672
5446085.818;-64.932;-34.310;112.057;-277.311;-176.169;-136.606;-141.300;-125.468
5446085.826;-67.651;-44.294;109.859;-270.121;-173.002;-119.582;-123.829;-111.312
5446085.822;-55.730;-38.072;119.805;-257.045;-170.060;-110.269;-113.808;-103.079
5446085.830;-55.768;-39.898;127.293;-249.669;-171.065;-106.990;-112.131;-100.061
5446085.838;-64.261;-55.507;111.945;-250.675;-178.367;-103.377;-114.106;-95.069
5446085.846;-52.676;-43.847;115.000;-232.048;-166.781;-102.557;-115.670;-92.946
5446085.854;-47.982;-43.921;125.878;-225.417;-157.692;-101.291;-113.621;-92.536
5446085.862;-32.745;-30.808;143.759;-203.922;-134.185;-88.736;-97.416;-88.364
5446085.870;-18.068;-26.338;155.121;-184.029;-118.949;-84.043;-90.562;-89.332
5446085.878;-17.695;-16.205;147.298;-181.310;-123.419;-88.438;-95.144;-87.023
5446085.886;-19.334;-14.193;143.833;-176.430;-124.387;-92.536;-102.632;-86.576
5446085.894;-22.575;-22.277;141.673;-170.060;-125.319;-80.466;-94.920;-73.165
5446085.902;-28.647;-31.032;135.712;-168.048;-130.720;-76.741;-90.227;-73.910
5446085.910;-36.135;-38.855;130.981;-168.383;-129.901;-77.598;-88.960;-76.778
5446085.918;-40.047;-42.841;123.233;-166.893;-132.695;-78.641;-87.917;-78.604
5446085.926;-32.783;-37.588;125.989;-157.394;-129.938;-72.755;-83.447;-71.451
5446085.934;-34.682;-36.173;124.276;-154.190;-132.434;-70.333;-80.056;-70.333
5446085.942;-35.055;-37.476;120.588;-145.063;-129.640;-68.955;-78.008;-73.612
5446085.950;-31.702;-36.545;123.382;-135.005;-120.737;-56.513;-65.416;-63.479
5446085.958;-25.742;-31.739;127.181;-127.479;-110.045;-40.121;-51.111;-47.050
5446085.966;-34.869;-41.984;114.292;-132.620;-115.260;-43.772;-57.332;-49.770
5446085.974;-39.414;-48.615;105.537;-131.987;-118.390;-44.405;-58.748;-48.503
5446085.982;-39.376;-54.948;101.328;-127.815;-115.819;-36.545;-49.770;-42.841
5446085.990;-33.118;-37.067;101.142;-113.212;-111.684;-45.113;-50.776;-60.275
5446085.998;-20.675;-16.205;113.919;-90.785;-99.465;-52.005;-58.040;-67.204
5446086.006;-14.529;-16.093;124.089;-77.300;-88.066;-47.237;-52.974;-57.407
5446085.973;-14.901;-16.093;109.784;-72.978;-90.301;-40.308;-47.721;-45.970
5446085.981;-8.494;-13.113;124.164;-65.304;-81.882;-29.467;-39.600;-35.278
5446085.989;-10.915;-16.876;127.293;-58.971;-76.443;-20.936;-31.851;-27.865
5446085.997;-24.624;-29.914;109.896;-65.193;-86.948;-24.922;-33.528;-36.024
5446086.005;-14.752;-22.836;105.090;-55.842;-79.907;-18.142;-24.959;-26.971
5446086.013;-25.071;-31.330;88.289;-61.952;-82.962;-23.618;-29.020;-31.069
5446086.021;-21.197;-26.450;98.012;-53.048;-81.696;-20.638;-26.338;-27.567
5446086.029;-14.529;-17.323;104.569;-38.967;-77.449;-12.554;-20.340;-20.415
5446086.037;-12.890;-16.913;105.239;-32.857;-62.399;-16.280;-25.555;-24.103
5446086.045;-4.172;-13.858;101.700;-30.845;-48.317;-15.683;-28.722;-18.924
5446086.053;0.708;-13.411;119.209;-34.645;-42.059;-34.571;-43.511;-40.121
5446086.061;-5.625;-10.505;112.876;-31.367;-31.702;-32.969;-39.078;-43.362
5446086.069;40.717;28.759;128.485;-29.840;6.407;-25.257;-34.086;-36.396
5446086.077;57.556;41.351;177.436;-13.709;47.870;-17.658;-29.020;-25.891
5446086.085;49.509;35.614;181.235;-11.399;61.169;-6.929;-19.856;-10.133
5446086.093;64.075;41.053;187.196;-4.508;70.594;2.794;-11.697;-3.353
5446086.101;60.461;39.041;179.261;-10.245;73.761;8.084;-8.382;2.421
5446086.109;60.685;33.937;171.103;-20.117;77.002;10.729;-5.849;5.029
5446086.117;19.446;-3.688;131.652;-52.080;45.784;-15.683;-32.932;-24.140
5446086.125;4.247;-14.305;113.249;-63.069;30.622;-21.979;-38.818;-31.181
5446086.133;0.708;-13.523;101.514;-57.332;28.089;-13.821;-31.702;-19.930
5446086.141;-0.447;-9.611;93.579;-47.386;22.016;-6.668;-26.859;-14.566
5446086.149;-0.447;-10.915;82.329;-46.566;20.564;-3.353;-23.320;-14.901
5446086.157;-6.966;-19.297;75.549;-51.484;12.852;-6.184;-25.965;-21.718
5446086.168;-4.955;-20.079;83.968;-45.113;23.469;3.539;-16.242;-14.082
5446086.176;-8.456;-21.420;88.848;-49.397;18.403;5.700;-16.466;-8.568
5446086.184;-1.490;-10.505;81.770;-37.923;18.440;20.973;-5.290;4.843
5446086.192;1.900;-15.311;81.100;-33.975;32.112;25.034;-0.410;4.694
5446086.200;-12.442;-25.555;64.634;-44.741;26.189;5.402;-15.199;-9.127
5446086.208;-16.242;-20.340;58.524;-45.635;11.176;-4.992;-20.899;-16.503
5446086.216;-0.224;-4.917;74.878;-17.956;33.155;4.172;-8.233;-7.041
5446086.224;5.364;2.161;72.904;-9.649;35.800;4.098;-7.115;-8.233
5446086.232;-1.304;-6.966;61.095;-17.695;26.673;4.135;-7.302;-5.141
5446086.240;4.396;-6.966;79.125;-16.764;44.964;1.304;-13.337;-6.333
5446086.248;4.098;-9.611;73.574;-10.841;51.372;4.545;-11.735;-7.264
5446086.256;-7.227;-21.160;53.979;-12.740;35.428;8.382;-7.935;-5.998
5446086.264;0.112;-12.219;45.672;-11.772;37.812;13.001;-5.364;-2.198
5446086.272;8.792;-10.170;82.701;-18.552;56.997;13.262;-6.184;-0.149
5446086.280;-6.147;-30.175;63.926;-40.494;48.764;7.972;-12.815;-1.639
5446086.288;-9.127;-9.760;57.667;-17.136;45.672;4.768;-15.758;-3.837
5446086.296;-5.923;-7.004;51.111;-5.104;40.419;2.645;-17.062;-8.903
5446086.304;1.676;-5.327;53.011;2.384;39.749;10.990;-9.499;-1.229
5446086.312;6.296;-3.949;61.356;8.643;51.372;18.403;-4.172;3.055
5446086.320;8.754;-0.075;68.396;-1.229;57.183;21.607;-3.614;2.310
5446086.328;-0.559;-15.907;56.215;-3.465;49.844;23.246;-3.576;1.378
5446086.336;-8.009;-20.079;33.230;1.267;33.602;26.897;-1.751;4.657
5446086.344;1.341;5.774;38.259;4.359;35.986;35.278;5.439;13.672
5446086.352;9.015;5.327;59.716;7.190;49.658;36.135;7.674;17.174
5446086.363;-0.484;-0.335;51.633;0.410;50.180;26.450;-0.112;10.952
5446086.371;-6.706;-10.096;41.910;-1.416;42.580;15.832;-7.786;2.608
5446086.379;-6.631;-8.680;49.844;-3.949;42.394;13.113;-5.960;-1.043
5446086.387;-14.231;-14.678;37.774;-1.565;36.173;13.523;-4.768;2.794
5446086.395;6.147;1.006;45.449;-0.820;46.603;5.998;-13.299;-1.378
5446086.403;11.325;6.445;55.321;6.035;52.750;4.023;-15.274;-3.502
5446086.411;-2.608;-5.327;46.976;-3.576;41.351;8.121;-12.890;1.788
5446086.419;-2.049;-12.517;45.337;0.596;46.790;16.354;-5.364;9.686
5446086.427;10.692;3.763;61.058;-4.731;58.115;18.850;-2.608;10.803
5446086.435;19.558;20.042;79.423;5.141;63.255;21.644;0.894;9.909
5446086.443;27.306;24.512;77.859;16.987;66.198;27.753;6.221;17.323
5446086.451;38.296;24.773;96.187;19.781;66.273;30.510;8.568;20.601
5446086.459;37.141;33.043;93.803;18.924;67.987;26.636;5.327;14.305
5446086.467;39.935;43.847;85.570;31.367;70.408;17.621;-2.310;3.166
5446086.475;48.168;47.982;100.546;40.308;80.243;22.650;4.098;8.903
5446086.483;52.638;52.862;110.567;46.231;83.596;30.585;13.299;17.919
5446086.491;47.870;44.927;97.603;36.471;77.263;32.261;14.901;19.446
5446086.499;46.901;41.761;88.178;32.596;73.947;29.840;12.480;21.495
5446086.507;40.084;42.431;85.682;24.699;62.287;20.601;4.061;12.442
5446086.515;39.972;34.347;90.674;16.876;66.124;12.144;-6.072;7.898
5446086.523;44.331;26.263;102.259;10.692;75.586;20.787;-0.112;20.340
5446086.531;33.751;33.714;84.303;0.522;65.118;20.228;-1.304;19.148
5446086.539;18.999;15.534;66.608;-8.680;52.303;13.001;-6.780;4.470
5446086.547;11.846;3.949;56.028;-15.981;40.978;6.035;-13.150;-3.427
5446086.498;7.190;0.931;43.400;-15.497;29.616;10.505;-6.370;1.900
5446086.506;3.278;-9.239;51.036;-16.913;24.959;17.509;2.719;10.207
5446086.514;3.688;4.098;60.126;-18.589;39.116;15.944;-0.373;12.033
5446086.522;-10.617;-9.984;46.566;-30.510;28.163;5.886;-12.033;2.980
5446086.530;-12.740;-13.486;45.300;-26.561;21.718;10.394;-4.619;4.210
5446086.538;-11.697;-14.380;37.178;-28.461;20.154;11.176;-3.725;2.533
5446086.546;-4.396;-0.708;36.173;-23.283;28.647;13.933;-2.421;6.817
5446086.554;8.866;1.937;50.366;-18.291;33.900;24.028;6.929;18.217
5446086.562;-6.258;-17.285;37.178;-34.757;16.466;18.142;0.559;12.740
5446086.570;-7.302;-19.297;35.353;-34.943;12.144;10.692;-5.811;7.711
5446086.578;-2.384;-5.849;42.655;-32.708;25.108;2.235;-13.411;-0.559
5446086.586;0.112;-2.682;36.322;-35.763;24.624;7.264;-10.841;5.439
5446086.594;-3.502;-5.811;27.306;-33.751;24.699;7.115;-8.568;0.447
5446086.602;2.459;-1.453;39.972;-36.843;33.863;11.288;-3.725;4.061
5446086.610;7.488;-3.874;39.823;-29.802;24.028;14.268;-2.719;14.082
5446086.618;-10.505;-15.348;35.502;-34.906;20.973;2.608;-15.832;5.960
5446086.626;3.166;-3.502;38.855;-29.057;27.157;6.929;-11.511;9.499
5446086.634;9.984;0.261;43.735;-33.118;32.559;15.944;-2.682;16.242
5446086.642;19.781;10.356;49.360;-17.770;44.592;21.234;3.017;21.607
5446086.650;8.866;0.745;41.127;-22.314;28.796;11.064;-6.258;10.766
5446086.658;-1.043;-15.236;27.120;-33.304;23.209;1.937;-11.511;-2.347
5446086.666;-2.421;-10.096;20.973;-33.341;25.332;1.714;-10.692;1.714
5446086.674;7.935;3.166;36.322;-30.361;30.100;4.210;-8.158;9.984
5446086.682;12.293;-4.023;37.439;-35.092;27.008;5.774;-7.227;7.339
5446086.646;16.578;11.772;42.282;-30.659;38.482;12.517;-0.894;11.884
5446086.654;3.055;-0.969;27.791;-30.026;25.779;6.258;-8.009;6.668
5446086.662;-9.015;-14.156;10.505;-32.671;13.821;-0.671;-13.784;-0.373
5446086.670;6.445;-4.992;16.727;-21.644;24.326;8.382;-3.688;10.021
5446086.678;7.004;-0.484;17.695;-23.395;22.650;18.328;5.700;20.228
5446086.686;-4.321;-14.305;1.490;-39.823;10.245;7.376;-4.917;4.545
5446086.694;-9.090;-15.721;-13.299;-38.669;3.986;5.364;-4.955;3.539
5446086.702;-10.096;-19.483;-5.476;-36.098;11.064;3.651;-5.327;1.676
5446086.710;-11.846;-19.632;3.204;-37.104;13.709;7.674;-1.304;1.118
5446086.718;-3.949;-13.262;-0.782;-27.791;20.377;12.666;5.104;5.141
5446086.726;-9.872;-14.603;-15.385;-35.167;12.778;7.227;-0.112;1.267
5446086.734;-8.047;-10.133;-14.380;-37.700;14.044;15.087;6.631;10.394
5446086.742;-11.437;-13.299;-18.105;-40.643;8.270;20.191;11.623;14.268
5446086.750;-11.735;-11.213;-14.752;-34.720;7.115;19.521;9.574;9.052
5446086.758;-12.480;-13.076;-22.165;-33.043;5.104;19.260;7.264;8.382
5446086.766;-10.729;-14.342;-15.423;-33.602;13.486;18.068;6.407;9.835
5446086.774;-7.227;-11.325;-16.838;-35.204;12.517;16.987;6.035;11.995
5446086.782;-2.608;-7.376;-9.239;-32.820;23.432;28.275;17.583;24.363
5446086.790;-5.513;-11.101;-6.892;-28.089;14.082;27.418;15.236;25.854
5446086.798;-4.545;-11.213;-13.746;-29.802;15.609;28.871;16.205;27.046
