Timestamp,AFz,AF3,AF4,AF7,AF8,Pz,P3,P4,2024-04-18 12:41:04.781,fs=125
3029195.662;-162.683;-146.218;-225.306;-392.832;-127.070;506.304;1457.408;613.332
3029195.670;-153.370;-135.936;-210.814;-376.143;-110.343;503.026;1447.611;609.755
3029195.678;-158.735;-141.449;-218.935;-378.639;-116.527;493.564;1428.872;601.150
3029195.686;-163.801;-149.906;-221.618;-388.883;-125.766;488.609;1414.567;596.344
3029195.694;-167.154;-151.880;-223.257;-394.508;-132.434;485.890;1403.689;591.502
3029195.702;-160.374;-142.679;-218.339;-375.025;-123.531;488.348;1397.468;591.613
3029195.710;-151.843;-135.414;-206.530;-365.563;-108.778;491.068;1391.396;590.719
3029195.718;-155.941;-137.724;-211.783;-362.508;-112.951;485.368;1376.905;582.226
3029195.726;-151.172;-131.503;-207.201;-364.482;-108.443;483.245;1366.027;578.836
3029195.734;-145.212;-125.282;-201.352;-354.201;-113.398;484.250;1358.725;577.942
3029195.742;-137.240;-118.129;-195.205;-341.609;-109.524;482.909;1348.816;575.185
3029195.750;-123.605;-106.692;-183.173;-330.955;-96.671;481.755;1338.273;574.589
3029195.758;-128.597;-110.529;-180.565;-331.514;-91.344;471.547;1321.360;564.903
3029195.766;-118.054;-98.124;-166.073;-317.916;-84.154;464.544;1309.440;558.458
3029195.774;-111.386;-90.078;-161.827;-304.952;-80.280;459.924;1299.120;552.312
3029195.782;-97.305;-72.904;-148.490;-290.424;-71.712;453.740;1286.380;547.022
3029195.790;-87.172;-59.642;-140.630;-274.703;-72.680;449.605;1274.608;541.098
3029195.798;-74.580;-43.772;-127.517;-240.915;-53.644;448.786;1265.369;536.740
3029195.806;-59.679;-28.871;-114.441;-232.421;-40.941;456.497;1263.581;542.440
3029195.814;-54.985;-23.991;-103.526;-220.053;-36.210;460.148;1258.999;543.557
3029195.822;-46.007;-15.870;-86.166;-211.783;-25.779;459.105;1251.698;540.651
3029195.830;-40.978;-8.009;-83.745;-211.075;-21.122;454.597;1241.900;533.573
3029195.838;-41.761;-7.562;-89.146;-195.391;-26.263;445.470;1227.222;523.403
3029195.846;-38.669;-0.186;-91.419;-184.625;-28.685;434.592;1210.086;514.723
3029195.841;-50.664;-12.517;-99.428;-201.166;-41.798;421.032;1189.038;500.567
3029195.849;-58.301;-20.377;-107.251;-206.307;-36.284;416.636;1176.633;496.022
3029195.857;-73.425;-41.984;-117.198;-224.747;-44.703;409.149;1159.795;490.434
3029195.865;-94.958;-72.531;-132.211;-260.957;-67.241;396.036;1136.847;478.625
3029195.873;-103.526;-83.111;-142.641;-272.840;-78.455;390.075;1123.734;474.602
3029195.881;-109.784;-89.072;-154.190;-276.566;-84.415;384.226;1111.515;470.020
3029195.889;-121.519;-105.053;-168.607;-290.275;-98.906;379.235;1099.333;465.587
3029195.897;-130.162;-115.372;-172.406;-297.278;-105.314;379.086;1091.547;464.767
3029195.905;-138.581;-124.425;-179.522;-303.090;-99.279;376.552;1080.669;456.013
3029195.913;-138.134;-125.356;-175.387;-300.817;-106.879;376.180;1075.082;450.686
3029195.921;-135.116;-119.284;-174.865;-283.942;-108.890;376.068;1070.201;446.253
3029195.929;-141.487;-123.382;-180.118;-295.937;-111.647;368.543;1055.114;439.547
3029195.937;-150.539;-138.991;-188.239;-313.744;-114.217;362.508;1037.978;436.455
3029195.945;-153.407;-142.902;-190.847;-304.133;-116.900;360.645;1026.206;433.400
3029195.953;-155.754;-145.026;-198.409;-307.299;-129.789;358.485;1015.663;430.457
3029195.961;-156.574;-147.149;-189.133;-310.652;-115.111;352.748;1003.556;423.677
3029195.969;-163.838;-152.513;-194.423;-319.444;-126.027;347.272;989.884;416.711
3029195.977;-159.964;-153.519;-191.033;-327.453;-129.007;351.034;987.016;415.519
3029195.985;-154.227;-144.988;-185.519;-310.130;-122.078;353.903;985.898;409.745
3029195.993;-153.221;-143.945;-183.284;-302.978;-120.066;351.965;978.261;404.529
3029196.001;-156.537;-145.920;-189.692;-287.965;-121.072;345.074;965.781;398.718
3029196.009;-153.594;-140.257;-188.351;-290.088;-118.800;340.790;953.935;394.695
3029196.017;-145.845;-131.577;-178.330;-287.741;-117.868;337.996;944.175;392.012
3029196.025;-147.298;-131.354;-172.593;-286.847;-118.166;330.210;928.715;382.215
3029196.037;-150.613;-136.942;-178.218;-282.452;-122.078;324.920;913.627;380.501
3029196.045;-154.078;-141.822;-183.322;-284.873;-119.507;318.103;896.752;375.807
3029196.053;-154.339;-142.194;-183.657;-291.578;-119.880;310.615;877.865;368.580
3029196.061;-153.854;-142.716;-185.892;-293.329;-114.515;310.950;870.004;368.208
3029196.069;-154.227;-140.779;-184.141;-286.549;-124.276;314.042;869.445;366.345
3029196.077;-150.912;-134.856;-177.547;-275.895;-130.944;318.587;871.047;367.202
3029196.085;-142.083;-128.075;-167.601;-265.539;-115.111;307.746;858.568;355.802
3029196.093;-120.550;-113.100;-147.633;-245.087;-93.691;299.700;845.529;349.768
3029196.101;-106.543;-97.901;-135.899;-243.932;-83.186;298.247;837.818;349.954
3029196.109;-95.814;-81.770;-125.170;-241.622;-71.004;297.017;828.207;348.352
3029196.117;-91.046;-77.523;-117.570;-232.309;-68.694;298.396;820.048;348.501
3029196.125;-91.381;-79.125;-114.776;-222.549;-69.439;295.304;809.915;343.509
3029196.133;-96.336;-86.464;-116.490;-219.345;-68.657;294.149;802.316;341.088
3029196.141;-93.542;-84.043;-119.954;-220.761;-71.339;293.553;796.132;338.480
3029196.149;-98.571;-86.837;-124.015;-232.682;-72.718;285.879;782.870;330.470
3029196.157;-101.030;-89.481;-120.364;-229.217;-75.772;284.836;774.823;331.365
3029196.165;-102.893;-89.891;-121.184;-212.193;-69.588;280.105;767.373;327.639
3029196.173;-103.414;-95.256;-122.711;-218.078;-69.439;275.075;757.091;325.292
3029196.181;-98.459;-88.252;-117.458;-222.251;-74.096;274.070;751.317;322.759
3029196.189;-97.230;-83.447;-119.321;-220.165;-73.537;271.760;746.362;319.965
3029196.197;-100.210;-87.060;-118.911;-208.691;-68.881;263.378;733.063;311.434
3029196.205;-100.471;-93.430;-117.198;-200.309;-65.565;257.529;722.036;304.356
3029196.213;-102.185;-89.519;-120.625;-211.708;-69.030;254.214;713.617;298.843
3029196.221;-98.906;-86.352;-115.335;-210.702;-68.620;257.306;711.083;301.115
3029196.232;-99.801;-87.246;-115.708;-204.891;-68.657;254.288;701.733;299.439
3029196.240;-99.689;-85.048;-115.745;-193.231;-73.314;250.116;690.408;299.402
3029196.248;-99.540;-88.103;-116.676;-193.529;-69.700;244.603;676.885;295.974
3029196.256;-101.924;-89.854;-120.476;-203.587;-69.290;235.178;660.755;288.598
3029196.264;-105.165;-92.611;-120.737;-215.545;-73.686;228.100;647.344;282.302
3029196.272;-106.171;-94.883;-115.111;-197.142;-74.618;219.904;634.007;271.983
3029196.280;-101.440;-91.046;-112.467;-187.159;-74.729;220.090;629.723;271.685
3029196.288;-102.855;-95.256;-114.925;-197.664;-72.084;215.881;621.863;266.060
3029196.296;-105.910;-93.058;-119.992;-204.742;-66.645;211.783;614.971;261.143
3029196.304;-107.326;-90.040;-123.121;-193.454;-73.388;211.671;610.985;257.641
3029196.312;-103.451;-89.854;-118.054;-182.576;-75.176;210.330;606.365;253.133
3029196.320;-97.863;-86.464;-109.039;-183.173;-72.829;208.765;599.846;251.867
3029196.328;-96.411;-82.031;-106.245;-173.710;-62.734;202.395;588.484;246.651
3029196.336;-96.485;-81.733;-108.071;-183.471;-60.759;196.882;576.116;243.299
3029196.344;-93.803;-79.200;-108.890;-180.900;-67.726;197.999;568.666;245.571
3029196.352;-93.579;-78.268;-109.933;-169.389;-68.285;196.621;558.496;243.448
3029196.360;-97.044;-82.925;-107.549;-170.730;-72.159;187.606;542.365;234.991
3029196.368;-104.904;-91.344;-111.349;-189.915;-75.959;180.043;528.954;226.423
3029196.376;-104.047;-92.685;-115.931;-185.966;-72.457;178.628;523.552;224.970
3029196.384;-97.007;-82.068;-107.661;-159.889;-65.677;179.335;522.174;225.604
3029196.392;-92.722;-77.263;-104.196;-162.795;-60.797;175.275;514.984;221.916
3029196.400;-87.246;-67.316;-102.483;-155.307;-62.510;174.120;508.837;222.474
3029196.408;-92.387;-76.815;-99.316;-164.062;-60.759;168.346;496.134;216.253
3029196.416;-89.109;-76.294;-92.983;-151.880;-59.158;167.713;488.721;215.247
3029196.426;-88.103;-73.835;-97.007;-153.482;-62.510;163.950;477.917;210.516
3029196.434;-92.536;-74.841;-103.749;-158.809;-72.159;159.480;467.598;206.269
3029196.442;-89.146;-73.127;-96.224;-155.792;-57.295;155.084;457.913;204.146
3029196.450;-83.148;-71.041;-87.470;-139.661;-47.758;150.055;447.407;197.589
3029196.458;-84.229;-70.781;-85.533;-136.085;-59.269;147.447;439.771;192.933
3029196.466;-79.609;-63.628;-84.154;-138.767;-58.226;148.751;437.684;192.784
3029196.474;-77.114;-60.871;-85.384;-135.712;-54.911;144.206;428.744;189.058
3029196.482;-71.041;-55.134;-81.286;-123.754;-49.733;140.034;421.181;185.221
3029196.490;-67.465;-54.985;-74.171;-119.135;-35.018;128.858;405.945;171.550
3029196.498;-71.190;-63.404;-66.422;-127.442;-35.986;122.972;394.583;165.477
3029196.506;-71.563;-53.532;-71.153;-127.219;-39.414;126.138;391.975;170.805
3029196.514;-76.778;-58.860;-82.627;-127.032;-57.817;120.699;382.140;166.968
3029196.522;-80.429;-67.018;-86.054;-130.236;-59.493;117.272;372.156;163.689
3029196.530;-80.019;-67.167;-82.962;-127.889;-50.291;117.905;366.196;163.019
3029196.538;-87.656;-71.563;-90.748;-133.999;-57.146;115.260;355.504;158.660
3029196.546;-95.852;-80.988;-92.201;-136.569;-59.903;113.510;347.756;156.909
3029196.554;-84.117;-70.035;-80.802;-134.110;-58.487;109.784;340.417;151.023
3029196.562;-83.782;-70.632;-83.186;-132.248;-54.687;105.314;332.445;144.206
3029196.570;-90.525;-77.859;-90.525;-131.726;-64.112;101.402;326.373;138.357
3029196.578;-97.603;-87.246;-97.863;-141.785;-73.984;97.826;317.022;135.377
3029196.586;-105.165;-95.330;-107.624;-158.064;-75.698;96.709;308.901;136.085
3029196.594;-112.653;-100.844;-116.006;-154.860;-87.582;90.487;297.427;130.162
3029196.602;-112.280;-101.589;-109.039;-159.331;-85.533;83.633;286.251;124.760
3029196.610;-109.822;-96.709;-109.300;-151.359;-77.076;85.868;283.457;126.809
3029196.635;-112.690;-104.457;-112.131;-138.730;-82.105;87.731;278.056;128.411
3029196.643;-118.054;-111.125;-115.409;-153.556;-88.736;85.309;271.536;123.791
3029196.651;-120.699;-107.512;-118.501;-154.823;-91.195;81.733;264.309;116.266
3029196.659;-113.472;-100.806;-109.524;-149.645;-84.639;83.335;261.739;116.043
3029196.667;-107.512;-95.777;-98.459;-140.071;-69.924;80.839;255.220;111.461
3029196.675;-111.461;-100.546;-103.414;-139.475;-73.649;77.672;248.291;108.033
3029196.683;-115.633;-107.214;-107.251;-137.910;-76.517;77.225;244.938;106.879
3029196.691;-116.676;-103.451;-112.094;-150.464;-88.327;75.847;238.679;102.036
3029196.699;-115.074;-101.924;-112.429;-148.006;-89.221;78.529;235.736;102.371
3029196.707;-112.988;-100.993;-107.400;-132.918;-79.200;78.939;231.937;99.614
3029196.715;-107.028;-93.170;-102.557;-119.172;-70.296;77.896;224.300;99.093
3029196.723;-107.661;-93.244;-98.944;-129.752;-80.355;73.761;212.006;97.491
3029196.731;-110.343;-95.852;-101.998;-134.930;-75.698;63.926;199.229;88.476
3029196.739;-105.873;-90.003;-99.055;-122.227;-75.512;61.281;195.615;83.223
3029196.747;-111.051;-94.101;-101.626;-128.299;-77.002;57.593;189.282;74.953
3029196.755;-112.131;-95.628;-99.689;-121.556;-72.010;62.771;189.357;78.343
3029196.763;-102.594;-87.470;-88.662;-114.180;-64.634;65.230;187.755;81.435
3029196.771;-102.632;-86.613;-87.656;-114.106;-70.520;65.826;185.892;82.552
3029196.779;-98.273;-83.223;-83.148;-116.564;-78.417;66.608;180.267;85.048
3029196.787;-97.938;-79.833;-87.023;-108.108;-69.104;63.330;173.226;80.615
3029196.795;-98.981;-80.727;-92.946;-98.310;-71.265;66.124;172.444;82.143
3029196.803;-99.316;-81.770;-84.192;-111.498;-63.479;62.026;163.801;77.300
3029196.811;-100.210;-83.372;-83.223;-112.653;-69.551;56.438;153.743;70.818
3029196.819;-96.373;-79.721;-83.148;-106.506;-75.549;53.644;149.123;70.520
3029196.802;-95.367;-78.641;-81.509;-94.250;-67.875;48.541;141.412;65.304
3029196.810;-93.319;-75.847;-83.260;-87.507;-66.645;46.268;135.973;63.889
3029196.818;-92.387;-72.382;-80.727;-100.695;-63.591;42.059;127.666;59.418
3029196.826;-89.146;-69.067;-72.978;-94.548;-57.854;36.955;121.109;51.260
3029196.834;-85.384;-68.918;-71.824;-71.749;-56.215;35.875;120.513;49.584
3029196.842;-88.327;-73.500;-70.557;-80.839;-58.301;31.441;112.057;46.678
3029196.850;-92.611;-78.008;-76.629;-94.958;-60.871;27.791;104.234;47.162
3029196.858;-88.178;-72.345;-73.947;-81.845;-67.763;25.369;98.236;48.578
3029196.866;-74.059;-57.183;-56.364;-72.010;-40.941;19.595;88.811;43.586
3029196.874;-55.395;-40.792;-41.239;-55.879;-30.063;22.948;89.221;46.976
3029196.882;-41.462;-27.679;-27.344;-40.047;-20.973;24.326;87.954;46.007
3029196.890;-31.590;-15.907;-15.721;-33.453;-12.517;23.581;84.937;44.815
3029196.898;-26.114;-7.302;-13.150;-23.060;-8.568;23.954;81.621;45.523
3029196.906;-33.118;-13.933;-19.707;-28.722;-16.913;19.148;72.047;41.872
3029196.914;-37.998;-21.271;-23.991;-34.682;-20.526;14.007;61.616;37.141
3029196.922;-44.703;-27.604;-28.834;-44.964;-19.558;11.064;55.581;30.473
3029196.930;-43.958;-27.604;-25.257;-34.869;-18.589;9.909;52.564;26.599
3029196.938;-40.755;-21.607;-25.481;-25.183;-21.569;12.890;53.421;27.195
3029196.946;-41.500;-22.836;-23.432;-23.916;-15.907;12.964;48.988;29.691
3029196.954;-44.778;-30.734;-23.395;-42.655;-19.595;9.201;40.717;30.398
3029196.962;-50.925;-34.906;-33.006;-41.649;-17.993;8.084;34.198;27.753
3029196.970;-56.028;-42.804;-32.261;-37.849;-20.862;4.061;24.587;23.991
3029196.978;-56.326;-44.145;-31.069;-42.692;-27.046;0.857;20.191;20.936
3029196.986;-52.452;-35.241;-31.590;-39.712;-30.249;1.192;20.191;19.222
3029196.996;-46.752;-34.235;-26.673;-36.657;-26.263;3.055;19.073;22.464
3029197.004;-49.025;-35.428;-31.777;-32.187;-25.071;-2.421;9.686;16.205
3029197.012;-49.062;-34.571;-29.132;-29.132;-22.464;-7.525;0.894;10.431
3029197.020;-47.386;-30.994;-21.607;-26.859;-14.603;-9.276;-5.141;8.568
3029197.028;-53.644;-39.935;-29.430;-40.233;-22.016;-11.101;-10.617;5.886
3029197.036;-54.315;-43.437;-36.061;-37.029;-26.748;-7.339;-8.494;9.425
3029197.044;-57.891;-42.915;-38.557;-35.539;-29.095;-7.898;-11.399;7.935
3029197.052;-57.034;-40.345;-35.278;-37.365;-27.567;-7.637;-13.784;8.792
3029197.060;-54.389;-37.961;-30.063;-37.290;-21.569;-10.468;-18.924;7.413
3029197.068;-48.243;-37.439;-25.071;-32.485;-19.521;-12.815;-24.959;4.061
3029197.076;-33.528;-25.481;-13.672;-12.293;-11.511;-9.015;-26.077;7.786
3029197.084;-33.490;-15.870;-13.895;-8.009;-6.519;-17.099;-35.577;0.224
3029197.092;-32.373;-12.852;-11.027;-12.927;-11.250;-24.140;-42.990;-6.072
3029197.100;-25.705;-15.274;1.863;-8.345;-4.433;-26.375;-49.695;-9.090
3029197.108;-21.048;-14.119;1.602;8.196;2.347;-25.667;-52.676;-9.984
3029197.116;-29.393;-16.019;-7.823;-3.092;0.522;-29.504;-60.797;-13.039
3029197.124;-32.373;-19.334;-9.425;-10.915;-0.559;-36.843;-70.967;-21.234
3029197.132;-32.671;-21.681;-6.668;-10.692;-9.499;-36.620;-71.302;-22.426
3029197.140;-27.567;-24.289;3.017;2.980;-7.413;-32.373;-69.067;-18.291
3029197.148;-27.530;-19.930;-2.794;4.396;-9.537;-31.292;-71.637;-16.503
3029197.156;-27.195;-11.660;-9.686;0.075;-10.096;-33.081;-76.890;-15.423
3029197.164;-28.200;-15.199;-6.296;-4.955;-6.519;-33.565;-80.653;-18.775
3029197.172;-27.046;-18.477;0.857;0.559;-3.241;-32.932;-85.458;-18.366
3029197.180;-18.626;-12.890;10.356;7.525;7.562;-34.124;-89.966;-16.578
3029197.190;-14.007;-1.974;11.846;13.225;8.196;-37.663;-97.491;-20.750
3029197.198;-13.150;4.582;10.207;20.415;2.123;-42.431;-106.096;-26.524
3029197.206;-15.944;-4.061;10.319;20.303;9.052;-43.958;-109.524;-31.255
3029197.214;-18.626;-14.640;13.337;8.084;11.325;-42.729;-111.721;-31.367
3029197.222;-25.295;-19.781;3.465;-4.917;-1.155;-36.322;-106.506;-26.897
3029197.230;-27.493;-12.182;-2.272;11.809;-3.502;-31.665;-101.365;-25.108
3029197.238;-23.469;-11.027;2.906;23.395;-0.373;-31.702;-102.185;-26.524
3029197.246;-15.162;-6.184;12.293;19.968;7.302;-28.051;-101.104;-25.518
3029197.254;-7.376;5.104;21.160;28.536;10.394;-28.349;-103.451;-25.369
3029197.262;-8.456;4.657;18.775;30.585;10.058;-33.565;-112.802;-30.026
3029197.270;-8.792;4.210;14.789;39.935;11.846;-41.611;-124.052;-38.818
3029197.278;-8.084;0.335;17.919;28.312;16.876;-50.031;-135.899;-45.635
3029197.286;-9.425;2.570;17.360;25.257;13.150;-53.048;-143.014;-48.615
3029197.294;-5.253;6.631;20.266;31.330;6.817;-47.982;-142.194;-44.592
3029197.302;-3.092;7.600;23.767;37.216;11.958;-49.695;-147.745;-46.566
3029197.310;-7.115;4.545;16.727;31.404;11.250;-51.782;-151.433;-51.782
3029197.318;-10.952;0.261;13.448;27.716;10.766;-46.343;-148.490;-48.131
3029197.326;-10.915;0.671;16.540;31.553;9.313;-40.345;-145.435;-44.256
3029197.334;-11.437;4.731;17.174;34.831;8.233;-40.159;-147.857;-44.145
3029197.342;-8.419;5.811;20.303;35.763;10.505;-41.462;-150.092;-45.635
3029197.350;-10.431;3.427;17.844;33.379;4.433;-53.123;-164.621;-58.450
3029197.358;-8.307;5.960;21.644;29.318;10.952;-57.556;-173.636;-61.914
3029197.366;-4.582;8.941;21.942;52.303;10.207;-55.023;-173.785;-59.865
3029197.374;-2.086;13.597;21.644;46.268;11.809;-53.532;-173.524;-57.966
3029197.385;-1.267;12.070;27.902;42.170;16.764;-53.830;-174.269;-57.332
3029197.393;-6.035;6.706;26.599;38.706;19.260;-57.109;-179.224;-62.101
3029197.401;-6.407;3.800;24.512;40.866;14.827;-55.060;-180.043;-60.424
3029197.409;-10.915;-2.235;18.477;40.345;6.706;-53.532;-179.783;-60.573
3029197.417;-10.841;3.688;21.569;40.047;6.594;-52.974;-180.714;-61.020
3029197.425;-10.692;7.264;21.942;40.606;10.505;-57.817;-188.835;-65.565
3029197.433;-10.952;6.258;19.968;38.892;6.929;-66.794;-198.446;-72.233
3029197.441;-8.903;3.502;19.670;39.525;9.499;-69.737;-201.687;-73.388
3029197.449;-10.468;3.204;19.260;42.841;6.407;-70.669;-201.985;-74.953
3029197.457;-10.058;6.296;20.675;44.890;3.502;-69.998;-204.593;-74.022
3029197.465;-15.646;-2.347;10.692;39.861;-1.006;-69.700;-208.691;-73.388
3029197.473;-18.589;-7.041;10.617;35.055;3.837;-71.302;-212.900;-74.245
3029197.481;-14.678;-4.433;15.348;34.682;3.465;-71.786;-214.651;-71.824
3029197.489;-14.305;-1.416;17.956;37.812;-0.410;-75.921;-220.016;-75.102
3029197.497;-16.540;-5.439;14.044;40.270;-1.006;-80.131;-224.262;-79.833
3029197.505;-15.944;-4.619;13.784;37.998;4.917;-82.478;-224.747;-84.527
3029197.513;-14.827;-1.267;15.199;42.841;3.651;-84.080;-224.039;-88.364
3029197.521;-5.513;8.903;25.816;59.232;11.213;-82.068;-222.959;-83.633
3029197.529;2.272;17.732;29.877;61.169;19.334;-83.223;-227.280;-85.086
3029197.537;-1.006;13.970;23.693;55.842;12.890;-89.221;-234.991;-90.562
3029197.545;1.676;12.740;24.848;53.383;7.786;-85.719;-232.533;-89.295
3029197.553;-1.416;10.096;20.601;57.556;9.798;-85.905;-232.942;-91.642
3029197.561;4.768;16.540;26.897;69.961;17.583;-83.484;-234.023;-86.091
3029197.569;-1.676;11.176;22.948;55.619;7.153;-91.493;-245.646;-91.270
3029197.595;-5.215;7.115;20.638;44.852;-0.559;-95.293;-252.947;-95.069
3029197.603;-3.465;6.221;24.289;51.074;10.580;-93.617;-254.102;-92.201
3029197.611;-8.717;2.459;16.987;59.158;13.821;-98.534;-259.802;-98.757
3029197.619;-4.023;6.258;17.546;60.499;10.058;-97.603;-258.982;-99.242
3029197.627;4.359;15.087;28.536;57.779;10.319;-98.199;-261.180;-102.259
3029197.635;5.104;17.062;31.553;54.240;11.995;-103.079;-267.923;-105.873
3029197.643;9.015;19.670;36.769;72.941;19.185;-98.422;-265.986;-98.944
3029197.651;7.376;18.962;31.069;76.666;20.973;-98.087;-270.791;-100.285
3029197.659;3.092;11.362;27.902;58.599;22.426;-106.134;-280.440;-106.804
3029197.667;-6.780;1.267;17.881;45.262;8.643;-115.521;-290.386;-115.782
3029197.675;1.155;10.729;27.716;61.803;8.941;-115.037;-291.727;-115.409
3029197.683;8.941;18.552;38.072;63.665;21.122;-113.696;-292.286;-112.578
3029197.691;5.439;11.735;31.814;65.565;21.011;-110.976;-292.659;-109.710
3029197.699;1.937;10.431;28.685;65.267;14.938;-104.681;-287.816;-105.873
3029197.707;-3.353;9.313;22.352;62.436;11.027;-108.108;-291.206;-112.057
3029197.715;-1.155;4.061;25.183;65.900;15.460;-110.902;-294.484;-115.372
3029197.723;4.768;15.721;35.204;63.963;15.087;-107.065;-291.541;-111.647
3029197.731;0.112;13.635;30.398;64.597;19.968;-113.696;-299.811;-117.272
3029197.739;1.602;13.597;34.049;64.559;19.111;-114.925;-302.605;-117.049
3029197.747;3.465;13.821;33.118;66.571;13.821;-111.759;-301.041;-114.664
3029197.755;4.396;14.938;32.634;66.943;14.827;-111.163;-302.829;-116.900
3029197.763;8.568;17.881;36.098;80.876;20.862;-114.478;-307.113;-122.339
3029197.771;9.835;18.924;37.067;76.965;20.936;-117.272;-313.036;-125.132
3029197.779;14.715;16.987;43.027;66.757;22.575;-118.762;-316.836;-125.170
3029197.761;15.683;16.131;46.305;71.488;28.796;-112.802;-311.621;-120.513
3029197.769;11.064;15.981;40.717;74.878;25.332;-113.659;-312.179;-121.631
3029197.777;12.144;16.689;38.929;85.160;23.730;-113.621;-312.887;-121.221
3029197.785;14.529;22.389;46.156;88.885;24.512;-117.682;-318.401;-126.883
3029197.793;15.832;24.065;46.417;80.802;26.561;-120.029;-323.318;-127.628
3029197.801;13.597;21.085;38.259;82.441;19.483;-120.066;-324.510;-127.889
3029197.809;12.107;23.469;36.322;79.982;12.778;-124.313;-328.757;-130.795
3029197.817;13.709;21.271;37.998;85.719;20.266;-129.230;-335.164;-132.881
3029197.825;16.987;22.724;45.896;88.885;25.965;-131.167;-339.337;-137.128
3029197.833;25.406;35.204;55.432;99.987;23.171;-130.758;-340.231;-137.202
3029197.841;17.919;24.997;46.901;83.186;21.905;-132.360;-343.435;-140.853
3029197.849;8.792;12.033;37.625;73.798;23.246;-134.520;-347.905;-143.386
3029197.857;8.121;9.015;36.620;73.463;15.907;-131.838;-345.819;-139.624
3029197.865;7.972;13.337;43.400;76.517;22.277;-128.709;-343.584;-135.489
3029197.873;5.886;12.927;41.388;74.282;21.346;-133.477;-349.991;-139.363
3029197.881;2.570;10.021;33.341;76.741;11.958;-138.655;-357.144;-145.063
3029197.889;4.433;10.915;31.516;71.786;9.537;-140.518;-360.981;-147.745
3029197.897;13.039;17.844;41.462;86.874;20.154;-141.114;-363.439;-149.012
3029197.905;12.517;21.532;41.053;89.295;24.661;-144.020;-369.586;-152.923
3029197.913;17.472;27.791;43.735;88.327;26.785;-135.526;-363.551;-147.000
3029197.921;18.515;27.344;52.154;92.722;23.618;-132.993;-361.800;-148.155
3029197.929;12.703;21.718;44.852;83.335;17.174;-136.718;-365.898;-152.625
3029197.937;16.689;24.512;48.056;85.570;23.358;-126.660;-358.038;-144.243
3029197.945;16.987;28.908;48.205;92.983;26.859;-124.089;-358.149;-143.945
3029197.957;16.019;27.902;41.537;91.456;19.297;-125.282;-361.316;-144.169
3029197.965;9.984;17.770;34.980;83.223;12.070;-132.769;-369.437;-152.066
3029197.973;14.417;18.291;49.211;79.162;30.026;-140.108;-376.292;-159.442
3029197.981;19.409;26.263;52.340;83.111;22.762;-137.798;-374.205;-158.623
3029197.989;23.507;32.969;55.246;95.740;25.891;-130.534;-368.506;-154.488
3029197.997;28.871;36.694;60.908;101.216;34.608;-125.505;-365.824;-150.315
3029198.005;36.620;44.070;70.184;97.118;47.311;-118.911;-361.055;-144.280
3029198.013;33.416;40.159;58.040;103.004;35.092;-123.195;-368.319;-148.788
3029198.021;38.184;44.517;67.949;105.053;34.496;-123.829;-370.890;-148.974
3029198.029;42.096;49.919;78.343;112.206;43.847;-124.723;-370.666;-149.868
3029198.037;44.592;54.538;78.231;104.867;49.844;-125.095;-371.039;-148.937
3029198.045;43.772;55.209;72.792;118.986;45.411;-123.829;-371.337;-147.559
3029198.053;35.465;43.102;65.342;112.318;40.047;-133.999;-382.215;-153.854
3029198.061;30.510;38.445;63.144;101.812;40.419;-137.426;-385.419;-155.382
3029198.069;30.249;38.147;62.585;104.420;32.410;-134.930;-384.226;-154.264
3029198.077;33.453;43.511;62.920;105.128;32.112;-132.062;-383.109;-151.247
3029198.085;32.969;47.386;65.714;104.979;39.972;-131.987;-383.146;-153.519
3029198.093;33.528;46.864;63.106;110.045;32.075;-132.173;-383.966;-152.998
3029198.101;34.422;48.839;64.522;111.498;36.024;-132.360;-383.258;-150.353
3029198.109;31.888;41.910;63.293;110.418;35.167;-137.649;-386.089;-153.556
3029198.117;31.665;43.549;66.534;107.884;38.706;-146.702;-394.322;-161.156
3029198.125;30.883;44.145;62.101;108.667;39.227;-149.682;-398.941;-164.397
3029198.133;34.124;45.113;62.063;113.361;30.920;-145.584;-394.881;-160.150
3029198.141;31.255;37.178;62.548;100.024;29.057;-143.349;-393.987;-156.537
3029198.150;26.487;30.138;56.848;89.146;27.791;-150.464;-402.704;-161.491
3029198.158;27.902;37.812;57.891;104.569;30.138;-153.147;-406.727;-162.721
3029198.166;27.493;37.141;59.083;108.629;36.471;-149.682;-405.014;-159.815
3029198.174;25.183;34.608;54.613;91.717;27.604;-152.588;-408.404;-161.380
3029198.182;30.249;39.898;63.851;107.437;32.000;-151.619;-407.770;-159.480
3029198.190;26.375;33.639;58.562;104.755;28.573;-152.588;-408.702;-162.907
3029198.198;25.854;32.596;53.421;99.987;29.989;-153.705;-409.707;-165.813
3029198.206;28.722;37.439;56.066;98.348;30.734;-154.898;-410.117;-167.787
3029198.214;26.636;32.410;59.120;105.053;28.424;-155.643;-411.086;-168.383
3029198.222;25.444;27.753;58.189;92.164;30.287;-155.307;-412.799;-167.713
3029198.230;21.346;25.518;52.266;84.043;23.991;-156.239;-415.929;-168.160
3029198.238;23.916;33.975;51.223;103.340;25.183;-155.866;-416.338;-164.844
3029198.246;24.699;34.161;56.066;107.251;34.720;-157.170;-417.456;-164.844
3029198.254;25.071;30.249;53.756;97.379;30.585;-154.413;-414.811;-162.572
3029198.262;31.963;33.639;62.659;97.267;24.326;-149.235;-408.925;-159.480
3029198.270;26.822;29.281;57.481;100.806;26.710;-155.233;-414.699;-165.999
3029198.278;25.108;35.353;54.762;96.858;35.614;-159.666;-419.952;-169.389
3029198.286;26.301;32.410;52.191;87.209;25.779;-158.772;-419.430;-168.830
3029198.294;30.920;36.359;53.868;107.065;18.850;-157.468;-420.101;-165.850
3029198.302;32.037;34.422;64.559;112.727;30.026;-159.889;-422.969;-168.681
3029198.310;27.381;33.379;58.748;96.597;30.994;-163.168;-427.477;-172.779
3029198.318;24.922;28.685;50.515;91.121;23.469;-161.044;-425.056;-170.618
3029198.326;24.028;30.175;47.460;93.393;26.450;-158.213;-421.293;-168.681
3029198.334;26.897;31.367;55.507;104.643;22.091;-158.176;-421.666;-169.128
3029198.346;33.639;38.035;66.087;106.692;29.430;-153.556;-418.648;-163.801
3029198.354;29.132;34.980;58.860;104.979;28.685;-152.029;-419.021;-162.274
3029198.362;23.916;27.940;49.844;96.820;24.177;-158.325;-426.508;-166.818
3029198.370;23.209;29.840;45.002;98.869;26.897;-157.654;-427.067;-167.526
3029198.378;23.730;29.057;49.323;95.218;18.403;-156.946;-426.285;-167.340
3029198.386;26.524;33.937;60.946;99.391;28.014;-161.640;-429.265;-170.544
3029198.394;24.252;32.596;56.401;104.830;27.120;-165.962;-432.320;-175.573
3029198.402;23.246;29.616;54.054;96.336;27.157;-167.973;-433.996;-175.759
3029198.410;22.836;26.450;51.893;101.030;28.126;-168.867;-434.518;-176.094
3029198.418;21.271;24.401;48.541;90.748;15.385;-168.644;-435.300;-177.696
3029198.426;22.016;27.157;51.297;91.419;26.375;-167.973;-435.896;-179.298
3029198.434;19.781;29.504;51.148;108.816;20.824;-166.036;-434.890;-179.335
3029198.442;17.174;27.269;48.131;102.073;15.013;-166.893;-438.504;-176.691
3029198.450;12.293;16.205;42.282;89.742;8.792;-171.289;-445.023;-180.863
3029198.458;11.846;14.380;38.110;88.029;5.998;-174.120;-449.009;-184.774
3029198.466;18.887;27.530;51.185;91.195;21.346;-172.518;-446.513;-183.545
3029198.474;23.656;32.708;60.089;101.700;31.777;-168.383;-442.043;-182.576
3029198.482;25.555;31.851;56.885;109.039;23.730;-164.770;-439.286;-179.708
3029198.490;22.464;21.867;54.725;102.520;21.979;-162.497;-437.498;-179.820
3029198.498;22.948;28.796;52.229;95.330;21.420;-163.764;-438.914;-181.682
3029198.506;25.593;34.161;53.123;103.787;21.905;-162.274;-437.275;-182.353
3029198.514;27.604;34.794;59.865;109.747;30.771;-159.480;-435.635;-181.980
3029198.522;35.204;38.035;66.534;118.315;37.625;-154.376;-431.985;-178.218
3029198.530;29.728;32.410;57.854;112.802;26.710;-157.394;-435.971;-182.502
3029198.555;22.724;32.894;49.658;95.181;13.299;-161.827;-442.266;-186.488
3029198.563;26.934;39.563;55.842;116.564;22.091;-156.835;-440.329;-180.453
3029198.571;27.679;33.826;56.960;115.000;29.095;-156.350;-439.845;-179.745
3029198.579;29.691;33.081;63.479;116.937;33.602;-154.600;-437.386;-178.441
3029198.587;27.083;33.490;62.101;101.887;25.667;-156.760;-440.702;-183.024
3029198.595;27.828;39.302;54.054;110.120;10.915;-157.431;-442.602;-187.233
3029198.603;35.688;42.580;62.101;121.258;30.063;-159.070;-444.986;-189.543
3029198.611;36.061;33.900;68.955;111.982;33.453;-158.399;-444.949;-190.698
3029198.619;39.265;37.700;70.892;105.537;35.278;-154.041;-440.516;-185.333
3029198.627;33.714;34.347;62.399;106.320;26.822;-154.600;-441.931;-186.078
3029198.635;27.865;31.330;51.223;105.724;14.976;-153.296;-442.266;-182.874
3029198.643;28.759;33.565;28.573;105.798;10.394;-150.129;-436.902;-179.373
3029198.651;26.673;27.046;18.887;103.787;19.632;-152.700;-438.355;-183.210
3029198.659;30.436;33.714;27.902;107.102;26.487;-152.551;-439.696;-181.459
3029198.667;37.365;41.872;48.801;105.053;31.292;-150.688;-440.069;-179.335
3029198.675;31.963;35.949;51.968;105.500;15.758;-158.213;-448.227;-185.296
3029198.683;29.542;30.845;50.329;106.059;11.511;-161.119;-449.158;-187.494
3029198.691;28.946;29.989;53.383;102.744;19.521;-164.062;-451.766;-190.996
3029198.699;33.528;36.918;58.264;105.649;24.103;-164.285;-451.654;-189.282
3029198.707;31.926;34.571;53.346;102.594;21.271;-162.907;-449.643;-188.537
3029198.715;37.402;38.296;61.095;102.036;20.787;-157.282;-443.123;-183.322
3029198.723;39.190;40.643;61.579;117.496;25.705;-155.792;-441.149;-182.129
3029198.731;34.831;37.812;58.338;111.721;29.020;-163.876;-449.195;-189.915
3029198.739;37.141;42.766;61.840;112.243;27.269;-163.019;-449.754;-188.723
3029198.722;33.490;33.453;60.089;101.849;25.220;-162.981;-450.760;-189.282
3029198.730;32.447;28.908;60.685;98.571;22.314;-164.583;-452.325;-188.947
3029198.738;35.390;34.757;59.530;105.277;19.558;-162.460;-448.115;-184.961
3029198.746;32.671;34.496;52.042;109.039;22.128;-162.646;-447.221;-184.588
3029198.754;37.625;40.419;68.210;102.259;31.069;-159.033;-442.676;-181.049
3029198.762;42.692;39.786;73.873;114.404;36.918;-151.582;-434.555;-175.908
3029198.770;40.382;39.227;64.857;113.882;29.393;-153.705;-435.598;-179.149
3029198.778;38.855;40.345;63.926;109.896;26.710;-160.113;-441.149;-183.620
3029198.786;27.865;30.920;52.638;94.101;17.993;-168.644;-452.027;-190.847
3029198.794;29.467;33.267;50.813;101.663;16.429;-169.240;-453.144;-188.015
3029198.802;35.539;38.370;61.877;114.702;25.220;-165.664;-450.499;-183.247
3029198.810;36.955;36.061;66.124;97.938;34.124;-161.827;-447.668;-180.379
3029198.818;39.376;39.600;67.502;99.763;30.026;-159.554;-446.625;-179.596
3029198.826;40.680;45.821;71.675;114.776;40.717;-158.362;-445.507;-178.665
3029198.834;43.772;48.913;69.737;124.015;33.006;-155.643;-443.943;-173.822
3029198.842;38.855;39.674;63.442;100.322;26.487;-159.070;-446.811;-176.840
3029198.850;34.794;31.665;61.765;92.499;31.143;-160.821;-446.215;-178.218
3029198.858;35.241;36.135;60.983;101.514;31.479;-159.182;-444.651;-175.051
3029198.866;32.634;33.043;63.442;111.274;21.569;-163.727;-450.425;-178.330
3029198.874;30.585;30.920;59.754;97.305;16.838;-171.401;-458.993;-182.204
3029198.882;31.292;32.559;58.934;91.754;21.383;-173.301;-459.328;-184.178
3029198.890;38.594;34.831;60.052;92.834;36.024;-167.862;-450.946;-181.273
3029198.898;43.213;42.431;68.583;111.088;30.510;-167.079;-447.519;-183.024
3029198.906;37.327;38.333;64.820;105.500;18.403;-169.054;-449.084;-187.419
3029198.916;41.947;40.419;69.700;109.822;35.577;-166.669;-446.662;-182.502
3029198.924;40.047;35.241;63.032;95.293;29.281;-170.358;-451.207;-185.333
3029198.932;36.471;29.467;55.842;88.401;18.626;-172.444;-455.193;-186.227
3029198.940;42.357;43.921;62.585;110.976;29.057;-169.128;-450.574;-182.390
3029198.948;38.892;40.047;59.828;103.004;27.306;-170.991;-450.537;-184.439
3029198.956;38.296;35.949;58.375;94.958;28.163;-169.128;-448.525;-181.235
3029198.964;40.978;34.831;62.920;107.549;27.828;-163.019;-441.819;-177.026
3029198.972;37.216;34.310;60.275;106.394;22.985;-163.727;-441.335;-179.373
3029198.980;41.872;46.492;63.926;109.971;32.224;-165.366;-442.229;-181.906
3029198.988;41.164;47.274;57.183;116.639;23.805;-173.822;-449.419;-189.990
3029198.996;44.517;46.492;63.330;109.933;23.805;-171.699;-446.327;-186.861
3029199.004;40.904;41.611;59.940;106.841;25.854;-169.128;-444.576;-185.184
3029199.012;39.600;36.508;60.201;104.792;19.707;-169.724;-444.464;-186.898
3029199.020;37.439;38.333;58.860;100.136;22.016;-170.060;-444.092;-188.053
3029199.028;37.253;39.414;58.971;109.151;27.530;-169.352;-444.204;-185.408
3029199.036;35.688;36.173;55.432;107.810;24.363;-168.011;-443.049;-181.831
3029199.044;35.129;33.602;54.725;104.085;23.991;-168.234;-442.564;-184.104
3029199.052;35.614;32.112;54.166;96.150;18.254;-169.240;-444.204;-186.302
3029199.060;40.829;43.474;60.350;110.976;21.532;-166.409;-441.447;-184.178
3029199.068;40.829;44.890;62.510;112.243;27.344;-167.042;-441.708;-186.116
3029199.076;40.978;40.159;61.095;107.028;24.103;-160.560;-437.684;-178.404
3029199.084;40.270;42.506;57.928;112.467;26.822;-156.574;-434.928;-174.530
3029199.092;38.929;39.637;62.659;110.678;29.951;-157.058;-436.679;-175.163
3029199.100;30.138;28.349;55.060;89.891;16.056;-164.658;-444.390;-181.198
3029199.112;26.226;26.785;45.933;86.389;9.276;-165.366;-443.943;-183.657
3029199.120;29.020;29.579;49.546;96.932;8.605;-159.852;-438.169;-179.075
3029199.128;30.138;28.796;50.589;106.059;18.179;-160.336;-437.759;-180.937
3029199.136;29.653;28.014;52.340;90.525;17.174;-162.981;-440.329;-184.551
3029199.144;33.937;34.645;57.630;95.107;16.354;-161.678;-440.776;-182.167
3029199.152;33.379;33.826;55.693;99.652;23.469;-165.105;-446.290;-185.557
3029199.160;34.273;36.247;52.750;102.594;21.681;-161.864;-444.874;-181.943
3029199.168;30.100;28.573;52.266;95.963;16.838;-161.976;-447.109;-186.376
3029199.176;27.083;28.908;45.225;90.823;12.033;-164.583;-450.052;-189.282
3029199.184;28.983;34.347;55.470;98.087;18.664;-162.534;-446.476;-187.829
3029199.192;29.057;33.677;58.934;94.250;21.793;-161.715;-442.974;-190.735
3029199.200;36.135;35.875;59.269;99.279;23.954;-154.488;-435.673;-184.476
3029199.208;35.428;36.955;60.387;102.706;23.991;-151.992;-434.965;-181.757
3029199.216;28.014;32.559;53.197;94.585;21.495;-158.660;-441.745;-187.941
3029199.224;26.301;30.249;48.354;88.550;15.795;-158.958;-441.149;-186.786
3029199.232;23.581;23.581;47.944;84.527;7.823;-159.629;-442.863;-186.451
3029199.240;24.028;21.309;46.715;91.828;7.823;-159.219;-443.198;-185.184
3029199.248;23.991;23.134;45.970;82.254;6.966;-157.468;-441.782;-184.365
3029199.256;20.191;22.724;49.844;77.039;14.342;-156.984;-440.702;-184.067
3029199.264;15.646;18.366;48.392;85.719;16.801;-154.339;-437.349;-180.192
3029199.272;9.462;9.537;39.637;80.094;4.917;-156.350;-436.902;-183.769
3029199.280;14.566;14.268;46.603;82.329;10.133;-154.600;-434.443;-181.533
3029199.288;18.477;20.601;52.452;75.847;13.486;-158.511;-438.802;-184.402
3029199.296;14.044;17.434;49.099;77.747;8.382;-162.497;-442.564;-186.972
3029199.319;17.472;18.813;50.403;87.358;12.852;-161.231;-440.702;-184.216
3029199.327;22.091;21.234;53.234;90.189;14.082;-162.087;-440.106;-184.998
3029199.335;21.197;22.613;51.074;77.486;10.952;-161.119;-438.094;-185.110
3029199.343;20.228;26.077;53.272;91.530;18.962;-159.331;-434.145;-186.823
3029199.351;23.879;29.318;52.936;96.597;18.142;-158.176;-432.618;-185.780
3029199.359;27.381;30.138;60.424;91.195;15.013;-155.903;-430.159;-180.155
3029199.367;22.203;26.003;47.497;82.068;12.778;-153.258;-427.552;-177.808
3029199.375;20.675;25.183;46.901;91.605;5.960;-149.757;-424.646;-174.083
3029199.383;17.546;19.781;47.386;85.905;4.545;-151.582;-428.073;-173.561
3029199.391;16.317;14.603;48.056;76.704;10.133;-155.680;-430.793;-176.355
3029199.399;25.481;22.016;56.028;85.123;20.824;-152.849;-426.061;-173.971
3029199.407;22.538;24.326;54.389;82.478;15.385;-154.674;-427.216;-176.318
3029199.415;21.942;21.979;51.446;76.778;16.168;-154.711;-425.801;-175.387
3029199.423;16.913;20.862;49.435;83.745;13.895;-156.127;-425.130;-178.628
3029199.431;15.832;19.968;44.294;88.327;12.182;-157.282;-424.385;-178.032
3029199.439;18.030;20.675;44.443;77.263;4.135;-155.456;-423.305;-175.126
3029199.447;19.930;23.805;52.527;84.080;12.480;-153.258;-420.324;-175.983
3029199.455;21.309;25.406;51.707;90.897;8.717;-154.525;-422.150;-176.206
3029199.463;25.816;30.510;56.066;92.797;16.242;-150.725;-418.201;-172.332
3029199.471;18.030;18.552;50.589;79.051;17.881;-153.929;-421.479;-174.381
3029199.479;12.368;11.064;39.302;74.245;5.625;-160.038;-427.850;-180.751
3029199.487;16.764;19.372;39.823;80.802;5.364;-158.325;-425.093;-181.384
3029199.495;23.991;28.871;56.922;91.642;11.772;-152.886;-418.238;-175.610
3029199.503;23.656;26.003;56.811;82.366;9.388;-153.035;-416.599;-177.696
3029199.504;20.899;22.165;53.681;80.019;19.930;-152.700;-416.115;-175.349
3029199.512;16.503;19.670;45.411;84.601;12.852;-153.482;-418.797;-173.524
3029199.520;14.082;18.179;38.072;86.837;0.298;-154.898;-420.324;-174.381
3029199.528;8.568;11.548;38.445;65.416;-0.894;-157.356;-423.342;-174.232
3029199.536;10.096;11.809;46.082;69.886;-0.820;-153.482;-419.021;-171.550
3029199.544;14.417;14.268;48.615;78.194;5.551;-149.645;-413.284;-168.607
3029199.552;16.391;18.291;45.560;79.460;2.161;-147.857;-410.974;-166.893
3029199.560;19.707;20.899;46.492;80.690;18.291;-147.633;-410.937;-167.452
3029199.568;20.862;21.979;50.105;77.337;15.572;-149.645;-412.688;-167.266
3029199.576;23.320;24.624;56.773;94.250;11.884;-150.949;-413.060;-167.303
3029199.584;24.326;28.461;55.768;95.665;15.758;-151.657;-410.788;-168.867
3029199.592;20.936;24.028;48.466;74.469;9.611;-152.849;-411.235;-170.358
3029199.600;13.523;14.938;38.892;69.179;6.072;-153.109;-410.117;-170.209
3029199.608;14.007;14.603;43.176;83.968;6.407;-147.969;-405.759;-165.366
3029199.616;13.299;11.586;39.712;89.630;3.353;-144.728;-403.784;-163.913
3029199.624;14.976;17.546;44.033;75.996;6.147;-147.708;-407.323;-166.520
3029199.632;14.566;16.987;46.715;79.423;7.935;-150.837;-410.266;-167.601
3029199.640;10.133;9.090;38.855;75.139;3.949;-155.456;-412.837;-174.157
3029199.648;11.697;9.313;40.345;75.400;6.035;-158.250;-415.109;-176.318
3029199.656;11.660;10.580;43.027;72.271;11.474;-159.778;-417.605;-180.006
3029199.664;12.070;10.468;36.582;74.916;10.207;-157.170;-414.923;-179.075
3029199.672;10.282;9.947;34.533;81.956;-3.055;-155.568;-412.650;-176.542
3029199.680;9.499;8.717;39.823;74.729;1.192;-154.451;-411.943;-176.206
3029199.688;11.660;10.207;34.235;68.434;0.186;-153.184;-409.223;-174.381
3029199.682;13.188;13.374;36.880;83.484;2.198;-152.998;-407.100;-176.728
3029199.690;9.499;10.766;33.528;80.764;-3.800;-156.388;-408.925;-180.304
3029199.698;6.445;5.774;32.671;67.353;-2.608;-155.531;-408.441;-177.920
3029199.706;0.298;-1.378;28.871;69.030;0.298;-152.402;-407.025;-176.243
3029199.714;3.241;2.459;26.710;62.361;-7.041;-148.155;-403.151;-171.177
3029199.722;1.639;2.421;23.618;73.686;-16.131;-149.496;-403.449;-173.263
3029199.730;4.470;5.811;29.095;74.953;-5.774;-150.688;-404.641;-175.349
3029199.738;8.009;8.829;33.230;68.434;0.447;-149.310;-402.182;-174.344
3029199.746;4.172;0.335;31.255;69.588;-7.302;-148.043;-399.873;-174.493
3029199.754;0.298;1.267;26.524;68.322;-10.692;-148.155;-399.649;-175.536
3029199.762;3.092;3.949;30.175;65.491;-3.502;-145.882;-398.420;-174.418
3029199.770;0.782;-4.135;30.361;60.089;-2.347;-147.521;-400.506;-175.536
3029199.778;2.272;-1.155;32.969;57.891;-2.645;-145.175;-397.526;-172.667
3029199.786;6.445;4.508;35.912;59.158;-1.416;-139.065;-392.273;-169.277
3029199.794;6.109;9.388;34.720;66.757;-2.980;-135.638;-389.069;-168.309
3029199.802;2.421;5.029;28.387;71.861;-8.047;-140.332;-392.832;-172.928
3029199.810;4.135;0.633;30.212;61.877;-7.749;-138.395;-389.144;-170.469
3029199.818;7.115;5.141;36.806;61.095;-0.894;-131.652;-382.997;-163.019
3029199.826;3.055;2.310;29.989;50.999;-4.582;-130.497;-381.954;-162.758
3029199.834;4.806;5.402;32.522;68.508;-0.559;-131.950;-382.774;-161.342
3029199.842;2.496;2.421;35.428;65.640;-2.123;-139.140;-388.287;-169.687
3029199.850;3.353;2.235;30.845;59.493;-7.488;-139.810;-388.063;-171.177
3029199.858;8.307;6.445;33.379;67.949;-3.800;-134.446;-380.725;-165.701
3029199.866;5.029;2.682;32.000;60.499;-12.182;-133.142;-378.750;-162.944
3029199.877;-1.080;-1.416;25.406;53.979;-14.082;-136.085;-382.066;-163.428
3029199.885;3.688;2.459;34.720;58.115;6.333;-136.010;-380.352;-164.621
3029199.893;7.190;5.513;34.869;65.118;1.937;-133.701;-375.770;-161.193
3029199.901;8.158;1.900;35.949;58.375;-0.671;-132.881;-373.684;-159.256
3029199.909;5.923;-1.006;32.969;63.442;-4.172;-134.632;-374.727;-161.342
3029199.917;7.786;6.780;40.755;57.332;-0.149;-138.097;-376.329;-161.231
3029199.925;5.215;7.972;35.614;63.106;-4.470;-141.077;-378.527;-161.640
3029199.933;-3.390;-2.310;19.930;49.993;-17.956;-142.790;-380.762;-160.933
3029199.941;-1.267;-0.596;25.034;46.231;-8.531;-142.902;-380.240;-158.995
3029199.949;2.459;2.906;36.284;56.140;2.161;-142.790;-377.968;-157.580
3029199.957;4.582;2.645;34.235;62.212;4.582;-142.045;-375.137;-154.823
3029199.965;0.671;3.912;25.332;67.092;-5.588;-144.541;-374.503;-160.262
3029199.973;2.496;6.966;30.734;64.448;-3.986;-146.702;-372.007;-164.881
3029199.981;6.296;8.270;32.000;59.716;1.192;-146.516;-371.188;-165.254
3029199.989;11.362;15.683;36.508;66.683;4.396;-146.776;-373.051;-164.099
3029199.997;24.438;26.897;49.733;77.859;12.480;-143.498;-370.406;-155.643
3029200.005;31.032;31.777;54.725;81.882;16.056;-142.977;-370.443;-152.811
3029200.013;32.783;36.545;62.361;85.980;32.037;-146.702;-374.056;-156.090
3029200.021;42.133;44.033;72.606;82.888;39.600;-142.381;-370.890;-151.098
3029200.029;50.552;51.521;77.561;93.281;39.153;-140.220;-367.574;-151.172
3029200.037;65.267;71.339;85.384;120.625;53.458;-134.110;-358.559;-147.186
3029200.045;80.094;88.327;106.730;138.246;63.516;-128.038;-350.662;-143.200
3029200.053;83.447;93.505;114.515;133.514;69.886;-132.136;-352.338;-145.882
3029200.061;87.172;99.763;114.106;143.573;76.629;-138.357;-356.510;-150.986
3029200.070;83.894;92.015;107.586;142.902;74.767;-141.114;-357.889;-154.413
3029200.078;77.039;81.472;95.926;123.046;65.230;-141.524;-358.038;-152.066
3029200.086;67.502;75.214;88.848;117.645;50.515;-142.045;-358.336;-151.508
3029200.094;65.155;73.723;94.846;116.155;59.716;-139.587;-354.052;-149.049
3029200.102;58.971;65.751;83.894;116.378;51.670;-133.887;-349.768;-143.014
3029200.110;36.210;39.190;55.693;89.779;20.750;-136.644;-353.716;-144.467
3029200.118;29.169;28.983;53.979;68.732;16.987;-140.108;-355.802;-144.280
3029200.126;23.022;21.420;46.529;58.264;5.774;-148.751;-360.273;-152.253
3029200.134;21.011;19.893;45.151;66.347;9.872;-150.912;-358.373;-157.319
3029200.142;32.037;31.367;62.175;78.566;27.865;-144.653;-348.613;-152.849
3029200.150;30.696;26.636;54.277;74.916;17.248;-140.890;-343.472;-152.104
3029200.158;30.100;27.604;53.719;70.184;21.942;-140.034;-341.497;-152.402
3029200.166;27.269;26.971;49.472;67.316;12.666;-140.071;-343.285;-154.786
3029200.174;26.785;25.369;43.884;74.357;18.813;-140.630;-345.074;-155.829
3029200.182;24.810;20.489;43.437;71.116;14.901;-140.145;-343.919;-155.345
3029200.190;18.664;13.337;38.818;65.006;5.625;-138.022;-339.262;-153.817
3029200.198;16.242;11.176;36.024;59.642;4.433;-131.689;-330.582;-147.820
3029200.206;5.327;2.123;23.395;48.392;-2.049;-134.781;-332.519;-150.725
3029200.214;-3.874;-7.860;13.076;43.325;-16.131;-140.443;-338.517;-154.600
3029200.222;0.671;-4.433;17.248;40.792;-4.172;-138.953;-335.723;-150.539
3029200.230;0.782;-8.419;19.073;36.918;-2.794;-140.034;-336.245;-152.662
3029200.238;7.935;0.373;20.973;49.733;-5.253;-134.967;-330.769;-148.267
3029200.246;10.245;6.631;20.228;58.599;-7.860;-134.483;-329.912;-146.627
3029200.254;10.207;4.545;28.461;53.048;4.545;-138.916;-334.904;-150.464
3029200.267;17.919;10.468;37.253;59.046;18.552;-133.812;-329.427;-145.547
3029200.275;16.801;11.362;30.398;58.524;12.740;-130.385;-325.777;-143.088
3029200.283;15.609;10.394;25.406;59.828;1.192;-128.075;-322.051;-141.077
3029200.291;15.758;13.970;26.263;75.512;2.682;-126.623;-318.587;-140.369
3029200.299;15.795;9.015;31.963;60.014;0.857;-127.181;-317.767;-141.077
3029200.307;13.523;6.258;28.312;52.862;5.588;-125.356;-315.569;-140.481
3029200.315;6.482;2.384;18.775;53.607;0.522;-124.872;-316.575;-142.194
3029200.323;5.476;1.900;13.411;51.819;-0.782;-125.095;-318.028;-140.592
3029200.331;2.868;-3.688;10.654;51.334;-7.004;-128.560;-321.418;-143.535
3029200.339;7.600;0.559;21.383;45.560;-8.941;-127.256;-320.524;-143.051
3029200.347;11.697;5.551;28.089;49.509;-0.522;-126.399;-319.369;-142.679
3029200.355;11.660;6.407;25.518;63.479;18.403;-126.511;-318.065;-144.504
3029200.363;17.732;14.193;28.908;66.459;16.578;-122.078;-312.626;-141.002
3029200.371;19.036;10.133;27.120;53.234;12.144;-119.321;-309.274;-140.406
3029200.379;17.881;14.156;28.647;56.177;-1.341;-117.272;-307.597;-140.630
3029200.387;24.773;20.377;40.084;73.984;13.001;-113.882;-304.766;-137.575
3029200.395;23.544;18.962;33.043;71.563;12.442;-114.888;-307.932;-138.879
3029200.403;20.340;17.248;26.748;58.077;1.043;-118.092;-310.056;-140.145
3029200.411;14.640;10.394;21.346;49.621;-5.774;-121.742;-313.036;-141.636
3029200.419;17.844;17.248;25.705;61.803;10.356;-121.929;-312.403;-139.512
3029200.427;21.383;18.328;38.892;65.379;20.340;-123.940;-312.589;-139.847
3029200.435;17.807;13.560;28.349;53.532;7.786;-128.001;-315.532;-144.616
3029200.443;18.403;13.709;24.401;52.601;2.198;-126.436;-314.005;-142.530
3029200.451;17.360;8.792;26.822;56.215;4.284;-125.021;-312.813;-140.220
3029200.461;21.867;14.231;31.739;62.957;16.727;-118.688;-306.331;-132.509
3029200.469;23.954;19.148;33.006;56.811;15.460;-118.278;-305.250;-130.422
3029200.477;17.025;9.052;30.771;45.002;5.215;-123.791;-308.827;-136.495
3029200.485;15.981;10.952;27.493;52.825;0.335;-124.611;-308.231;-137.687
3029200.493;14.976;8.568;24.028;54.725;3.614;-126.772;-310.466;-139.698
3029200.501;18.999;12.815;26.524;56.140;3.241;-125.989;-309.311;-137.091
3029200.509;18.999;11.958;22.352;47.646;4.992;-123.903;-305.921;-133.626
3029200.517;20.266;11.511;28.461;49.435;7.749;-123.568;-303.388;-132.881
3029200.525;27.269;19.483;36.545;58.301;8.568;-117.011;-294.223;-124.983
3029200.533;25.481;21.756;35.390;61.989;17.770;-115.894;-290.722;-124.052
3029200.541;20.824;15.013;29.355;54.948;9.462;-122.711;-296.347;-129.901
3029200.549;19.036;13.523;23.805;51.707;4.321;-122.674;-295.117;-130.422
3029200.557;17.546;14.231;21.383;59.232;0.596;-121.333;-294.261;-129.640
3029200.565;19.073;15.199;24.848;55.432;0.894;-121.593;-295.006;-128.672
3029200.573;18.626;11.176;29.877;47.423;12.554;-120.886;-291.653;-129.268
3029200.581;23.171;16.093;31.181;53.607;14.082;-115.670;-284.947;-122.786
3029200.589;29.802;24.512;33.416;71.414;13.225;-112.951;-281.185;-120.401
3029200.597;30.324;25.816;35.278;64.857;8.307;-113.919;-280.365;-122.599
3029200.605;31.069;26.487;39.041;57.034;20.638;-117.719;-284.500;-125.729
3029200.613;32.037;23.507;39.674;61.058;23.842;-121.184;-288.300;-130.348
3029200.621;27.344;21.420;28.424;62.846;11.623;-120.215;-288.449;-127.554
3029200.629;23.171;17.695;22.687;57.593;-0.596;-117.905;-287.108;-123.531
3029200.637;22.911;16.801;30.287;52.303;9.015;-118.725;-286.996;-124.276
3029200.645;27.269;20.750;38.184;55.321;24.885;-116.974;-282.302;-121.556
3029200.656;20.117;16.168;26.673;58.636;8.084;-119.731;-284.426;-124.797
3029200.664;19.334;16.950;22.426;56.699;0.745;-117.309;-282.042;-122.301
3029200.672;22.762;15.125;23.171;41.984;6.631;-114.217;-279.024;-118.501
3029200.680;24.252;13.709;24.140;49.062;3.912;-116.341;-278.875;-121.556
3029200.688;25.295;16.578;30.324;53.905;20.787;-119.209;-279.956;-126.362
3029200.696;21.085;14.193;25.630;40.084;19.632;-125.170;-286.214;-133.440
3029200.704;22.464;16.242;28.573;44.629;19.856;-123.866;-283.830;-131.130
3029200.712;25.667;22.426;32.857;53.011;16.317;-118.464;-277.534;-125.282
3029200.720;21.234;15.721;20.787;61.840;0.820;-118.166;-277.199;-125.021
3029200.728;22.873;12.591;28.983;53.197;17.136;-109.114;-267.476;-113.584
3029200.736;21.383;16.168;27.716;37.588;17.658;-107.773;-265.762;-112.951
3029200.744;22.650;16.503;27.791;42.878;13.001;-110.343;-266.507;-116.229
3029200.752;32.894;24.810;34.422;65.155;18.999;-103.377;-260.547;-112.057
3029200.760;33.192;23.395;33.304;57.817;19.558;-103.638;-261.590;-115.931
3029200.768;33.975;26.859;37.700;54.166;24.289;-108.406;-266.321;-119.731
3029200.776;35.763;29.914;36.620;60.908;24.177;-108.220;-265.166;-118.650
3029200.784;35.353;27.828;38.035;59.977;18.887;-107.177;-265.650;-116.192
3029200.792;34.422;26.412;36.098;52.042;18.738;-106.618;-263.639;-115.111
3029200.800;28.349;19.670;35.763;43.027;18.552;-111.610;-267.550;-119.656
3029200.808;26.561;22.240;29.355;55.656;18.962;-112.616;-268.333;-117.719
3029200.816;22.128;20.303;20.862;58.003;14.715;-109.896;-265.799;-113.435
3029200.824;19.781;17.397;23.767;55.023;4.545;-102.073;-258.647;-106.208
3029200.832;17.807;17.248;16.987;41.425;-8.121;-96.187;-252.202;-103.712
3029200.840;17.583;11.325;18.291;40.457;6.296;-97.305;-252.835;-107.996
3029200.836;24.438;17.434;25.705;54.650;17.770;-93.244;-249.483;-104.867
3029200.844;26.524;25.481;20.377;54.203;7.562;-93.654;-250.675;-105.128
3029200.852;26.599;24.624;29.802;44.703;1.043;-98.385;-256.002;-108.704
3029200.860;34.757;30.957;41.537;53.532;18.813;-94.660;-252.537;-105.239
3029200.868;31.888;27.791;31.218;64.671;19.334;-94.101;-249.147;-105.277
3029200.876;26.189;21.979;23.060;56.326;7.302;-93.132;-246.204;-102.036
3029200.884;16.727;10.915;16.727;37.551;-0.894;-95.479;-248.328;-103.116
3029200.892;16.429;12.219;17.993;40.531;1.192;-95.032;-247.844;-102.632
3029200.900;20.452;17.546;17.472;56.103;1.714;-90.860;-244.081;-98.385
3029200.908;22.240;18.664;18.626;53.048;-0.037;-91.828;-245.161;-101.216
3029200.916;24.885;15.423;28.163;47.311;9.984;-89.258;-240.915;-98.981
3029200.924;34.347;24.997;42.431;54.836;28.685;-76.666;-226.386;-90.189
3029200.932;30.808;26.226;31.777;59.828;13.337;-77.523;-230.670;-93.766
3029200.940;23.507;23.767;13.746;52.676;-10.766;-81.472;-236.705;-99.204
3029200.948;19.856;16.466;17.211;49.286;-2.943;-84.974;-239.499;-104.718
3029200.956;21.085;14.529;31.739;43.884;12.740;-86.240;-241.138;-104.271
3029200.964;18.813;12.442;26.636;40.196;6.929;-83.111;-239.201;-101.812
3029200.972;19.073;14.827;19.521;44.331;1.192;-80.578;-237.338;-99.055
3029200.980;21.458;19.222;17.881;49.062;-2.198;-77.821;-234.134;-96.075
3029200.988;21.458;18.850;16.913;52.676;-4.359;-76.070;-232.123;-93.356
3029200.996;21.532;17.323;21.607;48.652;3.874;-77.263;-231.825;-93.579
3029201.004;22.650;18.291;30.436;48.578;5.476;-81.845;-232.384;-98.348
3029201.012;26.897;21.942;28.573;42.170;5.029;-87.954;-234.433;-103.600
3029201.020;35.651;32.708;32.671;63.218;9.723;-84.080;-228.360;-101.924
3029201.031;45.374;41.127;42.617;61.207;14.305;-80.727;-224.784;-101.328
3029201.039;47.386;40.382;45.858;56.885;24.661;-83.931;-229.180;-102.483
3029201.047;46.380;36.657;43.623;58.375;22.128;-82.068;-229.217;-100.024
3029201.055;40.568;33.081;41.649;55.507;12.405;-80.802;-229.925;-95.367
3029201.063;30.734;24.363;32.261;42.468;7.451;-77.225;-227.615;-88.625
3029201.071;24.848;16.242;30.585;40.121;8.009;-73.835;-223.517;-84.862
3029201.079;29.393;23.730;28.759;43.809;13.039;-68.657;-216.700;-79.162
3029201.087;32.075;26.785;29.169;53.421;9.574;-66.608;-211.820;-78.715
3029201.095;37.067;31.218;39.041;52.191;12.964;-62.473;-204.854;-77.039
3029201.103;36.880;35.018;34.980;55.581;9.052;-68.694;-205.413;-84.117
3029201.111;35.912;33.267;32.857;54.762;1.974;-75.698;-207.387;-91.381
3029201.119;45.076;39.078;46.305;63.144;25.332;-75.325;-207.089;-88.625
3029201.127;44.703;41.649;42.841;60.722;23.991;-75.847;-208.057;-87.135
3029201.135;41.351;38.184;38.855;49.286;17.062;-78.641;-210.628;-87.991
3029201.143;42.021;37.812;41.462;59.828;12.927;-75.884;-206.828;-85.458
3029201.151;32.932;27.530;39.041;45.300;13.188;-80.951;-211.000;-89.891
3029201.159;28.796;20.340;35.129;38.855;16.615;-82.403;-211.000;-90.376
3029201.167;24.810;16.019;26.450;36.955;10.207;-80.802;-208.728;-90.152
3029201.175;22.724;14.082;20.675;40.010;-2.794;-75.251;-203.513;-84.676
3029201.183;25.891;15.087;26.114;37.625;11.548;-71.824;-200.383;-80.205
3029201.191;35.316;32.075;36.284;53.234;19.856;-71.228;-199.862;-81.621
3029201.199;36.806;33.900;35.390;52.601;14.193;-71.190;-197.850;-81.845
3029201.207;30.175;22.240;29.281;48.541;13.188;-72.606;-198.297;-83.707
3029201.215;38.259;31.255;33.900;57.332;17.546;-74.208;-197.738;-85.793
3029201.240;31.069;23.358;29.765;46.045;6.519;-76.406;-198.856;-86.538
3029201.248;19.893;11.288;15.758;27.940;-6.668;-82.627;-205.636;-90.450
3029201.256;18.589;8.196;16.168;21.122;-4.470;-82.850;-205.599;-91.344
3029201.264;19.483;9.649;18.328;27.083;0.820;-81.807;-201.873;-93.542
3029201.272;14.342;3.986;13.672;22.389;-5.551;-81.398;-198.595;-91.791
3029201.280;12.219;2.086;8.047;17.770;-10.207;-80.690;-197.105;-88.513
3029201.288;9.984;0.820;4.657;21.681;-8.196;-81.882;-199.936;-89.444
3029201.296;9.649;-1.118;7.711;22.128;-4.359;-84.080;-205.040;-89.854
3029201.304;17.919;10.394;15.050;30.398;1.155;-76.927;-198.036;-85.421
3029201.312;24.401;18.664;15.758;36.396;-3.800;-70.781;-191.145;-81.174
3029201.320;35.800;25.518;30.436;43.623;9.499;-74.953;-194.944;-83.074
3029201.328;32.187;19.483;28.275;26.785;11.027;-81.658;-199.936;-89.929
3029201.336;36.694;24.140;35.465;29.132;21.271;-82.627;-200.868;-89.332
3029201.344;38.110;27.046;40.159;36.992;29.393;-84.937;-201.277;-91.381
3029201.352;42.729;29.504;43.586;39.563;30.361;-82.552;-197.552;-88.587
3029201.360;42.282;33.341;41.611;42.319;24.699;-79.051;-192.933;-84.527
3029201.368;46.976;45.747;45.449;56.177;25.816;-73.463;-186.637;-81.547
3029201.376;60.126;57.146;56.475;78.119;37.737;-67.130;-181.794;-74.133
3029201.384;69.104;66.571;67.204;79.423;49.211;-68.024;-183.880;-73.239
3029201.392;76.517;76.257;80.802;81.807;59.754;-72.494;-188.351;-77.933
3029201.400;94.175;92.126;94.622;103.563;70.818;-69.477;-184.402;-77.114
3029201.408;105.128;104.308;106.469;112.876;80.839;-65.453;-179.298;-75.251
3029201.416;116.602;115.298;118.911;133.626;89.966;-64.261;-176.802;-72.904
3029201.424;125.952;126.585;128.746;139.847;100.285;-60.461;-171.326;-70.110
3029201.420;130.087;133.999;129.156;145.324;95.814;-64.261;-176.020;-75.698
3029201.428;135.787;137.761;135.191;154.525;105.910;-60.350;-174.902;-72.159
3029201.436;135.079;139.438;133.663;139.326;110.194;-57.481;-175.051;-67.651
3029201.444;130.273;136.197;128.299;136.681;98.944;-58.822;-176.877;-64.448
3029201.452;125.170;130.348;127.479;149.235;93.132;-62.287;-180.155;-68.247
3029201.460;118.576;117.831;119.358;141.524;88.736;-62.697;-179.522;-69.328
3029201.468;114.739;114.739;111.945;124.276;85.458;-57.146;-174.157;-62.957
3029201.476;103.414;106.655;102.669;111.647;74.431;-54.128;-170.246;-62.063
3029201.484;102.296;105.985;100.620;107.028;81.249;-50.701;-164.583;-58.897
3029201.492;92.611;94.511;86.091;104.271;66.310;-52.340;-164.248;-62.734
3029201.500;85.421;79.945;84.639;101.700;51.819;-57.295;-168.905;-67.875
3029201.508;81.249;74.729;78.641;84.452;54.240;-59.269;-172.146;-66.832
3029201.516;68.024;60.648;64.299;65.491;51.036;-63.181;-176.467;-70.222
3029201.524;57.071;49.435;54.799;49.770;34.757;-61.654;-174.530;-69.216
3029201.532;51.111;45.039;50.068;62.659;26.897;-58.785;-171.810;-65.938
3029201.540;44.145;39.339;36.135;56.438;24.624;-56.922;-172.704;-62.995
3029201.548;37.178;26.375;33.975;36.247;19.744;-56.960;-174.232;-63.516
3029201.556;33.751;22.650;35.129;25.630;14.603;-56.699;-172.108;-65.230
3029201.564;34.198;25.630;32.224;22.538;22.240;-51.670;-166.669;-60.387
3029201.572;22.575;14.789;22.352;32.708;13.970;-52.601;-168.011;-64.299
3029201.580;13.933;4.433;9.276;25.481;4.470;-51.670;-165.179;-67.204
3029201.588;11.623;0.969;8.345;14.678;-6.184;-51.446;-161.938;-70.035
3029201.596;11.250;-2.421;10.021;8.494;-5.737;-49.546;-158.995;-71.041
3029201.604;12.815;1.639;10.356;-2.906;-4.172;-50.068;-159.889;-71.079
3029201.601;11.884;2.421;7.898;9.239;1.304;-51.819;-162.907;-74.320
3029201.609;12.070;5.364;8.494;20.713;-1.229;-54.091;-166.632;-75.176
3029201.617;8.494;0.522;5.700;10.803;-8.084;-54.389;-167.117;-72.569
3029201.625;10.021;-1.639;9.164;5.290;-6.706;-52.787;-163.876;-71.451
3029201.633;14.789;3.353;10.617;4.284;-6.780;-48.652;-157.617;-68.657
3029201.641;13.262;5.476;10.654;4.172;-1.565;-50.105;-156.090;-72.196
3029201.649;11.288;2.384;8.196;15.162;-0.522;-52.974;-158.250;-74.133
3029201.657;2.794;-9.462;1.825;4.359;-8.047;-53.346;-157.207;-72.159
3029201.665;15.423;2.310;18.440;6.892;3.986;-53.942;-156.127;-72.010
3029201.673;34.943;21.644;34.682;23.209;19.372;-48.392;-151.880;-65.193
3029201.681;47.050;32.298;43.027;39.935;26.301;-43.623;-147.223;-61.691
3029201.689;53.830;41.611;46.529;34.869;27.306;-41.537;-145.994;-59.269
3029201.697;61.691;52.676;56.997;56.773;41.500;-36.992;-141.785;-56.289
3029201.705;61.132;52.266;62.324;54.501;45.225;-34.012;-136.867;-56.736
3029201.713;63.069;52.229;64.969;58.226;42.878;-28.163;-128.150;-51.595
3029201.721;55.730;41.723;53.793;50.217;30.026;-34.645;-130.795;-58.785
3029201.729;46.715;32.187;41.872;30.994;29.430;-40.904;-137.389;-63.404
3029201.737;47.274;40.419;41.053;38.147;35.726;-37.849;-136.010;-56.364
3029201.745;41.723;31.963;38.333;37.327;24.512;-40.717;-138.320;-58.003
3029201.753;45.709;32.298;47.684;40.904;30.659;-37.663;-133.812;-55.917
3029201.761;42.319;31.255;38.855;35.502;16.801;-34.124;-129.044;-53.719
3029201.769;35.502;22.464;30.696;24.177;20.079;-36.247;-130.497;-56.289
3029201.777;32.298;24.326;24.885;31.218;19.446;-37.625;-131.093;-56.811
3029201.785;28.647;18.589;20.415;30.547;13.225;-37.961;-129.640;-56.848
3029201.795;31.292;21.197;25.555;28.722;17.434;-36.620;-125.505;-52.489
3029201.803;32.969;19.968;31.069;29.951;15.274;-38.445;-125.095;-56.215
3029201.811;36.322;23.693;34.086;25.965;20.526;-37.625;-121.929;-57.034
3029201.819;36.620;30.622;24.661;33.751;14.976;-41.500;-124.015;-60.052
3029201.827;43.586;34.384;33.155;56.177;24.140;-43.549;-125.840;-62.734
3029201.835;46.305;35.614;39.451;56.066;29.318;-42.357;-127.517;-58.524
3029201.843;42.245;28.424;43.772;33.379;28.275;-42.282;-130.162;-55.507
3029201.851;38.072;23.767;38.110;15.758;27.642;-43.921;-133.365;-53.085
3029201.859;33.155;22.724;24.438;33.751;13.635;-43.437;-134.222;-50.403
3029201.867;30.100;20.079;19.073;38.929;10.207;-43.996;-134.818;-52.750
3029201.875;31.851;21.942;24.363;31.702;15.385;-44.182;-134.148;-53.793
3029201.883;29.802;21.830;29.057;18.291;19.521;-46.007;-133.365;-57.034
3029201.891;31.739;18.589;36.135;17.397;16.876;-46.566;-131.913;-57.705
3029201.899;33.826;18.328;34.496;30.026;17.360;-46.864;-129.305;-57.705
3029201.907;33.192;21.160;24.736;39.935;17.956;-44.852;-125.132;-56.066
3029201.915;36.620;27.418;31.851;38.818;19.521;-45.635;-125.952;-54.687
3029201.923;36.173;27.642;34.235;26.375;24.699;-47.684;-127.889;-56.885
3029201.931;38.333;30.138;32.783;23.358;23.544;-42.878;-122.711;-53.979
3029201.939;38.818;27.940;31.441;30.883;11.958;-39.488;-118.650;-51.595
3029201.947;37.737;26.636;29.430;42.655;15.311;-38.482;-119.321;-50.887
3029201.955;40.196;26.152;36.992;39.935;25.444;-40.010;-121.519;-48.280
3029201.963;40.494;30.547;42.468;26.971;34.533;-38.445;-120.439;-44.405
3029201.971;41.313;34.608;43.698;31.926;35.614;-31.069;-114.180;-36.359
3029201.979;32.857;24.252;28.387;30.994;16.168;-30.734;-112.243;-37.774
3029202.006;29.169;19.521;24.028;28.908;8.605;-35.353;-113.398;-45.411
3029202.014;39.227;30.212;36.992;34.757;26.040;-41.910;-116.639;-51.148
3029202.022;23.022;11.362;21.420;20.899;12.107;-47.050;-121.929;-55.246
3029202.030;4.061;-7.339;-0.820;-1.788;-5.588;-49.584;-126.921;-56.326
3029202.038;-11.511;-23.469;-17.397;-18.552;-19.334;-47.497;-125.691;-53.607
3029202.046;-24.140;-33.863;-29.802;-32.410;-30.473;-50.776;-128.895;-56.289
3029202.054;-32.485;-38.967;-41.723;-41.053;-41.313;-47.013;-123.791;-52.117
3029202.062;-34.310;-41.649;-45.411;-27.902;-39.674;-43.735;-118.129;-51.558
3029202.070;-28.051;-40.345;-38.743;-24.103;-38.445;-39.898;-114.143;-48.429
3029202.078;-29.057;-42.729;-35.316;-35.018;-37.365;-40.308;-114.888;-49.360
3029202.086;-31.032;-43.362;-33.118;-38.929;-34.720;-43.362;-115.260;-54.054
3029202.094;-27.828;-32.298;-31.516;-22.799;-30.100;-44.480;-113.472;-56.066
3029202.102;-27.083;-32.522;-31.218;-22.054;-21.048;-41.761;-111.870;-53.719
3029202.110;-30.510;-37.253;-33.267;-24.065;-27.530;-46.156;-119.321;-55.991
3029202.118;-33.937;-43.176;-39.265;-31.441;-35.353;-45.374;-119.247;-56.475
3029202.126;-36.173;-47.758;-44.033;-34.645;-40.121;-45.076;-117.868;-56.066
3029202.134;-38.110;-46.417;-41.500;-38.296;-31.739;-49.770;-121.668;-59.977
3029202.142;-47.199;-52.936;-49.695;-44.554;-48.988;-51.856;-122.115;-62.101
3029202.150;-41.686;-47.050;-47.721;-28.871;-45.635;-48.541;-117.645;-59.642
3029202.158;-30.845;-34.459;-36.471;-22.575;-27.791;-46.082;-115.596;-58.077
3029202.166;-27.530;-34.496;-30.659;-22.650;-23.246;-47.721;-117.347;-60.797
3029202.174;-22.501;-30.845;-29.355;-19.744;-20.303;-43.623;-113.286;-55.246
3029202.182;-23.246;-28.685;-28.610;-17.546;-28.275;-43.139;-113.174;-56.326
3029202.190;-24.512;-31.441;-33.267;-15.981;-39.153;-42.953;-112.839;-58.189
3029202.201;-23.320;-26.040;-32.559;-11.399;-34.943;-38.743;-108.145;-53.830
3029202.209;-27.753;-34.571;-37.476;-20.675;-30.361;-37.998;-108.294;-53.160
3029202.217;-26.785;-34.980;-38.892;-17.099;-34.086;-32.187;-103.489;-46.194
3029202.225;-29.579;-35.986;-39.898;-24.848;-36.098;-34.720;-105.575;-49.062
3029202.233;-30.734;-34.831;-34.384;-23.246;-26.040;-39.339;-108.555;-54.389
3029202.241;-23.507;-25.146;-29.057;-2.161;-29.765;-31.292;-98.161;-50.999
3029202.249;-23.656;-31.181;-31.777;-15.460;-31.255;-31.628;-100.210;-53.421
3029202.257;-24.848;-34.086;-35.278;-24.326;-32.298;-33.230;-103.004;-53.681
3029202.265;-34.235;-41.649;-40.345;-39.749;-41.947;-32.820;-103.861;-54.017
3029202.273;-27.157;-29.393;-28.647;-15.236;-27.865;-34.980;-105.612;-55.842
3029202.281;-10.654;-10.617;-14.864;12.964;-18.701;-36.135;-105.575;-57.034
3029202.289;-13.523;-15.311;-20.787;6.519;-29.653;-33.863;-103.414;-56.848
3029202.297;-11.548;-21.458;-13.337;-8.121;-24.959;-29.467;-99.652;-52.005
3029202.305;-14.752;-27.716;-20.079;-21.383;-27.530;-25.220;-96.150;-50.403
3029202.313;-6.892;-15.348;-11.176;-8.270;-23.395;-17.844;-90.264;-44.331
3029202.321;-1.714;-7.972;0.522;7.637;-11.474;-16.950;-91.046;-42.245
3029202.329;-7.674;-10.692;-11.958;8.680;-19.111;-19.968;-91.642;-46.380
3029202.337;-9.723;-14.305;-20.713;-7.115;-20.862;-21.085;-91.270;-47.795
3029202.345;-9.350;-14.789;-18.030;-6.892;-30.510;-23.395;-92.760;-49.733
3029202.353;-6.072;-12.666;-7.451;3.837;-21.122;-23.432;-92.648;-49.509
3029202.361;-6.929;-11.064;-0.708;7.376;-15.683;-25.891;-93.617;-51.707
3029202.369;-8.047;-13.076;-4.433;4.396;-9.499;-26.003;-92.834;-51.931
3029202.377;-8.680;-16.056;-8.680;-9.313;-10.654;-20.452;-87.209;-43.176
3029202.385;-10.431;-12.070;-12.256;-5.364;-23.209;-16.913;-81.956;-38.818
3029202.381;-8.978;-14.268;-10.468;7.264;-22.389;-19.558;-83.037;-40.606
3029202.389;-11.995;-20.899;-10.058;0.075;-20.638;-23.991;-86.389;-44.927
3029202.397;-12.890;-16.242;-9.574;-10.803;-20.973;-26.077;-87.209;-49.882
3029202.405;-9.947;-17.732;-9.127;-7.823;-17.695;-29.579;-90.599;-53.160
3029202.413;-5.513;-10.729;-4.321;8.494;-16.913;-31.590;-93.021;-54.985
3029202.421;0.373;-3.129;-1.006;16.652;-18.291;-28.461;-89.742;-50.887
3029202.429;2.049;-5.215;0.671;16.764;-14.938;-25.257;-86.874;-45.821
3029202.437;-2.682;-13.076;-4.508;4.917;-18.664;-26.636;-88.885;-46.007
3029202.445;-0.261;-7.786;2.459;-6.147;-11.772;-25.444;-87.433;-43.698
3029202.453;-0.224;-3.986;3.427;7.898;-9.052;-23.767;-86.278;-43.325
3029202.461;1.006;-4.359;1.676;11.362;-13.150;-18.924;-81.100;-38.594
3029202.469;-1.341;-6.147;2.049;5.439;-7.525;-18.477;-78.976;-37.849
3029202.477;-6.519;-14.082;1.714;2.421;-15.385;-22.575;-81.360;-42.021
3029202.485;-10.505;-18.291;-4.731;-4.880;-23.544;-29.281;-87.209;-44.517
3029202.493;-10.170;-16.019;-5.588;-6.482;-26.487;-32.522;-90.674;-44.964
3029202.501;-2.496;-8.531;7.264;1.080;-7.525;-32.410;-91.307;-44.964
3029202.509;-4.843;-8.456;1.229;-6.743;-4.321;-32.894;-91.530;-46.268
3029202.517;-10.952;-12.740;-4.582;0.261;-24.214;-35.912;-91.717;-49.919
3029202.525;-14.193;-22.240;-7.078;-8.792;-30.436;-40.792;-96.485;-52.825
3029202.533;-7.451;-15.311;-1.229;-9.350;-20.564;-38.296;-92.909;-51.707
3029202.541;2.645;-1.565;6.780;7.637;-7.078;-33.006;-85.235;-46.380
3029202.549;5.066;0.857;11.809;1.602;-9.015;-29.691;-80.988;-43.586
3029202.557;4.508;0.000;12.517;0.708;-9.201;-30.994;-82.217;-44.890
3029202.565;3.390;-6.258;10.617;5.588;-7.562;-33.006;-84.005;-43.288
3029202.561;2.012;-0.969;12.144;9.388;-7.562;-35.875;-84.862;-44.405
3029202.569;7.786;14.007;14.268;18.962;-9.350;-32.447;-79.013;-40.419
3029202.577;4.992;7.860;8.084;12.778;-14.491;-29.206;-74.916;-38.221
3029202.585;-2.496;-3.837;10.170;3.539;-16.019;-33.043;-77.970;-44.294
3029202.593;1.751;-3.874;13.858;4.545;-6.892;-33.118;-76.890;-42.990
3029202.601;8.456;9.425;20.526;14.678;-0.373;-34.422;-76.704;-42.804
3029202.609;14.827;19.148;25.183;29.132;1.192;-33.937;-75.214;-38.296
3029202.617;14.864;17.174;24.177;21.607;-0.037;-35.278;-75.474;-37.923
3029202.625;7.525;8.717;18.440;1.304;-13.262;-39.376;-77.263;-42.915
3029202.633;10.021;4.880;21.309;11.511;-7.600;-34.086;-69.700;-37.663
3029202.641;14.305;14.231;24.959;22.985;-2.086;-29.057;-64.559;-34.869
3029202.649;18.850;31.367;29.095;40.270;10.841;-28.163;-64.783;-33.975
3029202.657;20.377;30.026;29.579;29.244;12.144;-20.415;-58.189;-23.656
3029202.665;11.995;16.652;24.773;12.368;3.390;-23.916;-61.914;-26.114
3029202.673;6.184;6.817;17.062;12.815;-12.778;-27.008;-66.385;-28.275
3029202.681;14.044;11.288;25.406;16.280;-0.782;-21.160;-58.487;-21.905
3029202.689;16.578;18.962;25.481;20.005;9.611;-19.036;-54.501;-18.887
3029202.697;19.632;24.512;26.263;17.472;11.325;-15.907;-48.876;-15.348
3029202.705;22.165;28.536;34.645;28.312;13.858;-19.744;-49.882;-20.117
3029202.713;22.314;25.555;30.287;24.028;9.611;-25.593;-53.421;-22.575
3029202.721;21.793;21.532;26.710;25.705;5.141;-22.464;-48.168;-21.122
3029202.729;27.604;32.112;32.708;33.192;13.895;-22.352;-47.348;-21.160
3029202.737;31.330;36.657;32.634;43.921;16.205;-16.838;-45.113;-12.964
3029202.745;28.871;36.769;34.794;36.098;15.572;-17.956;-47.088;-11.586
3029202.755;22.240;26.561;23.022;14.305;1.937;-17.695;-45.337;-10.356
3029202.763;15.236;15.348;20.601;13.784;-2.049;-22.165;-49.248;-13.858
3029202.771;19.446;24.326;27.306;31.739;21.718;-30.324;-59.344;-18.105
3029202.779;25.742;31.628;37.551;31.553;30.585;-30.473;-59.009;-18.552
3029202.787;24.810;29.914;33.379;26.934;22.650;-29.206;-56.587;-20.340
3029202.795;27.381;27.642;34.422;24.363;12.182;-22.687;-47.013;-14.529
3029202.803;33.677;32.075;41.202;26.636;12.107;-17.658;-38.669;-8.568
3029202.811;35.539;40.084;45.076;33.416;28.610;-25.108;-44.666;-16.317
3029202.819;36.173;43.772;39.600;43.288;35.949;-25.965;-45.486;-16.391
3029202.827;34.980;40.419;39.525;42.282;22.873;-21.793;-43.213;-11.288
3029202.835;28.089;32.037;37.216;25.854;11.958;-24.587;-49.844;-8.605
3029202.843;22.054;25.667;33.714;13.895;11.250;-24.289;-51.446;-8.978
3029202.851;25.518;36.135;29.616;27.902;10.356;-20.042;-48.503;-6.966
3029202.859;30.249;36.694;36.657;37.886;23.432;-9.611;-38.631;-1.192
3029202.867;29.206;27.940;38.408;31.255;21.197;-3.800;-31.851;-0.596
3029202.875;33.565;33.267;41.015;26.003;16.838;-10.878;-36.657;-11.399
3029202.883;39.339;48.056;51.968;37.402;26.673;-1.192;-23.395;-7.376
3029202.891;43.660;52.936;52.303;43.809;31.441;-3.017;-28.238;-7.674
3029202.899;48.466;55.768;57.779;46.790;35.055;-3.166;-30.734;-7.078
3029202.907;40.010;43.288;52.899;36.284;26.599;-9.872;-39.302;-15.981
3029202.915;35.390;33.714;46.939;19.148;25.295;-8.270;-41.947;-15.385
3029202.923;35.688;36.582;44.480;26.077;19.260;4.135;-33.826;-8.792
3029202.931;34.869;48.652;43.362;37.923;23.842;13.448;-25.891;-7.711
3029202.939;30.845;47.833;41.686;37.812;23.134;9.947;-32.745;-14.231
3029202.952;16.838;28.722;29.244;21.420;10.580;-7.823;-50.142;-37.812
3029202.960;-4.657;4.657;8.419;-1.341;-14.342;-17.099;-61.616;-50.552
3029202.968;-19.856;-7.004;-5.215;-15.125;-21.979;-23.842;-69.737;-62.771
3029202.976;-32.075;-23.246;-16.950;-24.587;-24.326;-26.524;-75.661;-70.259
3029202.984;-37.737;-28.834;-24.028;-34.682;-39.116;-17.062;-71.339;-69.700
3029202.992;-44.145;-25.593;-29.206;-29.095;-40.792;-12.890;-72.047;-74.282
3029203.000;-50.031;-33.304;-32.336;-26.077;-42.804;-12.293;-78.157;-76.257
3029203.008;-55.879;-41.313;-34.794;-40.345;-47.721;-10.058;-79.125;-79.013
3029203.016;-61.505;-46.715;-43.511;-51.185;-56.997;-17.546;-91.083;-87.805
3029203.024;-60.797;-51.484;-35.316;-44.852;-41.723;-15.870;-90.413;-90.860
3029203.032;-70.073;-56.066;-46.045;-56.848;-47.944;-29.020;-108.071;-104.308
3029203.040;-87.023;-68.545;-68.285;-70.035;-74.580;-42.357;-125.691;-118.092
3029203.048;-105.463;-82.590;-84.974;-87.172;-85.831;-46.231;-134.185;-125.691
3029203.056;-127.777;-106.469;-107.735;-104.085;-106.208;-47.870;-141.412;-129.640
3029203.064;-144.020;-128.709;-126.325;-115.372;-140.779;-48.429;-147.000;-135.861
3029203.072;-142.343;-128.374;-124.350;-119.209;-133.887;-41.649;-143.088;-134.856
3029203.080;-140.481;-122.562;-122.376;-128.523;-121.705;-46.305;-153.780;-138.022
3029203.088;-139.251;-121.780;-120.103;-134.856;-123.754;-47.535;-158.586;-141.710
3029203.096;-133.812;-114.702;-116.862;-106.245;-116.751;-55.060;-166.409;-151.880
3029203.104;-135.675;-114.813;-114.217;-101.961;-123.344;-56.066;-167.415;-155.978
3029203.112;-168.271;-146.814;-133.812;-135.303;-136.681;-58.785;-174.530;-162.050
3029203.120;-182.576;-160.299;-151.023;-152.625;-153.035;-56.922;-176.243;-161.231
3029203.128;-193.156;-165.962;-162.758;-165.999;-162.497;-65.044;-189.468;-171.959
3029203.136;-199.601;-173.897;-171.997;-156.350;-173.897;-66.869;-191.070;-177.361
3029203.161;-201.948;-178.777;-177.436;-156.686;-182.874;-59.642;-188.313;-170.730
3029203.169;-206.456;-186.451;-177.994;-162.721;-182.018;-53.123;-186.898;-166.818
3029203.177;-218.973;-196.993;-194.088;-189.170;-195.652;-71.563;-210.218;-184.141
3029203.185;-230.819;-207.275;-206.046;-191.852;-199.117;-89.668;-228.062;-206.195
3029203.193;-243.448;-220.947;-216.067;-197.254;-219.494;-104.941;-248.589;-221.543
3029203.201;-252.984;-230.111;-231.676;-212.379;-231.266;-116.751;-266.619;-236.481
3029203.209;-265.278;-239.983;-242.405;-222.586;-249.334;-114.143;-267.848;-240.132
3029203.217;-273.995;-251.718;-248.253;-244.789;-252.873;-112.951;-266.917;-239.275
3029203.225;-287.592;-270.046;-259.168;-259.355;-253.730;-127.777;-283.755;-251.643
3029203.233;-312.552;-289.865;-288.077;-266.805;-278.205;-136.718;-295.900;-262.372
3029203.241;-334.978;-311.770;-317.320;-288.635;-298.358;-145.137;-309.162;-273.176
3029203.249;-359.900;-336.803;-348.799;-312.328;-331.551;-154.413;-322.722;-287.667
3029203.257;-374.950;-352.375;-362.135;-327.639;-346.378;-158.921;-332.557;-295.863
3029203.265;-414.699;-393.502;-399.984;-369.288;-376.254;-186.637;-367.463;-328.496
3029203.273;-443.161;-428.818;-424.981;-408.925;-407.845;-226.274;-410.639;-369.027
3029203.281;-456.534;-440.590;-439.957;-415.817;-421.964;-242.628;-424.534;-393.391
3029203.289;-489.987;-469.610;-480.823;-436.790;-455.156;-268.742;-459.217;-424.050
3029203.297;-530.258;-508.353;-528.768;-473.633;-494.681;-297.166;-495.911;-454.858
3029203.305;-561.215;-539.720;-557.639;-506.453;-521.503;-307.932;-510.514;-474.416
3029203.313;-597.127;-574.626;-588.298;-540.838;-548.586;-333.302;-540.540;-504.963
3029203.321;-634.529;-614.487;-631.846;-575.073;-592.805;-362.694;-572.465;-541.061
3029203.329;-656.210;-641.234;-654.869;-590.347;-612.102;-379.197;-589.341;-565.425
3029203.337;-661.835;-649.169;-665.225;-603.050;-618.659;-392.050;-607.260;-572.279
3029203.345;-721.701;-711.866;-728.630;-665.151;-681.393;-441.670;-658.892;-623.129
3029203.342;-762.343;-751.503;-773.109;-705.868;-714.958;-477.172;-697.933;-661.835
3029203.350;-790.730;-780.076;-804.327;-740.923;-749.677;-501.946;-726.543;-686.944
3029203.358;-819.527;-814.088;-836.104;-762.269;-777.021;-526.719;-751.168;-718.683
3029203.366;-829.734;-828.020;-850.596;-768.863;-788.011;-523.180;-743.940;-722.595
3029203.374;-841.618;-842.102;-861.809;-778.921;-798.665;-525.974;-745.915;-732.057
3029203.382;-865.981;-871.383;-889.711;-810.213;-821.725;-546.575;-768.267;-757.203
3029203.390;-883.825;-893.883;-908.561;-818.558;-836.402;-562.780;-789.426;-777.058
3029203.398;-911.579;-920.407;-933.558;-843.890;-853.166;-572.987;-801.720;-794.381
3029203.406;-921.190;-933.371;-946.000;-855.066;-866.838;-586.174;-819.638;-809.953
3029203.414;-934.228;-950.061;-961.125;-863.336;-880.547;-595.488;-832.155;-828.952
3029203.422;-953.637;-976.324;-988.916;-887.029;-894.964;-611.357;-847.764;-851.303
3029203.430;-952.110;-976.995;-986.643;-884.533;-889.897;-607.818;-844.747;-849.180
3029203.438;-971.630;-1000.278;-1010.373;-902.042;-916.161;-623.353;-862.144;-868.328
3029203.446;-985.637;-1016.185;-1029.484;-913.665;-936.948;-633.895;-875.071;-880.286
3029203.454;-996.068;-1030.453;-1037.121;-928.864;-934.042;-628.680;-872.612;-883.937
3029203.462;-1001.433;-1041.256;-1042.895;-939.555;-939.183;-635.907;-883.006;-895.336
3029203.470;-984.035;-1030.788;-1034.699;-927.970;-938.103;-617.877;-866.205;-860.356
3029203.478;-919.662;-1019.165;-1019.873;-936.314;-924.282;-543.296;-793.450;-633.858
3029203.486;-981.912;-1058.876;-1061.931;-967.681;-953.153;-589.304;-828.356;-737.309
3029203.494;-1025.610;-1078.807;-1084.953;-964.254;-982.173;-632.666;-870.079;-858.717
3029203.502;-1031.682;-1078.434;-1090.430;-957.809;-977.926;-639.260;-877.008;-882.074
3029203.510;-1033.098;-1075.864;-1081.489;-948.384;-970.326;-639.297;-874.773;-902.973
3029203.518;-1037.307;-1080.185;-1081.973;-941.679;-976.548;-637.583;-870.861;-909.939
3029203.526;-1031.607;-1083.836;-1078.248;-961.721;-969.879;-629.537;-860.766;-891.164
3029203.521;-1028.441;-1075.380;-1069.196;-952.855;-957.623;-633.113;-860.617;-906.214
3029203.529;-1019.984;-1062.006;-1064.390;-921.413;-957.586;-624.880;-853.352;-904.016
3029203.537;-1011.081;-1059.063;-1061.931;-918.768;-960.305;-618.547;-847.913;-894.405
3029203.545;-1004.003;-1054.369;-1053.698;-920.556;-948.682;-611.357;-839.792;-885.017
3029203.553;-999.346;-1050.457;-1046.062;-923.462;-950.024;-607.036;-833.087;-877.269
3029203.561;-997.446;-1053.251;-1039.393;-922.456;-944.845;-604.242;-824.891;-873.134
3029203.569;-988.394;-1040.399;-1029.894;-908.002;-939.183;-607.073;-825.338;-870.414
3029203.577;-981.875;-1034.364;-1020.022;-895.076;-930.503;-607.409;-819.527;-864.603
3029203.585;-976.287;-1032.911;-1011.752;-901.073;-925.921;-610.426;-815.913;-863.485
3029203.593;-969.768;-1028.702;-1007.766;-901.297;-923.462;-609.197;-810.064;-853.054
3029203.601;-961.311;-1019.873;-997.484;-883.602;-912.659;-604.764;-798.665;-848.249
3029203.609;-964.254;-1027.025;-1001.060;-888.705;-916.272;-603.162;-793.301;-844.598
3029203.617;-965.185;-1024.082;-1000.538;-898.428;-920.109;-599.511;-787.117;-837.781
3029203.625;-961.348;-1020.208;-986.494;-881.441;-914.894;-603.199;-788.532;-839.829
3029203.633;-952.482;-1013.800;-978.596;-882.186;-906.922;-606.030;-786.781;-837.482
3029203.641;-955.537;-1019.053;-982.471;-883.080;-911.094;-607.036;-783.876;-835.359
3029203.649;-967.197;-1033.433;-997.484;-897.013;-927.374;-627.115;-800.230;-849.366
3029203.657;-967.346;-1038.760;-997.484;-895.560;-921.004;-634.082;-802.912;-853.427
3029203.665;-967.160;-1041.070;-997.856;-902.787;-922.643;-638.068;-805.333;-853.762
3029203.673;-961.050;-1030.080;-994.541;-892.915;-923.313;-628.605;-790.805;-840.016
3029203.681;-956.878;-1029.745;-984.930;-892.542;-910.461;-617.765;-776.537;-830.665
3029203.689;-951.439;-1024.790;-983.030;-883.080;-907.332;-607.930;-764.653;-820.272
3029203.697;-944.287;-1017.414;-975.691;-875.890;-903.122;-603.013;-756.159;-812.262
3029203.705;-938.848;-1010.448;-968.911;-865.906;-898.875;-605.173;-755.936;-813.566
3029203.716;-939.593;-1012.310;-972.003;-875.220;-901.185;-607.185;-758.134;-807.643
3029203.724;-932.515;-1006.313;-961.162;-870.377;-884.570;-607.781;-753.403;-809.506
3029203.732;-928.156;-1004.264;-954.494;-864.826;-883.713;-602.901;-745.691;-801.422
3029203.740;-925.176;-1003.779;-952.929;-867.285;-884.719;-599.883;-739.321;-793.748
3029203.748;-934.005;-1008.064;-963.546;-873.357;-888.929;-608.601;-742.674;-804.365
3029203.756;-936.314;-1012.571;-968.724;-866.018;-895.336;-609.718;-741.631;-797.808
3029203.764;-931.397;-1010.187;-961.311;-867.359;-888.333;-605.583;-735.000;-787.899
3029203.772;-920.929;-1002.178;-948.980;-865.273;-872.537;-597.201;-721.365;-777.580
3029203.780;-909.977;-991.821;-939.108;-858.717;-860.468;-591.911;-713.356;-771.359
3029203.788;-902.861;-987.016;-931.695;-846.758;-852.533;-586.286;-704.750;-766.814
3029203.796;-894.330;-980.422;-924.207;-850.223;-846.162;-582.226;-700.355;-755.563
3029203.804;-895.113;-981.428;-924.803;-848.100;-847.764;-587.851;-705.086;-758.655
3029203.812;-886.507;-976.175;-913.218;-835.098;-842.586;-583.231;-696.518;-750.832
3029203.820;-870.377;-963.546;-895.634;-823.215;-819.378;-566.766;-673.868;-727.996
3029203.828;-861.362;-952.557;-890.307;-815.094;-816.137;-558.384;-660.904;-717.267
3029203.836;-840.910;-933.483;-865.348;-807.159;-793.189;-543.222;-645.034;-695.512
3029203.844;-835.247;-925.809;-855.736;-793.934;-779.554;-541.247;-642.389;-691.302
3029203.852;-819.899;-908.561;-843.368;-773.817;-775.382;-529.103;-627.488;-675.842
3029203.860;-787.340;-879.988;-808.239;-751.093;-748.858;-494.048;-590.086;-635.684
3029203.868;-775.233;-866.912;-793.226;-736.490;-731.833;-490.583;-578.240;-633.076
3029203.876;-748.634;-839.941;-765.659;-711.046;-711.754;-487.007;-570.267;-621.341
3029203.884;-717.193;-809.655;-732.578;-689.216;-680.983;-466.965;-546.724;-599.399
3029203.892;-681.803;-776.276;-693.686;-661.612;-646.599;-442.304;-519.454;-571.161
3029203.900;-653.826;-750.758;-660.494;-648.424;-622.310;-425.763;-501.573;-550.188
3029203.924;-646.748;-737.682;-651.851;-637.807;-615.940;-422.746;-497.773;-545.531
3029203.932;-631.511;-723.377;-634.827;-613.779;-594.929;-406.206;-480.562;-520.125
3029203.940;-609.159;-701.025;-612.922;-595.264;-577.085;-379.272;-450.946;-491.142
3029203.948;-601.262;-690.110;-599.809;-585.951;-574.738;-369.102;-432.990;-480.860
3029203.956;-586.621;-672.080;-583.008;-567.473;-554.621;-353.418;-410.452;-464.730
3029203.964;-572.279;-655.651;-564.828;-560.507;-539.646;-341.460;-394.993;-453.852
3029203.972;-557.750;-632.107;-547.729;-546.388;-528.842;-331.327;-383.891;-440.367
3029203.980;-547.245;-611.991;-533.611;-527.315;-521.764;-322.200;-371.411;-434.667
3029203.988;-537.671;-595.599;-522.323;-512.674;-514.425;-318.289;-363.514;-430.532
3029203.996;-523.850;-578.836;-506.639;-512.078;-503.995;-306.889;-350.699;-413.433
3029204.004;-510.402;-562.184;-486.746;-499.524;-485.331;-294.708;-338.107;-400.506
3029204.012;-494.719;-543.483;-466.295;-482.574;-452.921;-281.930;-325.106;-380.240
3029204.020;-487.156;-535.697;-461.191;-475.720;-445.172;-276.230;-317.208;-372.902
3029204.028;-481.680;-530.258;-456.236;-474.043;-447.258;-273.064;-311.919;-368.878
3029204.036;-467.263;-516.027;-442.825;-464.059;-439.547;-261.143;-298.172;-355.020
3029204.044;-450.276;-492.744;-426.024;-442.006;-427.142;-247.508;-281.148;-340.566
3029204.052;-437.014;-475.049;-413.992;-423.342;-411.794;-236.630;-269.786;-320.747
3029204.060;-420.623;-458.136;-398.420;-407.547;-392.757;-222.772;-256.598;-303.127
3029204.068;-420.176;-460.297;-401.065;-415.556;-397.563;-230.037;-262.260;-305.995
3029204.076;-409.298;-453.517;-387.058;-416.599;-388.175;-223.741;-257.008;-296.272
3029204.084;-397.190;-439.025;-364.818;-403.561;-363.700;-212.267;-246.093;-285.767
3029204.092;-385.828;-422.932;-348.613;-385.903;-344.217;-205.301;-238.679;-270.568
3029204.100;-387.169;-421.293;-352.263;-387.207;-350.997;-206.903;-236.779;-270.009
3029204.108;-379.719;-410.452;-346.936;-379.570;-343.025;-197.031;-224.784;-262.074
3029204.107;-368.506;-397.600;-337.847;-369.102;-337.623;-182.241;-206.791;-247.061
3029204.115;-362.583;-390.932;-328.645;-365.227;-327.267;-181.459;-201.538;-246.726
3029204.123;-348.538;-372.976;-315.793;-344.254;-312.068;-177.883;-195.503;-236.593
3029204.131;-348.054;-369.102;-313.930;-341.833;-313.111;-173.897;-190.809;-231.192
3029204.139;-328.273;-349.283;-295.900;-328.831;-298.358;-166.818;-181.235;-220.165
3029204.147;-303.015;-326.447;-266.880;-310.168;-269.376;-159.666;-171.065;-205.785
3029204.155;-284.277;-301.823;-245.757;-287.518;-243.299;-151.172;-161.417;-198.409
3029204.163;-245.757;-263.825;-209.957;-258.908;-212.193;-128.336;-140.071;-172.146
3029204.171;-228.584;-240.542;-190.511;-232.868;-195.801;-123.233;-134.110;-168.532
3029204.179;-218.526;-228.621;-177.920;-220.835;-190.660;-116.304;-126.101;-159.182
3029204.187;-208.989;-220.612;-167.675;-217.818;-180.975;-105.388;-113.100;-145.212
3029204.195;-204.407;-214.837;-159.070;-217.520;-168.346;-102.445;-104.792;-141.338
3029204.203;-181.943;-190.251;-139.326;-199.340;-152.923;-84.639;-84.080;-115.931
3029204.211;-168.718;-174.865;-120.327;-178.553;-125.617;-75.027;-71.935;-105.798
3029204.219;-165.254;-171.512;-118.464;-175.498;-119.545;-81.807;-74.282;-110.529
3029204.227;-157.245;-156.537;-110.865;-154.711;-114.925;-78.268;-68.806;-102.706
3029204.235;-152.960;-149.719;-107.214;-146.776;-115.633;-71.079;-61.952;-96.820
3029204.243;-146.963;-147.596;-105.761;-150.315;-113.398;-62.734;-54.464;-82.664
3029204.251;-142.641;-143.610;-94.175;-159.144;-100.136;-56.364;-49.472;-75.810
3029204.259;-132.509;-134.818;-77.561;-139.028;-72.904;-46.827;-39.265;-65.304
3029204.267;-118.054;-118.911;-66.534;-121.109;-63.367;-36.769;-27.157;-51.744
3029204.275;-102.967;-99.689;-53.793;-108.182;-51.334;-26.412;-17.881;-40.717
3029204.283;-83.409;-79.498;-36.843;-94.995;-34.422;-12.331;-4.843;-21.085
3029204.291;-72.829;-64.597;-26.301;-74.618;-28.126;-7.860;0.596;-16.764
3029204.301;-56.326;-45.598;-9.313;-59.642;-16.391;4.806;15.758;0.075
3029204.309;-52.713;-48.913;-2.347;-62.883;0.112;1.974;16.242;5.178
3029204.317;-50.701;-48.131;-3.092;-57.034;4.359;1.937;17.993;5.141
3029204.325;-29.318;-30.883;11.660;-36.135;14.044;19.185;36.843;26.636
3029204.333;-16.093;-14.156;28.051;-17.025;34.012;31.814;50.105;38.221
3029204.341;-8.456;-4.545;33.416;-18.850;45.486;42.766;58.897;48.615
3029204.349;-7.078;-3.986;34.384;-25.518;40.457;43.772;57.854;51.260
3029204.357;-6.855;-0.186;33.155;-22.948;34.720;43.921;57.966;50.776
3029204.365;6.929;11.213;48.876;-12.331;57.034;54.799;69.030;68.396
3029204.373;14.156;20.117;55.358;10.505;72.494;57.407;72.904;74.729
3029204.381;22.501;29.728;58.301;16.019;72.531;59.009;78.678;81.435
3029204.389;41.351;47.199;85.793;23.022;104.345;69.067;92.499;95.777
3029204.397;51.744;62.361;97.305;33.826;112.243;76.890;101.216;104.718
3029204.405;56.736;68.694;93.095;48.801;99.391;78.976;103.228;114.031
3029204.413;60.163;71.898;97.565;50.776;109.561;76.294;101.924;110.827
3029204.421;60.797;70.930;97.789;54.017;113.808;75.176;100.732;109.710
3029204.429;59.083;66.459;98.757;49.211;113.472;70.296;96.709;110.008
3029204.437;54.725;60.163;98.459;29.020;114.553;64.671;93.356;104.830
3029204.445;68.471;75.214;107.028;39.674;120.252;72.420;102.781;118.166
3029204.453;82.776;91.791;121.221;68.545;136.383;80.578;113.584;125.580
3029204.461;94.995;103.265;133.216;77.710;151.210;89.295;126.548;135.303
3029204.469;88.885;97.230;128.634;58.785;145.584;87.656;128.075;136.569
3029204.477;72.680;82.403;110.939;49.807;138.059;77.784;118.129;125.580
3029204.485;79.758;89.481;112.914;64.075;133.999;83.186;125.989;135.861
3029204.482;94.585;103.638;139.400;85.868;160.225;94.436;139.475;146.143
3029204.490;100.248;107.884;144.131;89.444;167.154;92.499;139.475;143.945
3029204.498;101.626;116.639;137.612;88.811;151.992;93.877;141.859;146.627
3029204.506;94.250;112.839;134.595;90.636;147.969;90.450;141.412;141.934
3029204.514;101.738;117.794;147.521;89.370;169.948;87.433;140.406;145.435
3029204.522;108.406;121.966;154.041;92.089;182.800;89.966;142.045;149.980
3029204.530;107.437;122.041;149.421;94.250;172.146;91.866;143.461;153.780
3029204.538;111.721;125.878;156.835;91.493;174.828;95.852;149.719;162.125
3029204.546;114.739;134.930;160.076;102.520;175.722;102.967;161.491;166.334
3029204.554;115.559;130.162;164.658;98.869;184.774;99.577;162.087;168.495
3029204.562;112.243;129.826;160.970;98.571;185.594;95.442;162.497;163.130
3029204.570;131.428;154.376;173.002;115.894;196.286;110.008;179.596;177.808
3029204.578;149.012;173.189;195.429;135.228;213.012;109.784;180.788;181.086
3029204.586;154.339;181.906;201.538;153.929;222.474;104.904;177.734;175.945
3029204.594;154.972;180.416;201.464;151.172;222.102;108.555;183.396;187.382
3029204.602;144.430;170.283;193.529;130.236;215.285;101.402;177.659;180.714
3029204.610;148.080;175.051;192.747;136.197;211.596;102.557;178.441;180.826
3029204.618;156.313;182.278;199.974;145.137;215.322;111.237;185.966;192.747
3029204.626;161.454;185.445;207.685;153.370;228.323;112.168;187.904;192.076
3029204.634;168.160;195.429;209.622;152.066;237.711;117.384;191.778;202.321
3029204.642;171.065;202.209;208.952;160.411;241.846;120.439;196.174;205.114
3029204.650;169.240;198.968;215.918;152.327;237.748;110.678;188.202;194.274
3029204.658;183.769;214.688;233.874;167.117;255.182;119.619;198.521;202.321
3029204.666;187.941;221.841;236.370;173.599;260.659;120.774;200.123;199.862
3029204.676;188.090;216.849;229.739;175.349;249.930;120.588;198.558;203.736
3029204.684;192.374;223.108;233.054;184.700;252.351;127.293;205.487;208.095
3029204.692;211.298;244.863;255.518;201.315;280.328;150.315;227.392;230.074
3029204.700;226.274;258.870;266.805;209.771;289.343;163.466;237.785;246.465
3029204.708;218.935;255.257;255.890;202.656;284.202;154.488;229.552;233.687
3029204.716;221.059;255.071;243.820;203.848;288.151;151.955;224.411;234.209
3029204.724;219.755;257.567;234.246;207.089;282.675;152.625;224.076;232.570
3029204.732;206.903;242.032;225.529;193.268;275.262;137.798;208.467;217.110
3029204.740;212.267;247.806;229.813;197.738;277.869;141.636;212.491;222.288
3029204.748;218.004;254.735;231.825;204.854;280.552;149.682;217.669;226.498
3029204.756;230.223;264.868;238.940;213.236;280.030;158.958;223.443;240.244
3029204.764;245.459;282.973;259.355;229.701;307.411;177.994;243.932;256.263
3029204.772;266.023;300.743;286.736;252.165;347.234;195.093;262.856;272.132
3029204.780;264.719;296.161;283.085;250.787;337.623;197.403;264.794;275.932
3029204.788;235.215;272.952;248.440;215.247;298.284;164.993;232.942;242.442
3029204.796;255.853;292.473;271.536;242.330;318.624;178.367;245.944;261.813
3029204.804;271.015;307.374;287.332;265.203;339.001;196.211;262.447;279.360
3029204.812;258.423;292.659;268.929;234.619;324.436;186.414;248.030;270.754
3029204.820;264.458;297.688;271.685;240.020;325.851;197.142;256.374;279.993
3029204.828;279.583;315.420;290.088;273.772;346.340;215.396;274.107;291.914
3029204.836;254.437;292.584;263.155;249.930;324.808;180.863;237.934;257.231
3029204.844;247.471;283.942;256.337;249.669;322.945;178.516;236.183;249.073
3029204.852;257.045;292.026;262.111;246.204;330.694;183.694;242.367;252.239
3029204.860;260.249;296.161;263.341;255.033;327.490;183.359;245.720;249.408
3029204.871;267.252;305.362;272.989;269.897;337.847;189.096;251.643;252.128
3029204.879;298.396;335.611;304.393;300.743;368.878;216.737;279.248;285.283
3029204.887;285.245;325.963;288.710;288.263;346.303;210.069;274.703;278.130
3029204.895;267.886;308.342;271.909;266.731;338.145;189.394;252.686;258.498
3029204.903;266.135;302.978;264.198;261.255;336.096;182.465;244.491;254.810
3029204.911;268.370;303.984;265.390;268.705;334.568;184.961;246.726;255.741
3029204.919;275.820;304.356;275.150;264.607;341.833;192.039;254.810;267.290
3029204.927;262.633;295.900;265.613;253.171;321.418;177.287;239.685;251.047
3029204.935;264.831;304.691;266.246;274.330;330.657;178.181;239.760;250.712
3029204.943;284.016;322.200;282.079;287.257;351.705;199.415;262.000;271.983
3029204.951;277.758;312.999;277.758;261.441;351.295;197.440;262.931;263.974
3029204.959;279.471;320.151;275.895;269.301;347.719;205.748;270.493;274.368
3029204.967;279.918;324.920;276.454;292.286;344.738;210.181;270.829;277.720
3029204.975;282.265;329.316;281.595;296.235;344.291;211.410;267.811;277.795
3029204.983;268.370;308.305;271.164;262.000;333.153;204.518;256.933;270.978
3029204.991;268.109;309.497;268.593;257.939;334.755;209.771;260.100;273.287
3029204.999;285.730;332.184;286.736;281.334;344.738;233.687;282.452;300.668
3029205.007;289.641;332.445;296.384;295.341;345.595;228.919;279.099;287.965
3029205.015;306.666;351.071;322.796;288.226;373.535;234.544;279.956;295.676
3029205.023;327.490;378.042;341.497;320.263;367.686;246.502;287.034;309.981
3029205.031;322.014;375.621;337.064;329.427;353.865;228.547;270.568;280.105
3029205.039;327.080;379.309;340.864;318.289;355.132;235.252;276.789;287.704
3029205.047;334.419;386.946;359.826;328.198;385.121;244.528;281.185;293.963
3029205.055;319.742;368.766;346.601;310.801;370.815;249.483;281.669;294.782
3029205.081;317.432;368.096;346.899;306.442;362.471;258.274;286.773;304.617
3029205.089;316.873;368.543;352.859;303.537;372.455;243.112;269.823;283.569
3029205.097;320.189;374.168;356.734;305.064;375.770;241.622;268.780;285.693
3029205.105;304.021;359.751;339.895;289.120;356.548;235.811;263.304;278.614
3029205.113;308.491;366.122;343.025;301.115;352.263;240.467;265.352;284.165
3029205.121;329.390;382.736;367.463;322.759;377.484;263.490;286.736;309.907
3029205.129;327.490;378.378;368.506;314.899;376.143;271.425;296.384;312.999
3029205.137;329.800;382.066;369.288;310.913;373.647;276.230;303.388;321.493
3029205.145;318.214;373.311;362.322;293.106;370.331;257.269;284.910;301.152
3029205.153;328.347;382.848;371.151;304.133;382.550;261.553;289.716;308.119
3029205.161;338.070;394.098;377.819;327.341;383.332;266.135;296.086;319.071
3029205.169;318.363;376.552;366.904;308.044;374.392;242.442;273.474;292.696
3029205.177;323.951;379.570;371.486;308.715;375.286;242.814;272.468;298.880
3029205.185;328.459;388.101;374.839;311.732;373.125;259.280;290.871;316.724
3029205.193;341.833;408.664;388.809;333.898;391.118;255.443;291.243;312.254
3029205.201;362.434;424.050;403.635;356.212;408.106;260.174;297.837;319.779
3029205.209;379.980;438.839;418.797;361.279;410.080;264.272;302.345;324.585
3029205.217;401.661;459.999;435.933;366.233;423.007;272.468;313.669;337.623
3029205.225;414.178;474.863;452.138;381.283;437.237;280.105;323.802;343.435
3029205.233;432.134;491.850;471.100;402.927;458.583;288.337;332.966;355.020
3029205.241;441.819;497.773;486.784;412.986;466.704;288.934;333.339;357.106
3029205.249;463.016;523.329;515.357;438.318;493.005;303.611;350.773;365.600
3029205.257;477.210;535.250;522.211;447.780;501.871;318.922;365.302;386.424
3029205.265;439.286;493.973;483.096;408.962;463.463;290.200;332.892;359.789
3029205.261;423.379;476.874;464.097;388.250;449.009;274.666;319.108;341.646
3029205.269;430.942;482.239;468.642;386.201;451.691;278.093;324.324;344.291
3029205.277;435.673;492.781;476.241;398.532;458.248;284.538;332.482;346.340
3029205.285;440.441;496.767;481.866;415.854;466.704;294.298;343.062;359.975
3029205.293;436.380;489.466;478.774;407.435;451.691;294.372;344.329;359.938
3029205.301;439.957;498.109;479.743;422.932;453.368;300.035;348.203;366.457
3029205.309;449.307;507.385;487.007;415.444;462.681;303.350;353.307;368.357
3029205.317;440.739;500.195;483.021;398.867;459.924;302.717;350.662;370.778
3029205.325;462.607;524.409;501.722;435.151;478.812;325.181;370.182;403.151
3029205.333;442.378;504.106;485.890;417.829;459.664;296.794;346.154;363.141
3029205.341;429.526;494.048;471.324;402.965;445.992;284.165;333.562;351.295
3029205.349;433.326;523.068;475.869;392.832;446.476;287.220;340.044;355.057
3029205.357;434.555;590.458;479.184;398.904;451.468;286.922;341.907;350.252
3029205.365;444.055;650.324;484.511;418.313;450.984;295.378;349.395;368.953
3029205.373;459.366;697.859;502.579;435.226;470.392;305.027;360.720;380.762
3029205.381;471.734;737.794;511.706;435.971;487.864;305.139;360.012;382.476
3029205.389;466.146;744.201;502.802;410.341;484.996;290.237;347.570;364.929
3029205.397;452.250;762.790;491.142;410.676;455.007;278.093;336.803;350.103
3029205.405;457.875;796.132;494.570;429.787;461.750;285.059;344.291;363.402
3029205.413;460.148;816.025;495.836;424.758;470.541;287.220;348.277;364.520
3029205.421;452.399;814.907;485.294;409.521;454.485;283.606;345.409;361.800
3029205.429;455.081;819.117;488.088;407.547;458.471;285.171;345.744;367.649
3029205.437;456.125;828.132;488.311;411.160;461.191;286.624;350.289;362.247
3029205.445;467.077;840.835;496.097;417.493;463.910;291.690;360.049;370.964
3029205.442;451.095;822.879;480.860;399.202;446.402;276.640;345.372;355.579
3029205.450;449.829;827.573;476.986;404.008;444.874;273.585;343.435;353.381
3029205.458;454.076;833.422;482.723;405.796;459.999;279.471;349.730;364.818
3029205.466;453.703;832.267;482.947;406.429;459.142;283.681;355.504;363.067
3029205.474;467.040;843.667;491.478;403.710;451.319;301.003;370.704;385.679
3029205.482;445.321;827.760;470.281;381.470;437.796;280.105;348.352;362.024
3029205.490;456.087;843.741;478.439;409.037;447.258;298.060;366.978;379.756
3029205.498;458.658;844.263;479.966;405.759;446.737;301.823;371.262;388.175
3029205.506;438.578;827.350;461.228;386.424;433.736;276.826;347.532;357.628
3029205.514;436.232;821.911;459.142;378.564;426.136;272.952;341.497;359.006
3029205.522;437.275;823.736;459.440;370.555;429.414;277.907;345.483;356.808
3029205.530;438.839;829.808;458.844;367.090;433.885;276.752;344.850;352.859
3029205.538;457.019;849.105;480.898;408.478;454.932;287.369;354.312;366.718
3029205.546;445.843;831.895;473.410;398.085;455.417;281.036;345.595;357.702
3029205.554;445.433;822.507;467.375;375.919;449.307;289.753;349.171;374.988
3029205.562;416.227;796.095;430.606;344.403;390.671;262.149;322.610;341.348
3029205.570;431.277;820.085;455.789;366.904;432.096;267.774;332.035;345.632
3029205.578;434.518;828.914;450.797;379.272;416.227;271.052;338.405;355.057
3029205.586;434.779;829.138;452.362;384.785;412.315;269.637;339.635;350.736
3029205.594;448.115;837.855;464.097;391.342;429.042;280.328;351.071;368.170
3029205.602;440.255;828.542;455.193;388.063;421.554;275.671;347.458;360.198
3029205.610;441.782;821.427;456.721;375.845;428.297;253.990;327.826;338.927
3029205.618;456.497;833.385;467.263;387.356;445.805;261.217;334.680;352.077
3029205.626;457.577;836.737;463.054;387.989;437.386;261.702;335.909;346.303
3029205.636;456.683;831.373;463.165;389.032;429.302;262.000;334.233;353.344
3029205.644;468.940;842.586;483.431;400.282;447.556;280.254;348.650;370.294
3029205.652;470.653;840.612;485.741;391.938;451.803;290.275;355.616;379.570
3029205.660;465.326;835.918;474.937;378.750;444.353;280.738;347.793;373.572
3029205.668;454.746;822.730;464.730;367.649;433.475;257.157;326.224;341.237
3029205.676;478.886;848.360;484.101;406.243;455.603;275.820;345.111;363.179
3029205.684;490.397;857.413;487.342;428.893;470.132;290.126;359.006;374.727
3029205.692;490.658;848.807;477.247;415.742;464.097;293.702;360.049;375.360
3029205.700;512.823;859.350;495.128;431.351;478.849;308.342;373.609;393.614
3029205.708;529.029;865.199;520.647;450.313;499.524;320.040;387.728;403.561
3029205.716;524.521;845.268;510.961;439.286;489.503;310.652;380.613;400.953
3029205.724;479.445;798.702;454.783;393.689;448.599;261.404;333.041;350.848
3029205.732;479.110;797.026;447.333;398.792;445.619;267.364;337.474;356.920
3029205.740;493.787;806.414;464.842;411.682;456.795;281.706;350.475;378.862
3029205.748;493.415;811.703;469.349;422.858;465.028;278.614;346.415;369.735
3029205.756;490.770;806.563;459.738;415.780;460.185;277.534;343.472;375.621
3029205.764;496.544;818.558;468.232;419.952;468.232;280.812;348.501;374.727
3029205.772;503.697;828.020;477.955;431.538;472.218;283.755;351.705;372.678
3029205.780;500.977;822.358;470.541;410.378;469.983;280.626;347.495;372.641
3029205.788;500.865;830.814;472.628;423.491;465.177;280.514;347.756;364.855
3029205.796;506.677;838.637;484.772;434.779;478.737;290.573;355.393;376.999
3029205.804;495.985;826.381;477.917;417.382;476.614;284.836;348.948;364.184
3029205.812;493.042;820.830;474.639;407.100;470.243;293.739;354.424;367.239
3029205.820;493.154;821.948;472.292;401.288;459.999;305.772;361.428;381.656
3029205.845;476.427;816.882;459.068;400.245;450.462;292.957;347.570;359.528
3029205.853;475.310;817.254;459.030;401.475;447.221;289.232;342.280;356.697
3029205.861;475.869;819.638;459.701;391.826;454.150;290.722;343.882;351.332
3029205.869;469.536;813.119;460.111;387.877;449.643;279.360;334.047;334.792
3029205.877;471.212;820.719;461.638;401.214;452.697;279.322;336.543;335.425
3029205.885;469.871;822.581;461.414;403.784;456.348;277.385;338.331;322.759
3029205.893;476.912;823.475;465.401;403.710;457.540;288.002;349.879;340.603
3029205.901;472.069;819.303;463.948;394.620;455.938;279.099;342.168;331.700
3029205.909;460.595;810.213;452.884;389.777;449.382;275.634;338.666;324.398
3029205.917;454.225;796.951;446.737;379.533;441.372;269.264;327.788;324.100
3029205.925;433.214;777.543;429.153;369.623;421.107;242.479;298.508;293.963
3029205.933;434.481;782.944;420.474;371.337;417.605;246.800;301.413;305.064
3029205.941;436.716;777.356;421.554;358.932;420.585;251.159;305.809;304.654
3029205.949;447.221;784.025;438.057;368.468;434.369;255.145;308.082;304.990
3029205.957;450.015;783.019;436.306;369.214;442.117;254.437;310.093;309.423
3029205.965;437.237;771.582;421.070;371.784;426.658;237.338;297.055;285.879
3029205.973;440.143;767.708;417.083;369.735;422.858;237.077;298.992;289.492
3029205.981;440.590;757.948;414.439;360.832;431.202;237.226;301.339;287.034
3029205.989;441.745;755.712;415.631;355.393;428.706;234.433;297.464;286.885
3029205.997;454.634;768.416;425.801;384.599;439.547;246.949;308.827;307.858
3029206.005;443.682;750.646;419.058;375.025;434.592;239.238;300.407;293.888
3029206.013;437.349;742.637;409.186;356.250;428.706;237.674;296.161;297.390
3029206.021;433.139;743.344;400.729;351.593;419.840;234.321;293.106;289.418
3029206.029;435.263;741.594;400.655;356.846;417.680;237.674;295.378;290.833
3029206.041;439.398;738.464;400.394;363.514;423.528;245.646;302.643;305.064
3029206.049;439.174;736.900;404.939;378.005;424.422;241.771;300.333;291.392
3029206.057;445.023;740.737;413.507;367.649;437.349;243.932;301.264;297.166
3029206.065;441.484;733.659;409.000;361.502;431.575;238.717;297.315;289.679
3029206.073;445.172;734.143;410.154;358.373;432.208;238.679;296.347;290.908
3029206.081;442.266;729.933;405.274;363.514;429.526;241.436;296.012;299.700
3029206.089;428.520;715.405;392.869;363.290;419.915;230.111;283.681;279.881
3029206.097;433.139;715.554;392.199;353.791;420.958;237.674;288.673;294.931
3029206.105;428.520;712.760;391.118;344.627;420.250;235.066;284.240;289.381
3029206.113;432.879;714.436;403.225;344.850;423.938;236.407;285.134;285.693
3029206.121;436.977;718.459;405.423;358.447;424.832;241.846;290.908;295.565
3029206.129;428.967;715.666;395.626;354.014;412.017;241.660;291.690;287.853
3029206.137;429.600;710.227;390.783;351.332;407.770;238.828;287.294;292.696
3029206.145;410.974;690.520;373.088;331.216;395.179;221.729;270.344;272.803
3029206.153;398.830;679.530;364.669;318.252;386.052;222.512;272.729;269.748
3029206.161;388.175;666.194;354.573;309.534;379.719;226.200;276.007;278.652
3029206.169;377.111;655.986;341.199;298.060;370.927;222.847;273.362;266.582
3029206.177;378.564;651.591;338.517;292.584;363.290;232.048;280.142;280.552
3029206.185;382.327;656.061;351.854;307.634;364.631;232.533;279.434;278.689
3029206.193;380.576;653.602;355.802;305.325;378.825;226.125;272.132;269.860
3029206.201;381.805;651.330;351.295;297.651;375.323;231.452;278.279;277.981
3029206.209;378.601;652.671;351.742;298.917;377.372;229.403;278.465;265.278
3029206.217;371.151;641.867;347.570;285.916;373.870;231.303;278.503;274.852
3029206.225;361.614;631.511;337.176;284.240;366.196;216.365;266.246;255.704
3029206.221;362.359;630.878;334.419;295.229;360.124;224.635;273.921;258.759
3029206.229;362.955;625.662;329.763;292.175;350.066;230.260;274.889;270.233
3029206.237;353.381;611.469;327.379;272.244;346.899;222.065;266.246;254.549
3029206.245;352.077;609.159;333.264;260.845;360.385;220.276;262.633;257.567
3029206.253;346.601;604.615;328.720;278.689;357.218;213.571;256.300;247.024
3029206.261;334.829;593.700;310.838;269.040;336.878;202.432;244.603;235.103
3029206.269;337.474;588.112;311.248;269.413;335.984;208.281;249.557;246.055
3029206.277;343.323;588.559;315.644;277.720;342.317;212.193;253.357;240.654
3029206.285;348.911;587.963;320.226;269.152;346.936;215.285;256.561;250.898
3029206.293;332.557;571.311;305.213;266.321;330.061;204.481;244.007;239.387
3029206.301;319.779;559.315;292.845;258.796;325.032;189.953;227.615;223.666
3029206.309;329.018;564.307;304.207;264.421;337.809;196.584;235.327;234.731
3029206.317;334.457;565.276;312.477;269.525;347.942;203.550;243.150;233.799
3029206.325;338.592;561.960;312.738;261.515;347.905;215.620;251.792;252.239
3029206.333;340.566;563.487;310.764;271.760;346.378;217.743;252.388;251.494
3029206.341;331.700;551.566;302.084;275.001;334.084;205.971;241.324;235.699
3029206.349;332.296;548.810;298.955;268.258;329.316;204.742;238.977;238.568
3029206.357;330.098;546.277;296.235;261.031;335.462;200.160;234.395;225.753
3029206.365;333.786;541.434;301.562;258.535;334.196;203.028;236.034;236.481
3029206.373;325.777;532.791;298.955;247.173;340.790;194.982;226.311;225.753
3029206.381;321.195;527.091;297.502;258.759;338.182;194.758;225.529;223.517
3029206.389;321.046;526.644;296.459;257.269;327.267;196.956;226.125;230.297
3029206.397;313.781;515.245;289.641;247.173;324.734;197.254;227.392;220.686
3029206.405;317.395;515.915;291.765;252.426;327.155;196.584;228.733;223.368
3029206.400;322.871;524.186;295.602;255.182;327.304;194.833;227.392;218.488
3029206.408;317.954;517.480;290.498;257.418;320.636;193.901;225.976;215.918
3029206.416;315.011;510.104;282.042;251.345;314.638;192.560;224.710;220.947
3029206.424;298.508;494.122;259.578;240.095;292.771;183.210;217.110;204.407
3029206.432;301.041;491.515;259.094;243.485;283.606;190.884;224.784;219.792
3029206.440;296.533;480.153;271.834;240.505;298.843;190.772;224.337;216.886
3029206.448;285.879;468.604;257.976;230.931;296.384;188.760;220.202;212.267
3029206.456;285.879;462.010;251.904;231.713;295.788;192.076;222.325;221.841
3029206.464;284.649;453.778;250.749;224.970;293.776;185.296;215.955;207.946
3029206.472;287.481;444.576;248.887;222.363;291.765;192.858;223.219;220.910
3029206.480;285.842;439.957;245.832;233.129;291.839;184.551;215.471;212.751
3029206.488;288.300;441.335;242.703;240.020;285.208;179.298;214.651;210.293
3029206.496;290.535;434.294;238.977;238.419;286.736;177.957;218.377;217.818
3029206.504;292.808;432.432;236.891;240.617;292.808;176.318;221.692;211.485
3029206.512;286.065;419.095;235.289;225.902;279.918;171.326;217.855;215.359
3029206.520;276.826;409.260;228.323;226.833;280.626;154.488;202.805;197.329
3029206.528;285.953;415.929;235.215;241.958;292.696;159.927;211.373;199.899
3029206.536;292.920;419.468;236.444;239.052;291.169;171.289;225.455;215.359
3029206.544;295.639;415.482;240.058;242.777;295.751;172.593;225.641;211.112
3029206.552;300.221;410.751;242.889;247.695;295.863;181.757;233.836;227.876
3029206.560;271.387;374.801;210.181;222.102;264.831;160.374;211.410;205.152
3029206.568;279.248;373.162;214.316;222.437;270.084;167.340;217.967;210.069
3029206.576;306.182;392.050;241.287;249.967;300.407;185.221;234.470;233.576
3029206.584;295.267;380.278;231.154;245.869;287.145;178.404;228.360;220.537
3029206.595;292.212;372.492;228.398;238.307;281.781;179.298;230.148;225.008
3029206.603;285.655;364.222;225.715;243.597;279.360;170.320;221.357;210.516
3029206.611;276.230;356.324;221.245;243.895;278.801;167.750;216.216;202.656
3029206.619;285.693;364.818;230.186;245.720;282.377;187.084;233.874;224.076
3029206.627;283.793;367.910;233.389;243.746;283.793;183.433;229.403;210.851
3029206.635;264.347;350.066;213.124;218.973;260.584;167.340;206.418;199.750
3029206.643;258.274;345.968;204.891;216.328;252.724;172.220;205.822;198.148
3029206.651;267.476;356.473;219.606;232.942;261.217;180.677;212.640;201.166
3029206.659;272.617;362.918;230.707;232.942;266.433;184.923;217.445;208.728
3029206.667;253.096;346.415;214.204;206.381;248.477;164.770;197.813;179.484
3029206.675;272.617;364.073;233.687;237.338;268.929;182.465;214.949;201.873
3029206.683;276.789;366.271;237.264;246.651;272.729;183.955;218.228;200.123
3029206.691;274.219;360.608;234.097;237.264;268.407;187.196;223.182;200.495
3029206.699;281.483;362.322;245.161;246.428;276.901;197.142;231.043;215.881
3029206.707;266.843;340.864;233.799;222.288;263.974;177.994;208.952;189.915
3029206.715;275.336;343.174;240.318;226.572;273.027;187.457;217.780;203.475
3029206.723;275.820;338.405;237.748;239.909;267.737;189.394;220.276;204.183
3029206.731;266.284;325.479;229.180;235.960;256.784;186.339;217.594;197.850
3029206.739;261.217;313.595;223.927;233.799;248.887;188.015;219.420;203.028
3029206.747;245.757;285.320;209.548;207.797;239.238;171.736;203.811;180.118
3029206.755;246.949;275.187;210.851;216.737;242.218;174.083;205.301;189.580
3029206.763;270.084;288.486;230.893;246.949;271.648;191.815;222.735;209.734
3029206.771;244.007;251.383;209.585;209.585;248.030;165.626;197.701;181.571
3029206.779;250.861;252.798;216.104;230.968;247.583;175.200;207.871;195.056
3029206.807;252.537;262.149;222.027;226.609;246.987;170.507;205.934;182.837
3029206.815;243.783;267.252;215.508;219.978;231.005;161.529;196.770;175.759
3029206.823;267.215;299.029;244.342;238.605;260.398;188.127;220.165;196.695
3029206.831;260.845;299.402;236.593;230.782;260.733;187.494;216.067;193.268
3029206.839;259.429;303.499;233.687;228.882;250.340;190.102;213.683;201.277
3029206.847;240.356;289.828;221.767;209.101;243.075;177.398;197.701;181.422
3029206.855;228.882;285.767;214.241;199.303;227.690;176.393;194.088;184.327
3029206.863;222.586;281.855;211.187;194.572;219.382;168.122;186.637;173.077
3029206.871;242.777;300.705;229.180;212.267;221.618;189.766;205.636;191.592
3029206.879;229.143;290.610;222.139;201.426;206.009;175.647;191.741;174.120
3029206.887;220.165;291.765;217.147;188.574;204.183;149.868;168.271;136.830
3029206.895;239.089;314.452;242.069;214.204;237.413;164.732;182.390;157.170
3029206.903;231.192;304.431;233.538;195.913;230.297;161.231;178.888;151.843
3029206.911;215.508;285.320;216.551;196.174;203.848;160.262;176.169;147.223
3029206.919;223.145;290.312;224.151;198.670;205.114;175.424;189.282;166.260
3029206.927;236.072;304.356;238.530;209.995;210.963;181.869;194.348;168.309
3029206.935;220.463;288.449;224.300;194.311;189.394;171.773;183.955;164.881
3029206.943;227.056;298.508;232.384;193.678;204.891;169.314;184.104;160.001
3029206.951;223.815;292.957;227.578;183.508;201.575;166.371;181.310;155.494
3029206.959;212.453;283.010;219.122;171.252;188.984;158.101;174.418;150.986
3029206.967;215.508;289.455;229.143;190.027;203.811;160.746;176.579;147.633
3029206.975;204.667;280.365;216.328;180.341;189.655;163.615;178.665;155.494
3029206.983;209.175;289.828;223.145;164.807;188.015;173.002;190.474;164.844
3029206.991;178.218;258.796;191.033;140.592;151.061;142.828;157.058;138.693
3029207.001;187.159;265.501;206.456;151.880;171.438;156.797;172.183;158.623
3029207.009;197.776;278.689;219.941;156.462;188.872;167.415;184.290;165.366
3029207.017;185.408;267.699;202.432;148.788;168.644;154.600;173.710;157.207
3029207.025;195.391;283.122;213.571;156.052;175.983;153.929;176.951;155.270
3029207.033;212.304;301.860;231.825;177.361;188.686;160.933;187.308;165.366
3029207.041;194.237;278.167;209.510;155.009;167.117;145.808;174.008;157.095
3029207.049;171.810;261.515;186.712;127.256;153.631;111.535;142.530;119.656
3029207.057;184.514;274.405;197.031;148.080;165.664;113.435;149.421;130.981
3029207.065;189.096;276.975;207.499;160.523;174.753;113.361;154.860;132.658
3029207.073;184.029;273.250;205.301;158.548;175.312;119.656;161.007;142.753
3029207.081;168.756;254.065;184.625;131.205;149.831;121.705;163.540;149.906
3029207.089;170.693;256.374;187.270;122.786;149.086;123.531;167.713;146.218
3029207.097;187.382;278.950;204.667;142.381;168.979;136.606;179.969;165.105
3029207.105;193.678;289.343;206.903;174.493;176.243;132.397;176.206;163.838
3029207.113;187.829;280.440;196.360;176.542;158.623;120.811;166.371;152.141
3029207.121;193.529;280.924;204.034;166.558;178.777;114.776;163.838;150.204
3029207.129;195.019;282.526;206.791;164.472;185.445;106.655;160.635;136.942
3029207.137;195.466;282.042;201.873;163.317;181.720;110.306;165.366;144.355
3029207.145;186.563;267.811;192.784;147.894;169.426;107.922;160.523;142.753
3029207.153;175.983;256.225;185.519;139.438;157.617;110.231;160.076;146.404
3029207.161;170.246;253.655;178.069;154.264;145.882;115.559;165.664;154.749
3029207.169;166.744;248.291;172.406;151.768;146.590;112.951;162.683;148.006
3029207.177;164.211;241.324;169.426;133.291;141.896;105.575;154.078;146.776
3029207.185;163.801;236.742;168.867;139.624;142.567;100.248;150.949;138.134
3029207.182;176.914;246.204;187.084;148.602;175.349;106.543;157.543;141.189
3029207.190;179.522;250.041;185.557;148.825;176.467;100.620;151.768;137.053
3029207.198;178.665;247.136;178.106;162.274;164.211;91.977;142.865;122.786
3029207.206;175.163;240.356;169.203;143.684;152.849;90.003;138.469;126.250
3029207.214;172.779;236.593;175.647;143.349;156.797;91.381;139.065;127.144
3029207.222;196.658;260.063;199.452;179.186;177.622;109.412;155.456;145.584
3029207.230;206.754;270.121;209.361;178.516;191.852;119.470;165.366;160.672
3029207.238;167.377;228.584;164.881;145.100;149.049;89.258;137.500;122.935
3029207.246;162.832;223.443;153.258;142.828;139.698;95.591;143.386;131.801
3029207.254;165.179;225.380;154.488;150.353;150.427;98.161;144.392;136.942
3029207.262;168.197;226.870;157.803;155.531;152.476;98.050;144.653;138.395
3029207.270;180.714;233.129;167.862;164.546;162.758;104.383;151.917;147.931
3029207.278;190.400;241.324;172.704;173.673;163.428;106.357;155.792;145.361
3029207.286;184.476;230.297;161.380;160.821;150.502;101.589;152.774;143.759
3029207.294;174.679;224.523;161.082;148.118;153.594;80.913;131.987;120.699
3029207.302;172.742;224.188;160.672;156.835;158.027;83.856;133.850;122.972
3029207.310;181.571;226.796;168.234;158.921;167.675;100.657;150.837;145.137
3029207.318;176.765;223.033;164.658;159.778;162.721;97.267;147.298;140.928
3029207.326;155.829;200.979;142.902;130.050;141.226;87.507;136.830;133.403
3029207.334;158.325;206.716;147.037;132.099;139.251;95.516;143.014;139.289
3029207.342;167.079;217.743;154.190;137.724;151.508;105.090;149.608;149.868
3029207.350;169.128;216.328;155.419;146.292;154.115;103.712;149.310;152.588
3029207.358;161.305;205.748;148.118;141.300;146.665;91.791;135.228;136.048
3029207.366;164.472;199.862;149.235;130.199;142.418;99.279;142.418;142.790
3029207.361;162.683;196.062;145.808;122.674;144.318;97.640;138.879;136.457
3029207.369;167.377;206.791;149.831;125.915;151.433;98.981;136.979;133.142
3029207.377;171.028;208.989;158.362;130.571;149.012;105.426;143.684;139.102
3029207.385;163.876;201.538;159.182;142.008;152.476;93.952;129.603;122.637
3029207.393;161.938;194.237;156.388;135.899;159.778;90.413;121.258;119.992
3029207.401;157.505;192.113;151.470;119.433;153.184;96.001;122.413;120.401
3029207.409;150.539;185.333;148.527;111.125;157.282;100.099;124.536;119.321
3029207.417;145.920;186.227;142.902;126.958;146.441;105.537;128.187;124.611
3029207.425;140.108;176.169;135.936;120.290;138.432;104.122;123.717;116.639
3029207.433;131.801;166.111;122.786;95.703;122.152;102.855;119.247;114.329
3029207.441;120.252;153.780;115.670;86.762;118.539;88.476;101.775;95.293
3029207.449;123.158;149.943;127.070;75.884;140.369;84.788;96.932;91.232
3029207.457;146.180;175.945;149.012;105.835;154.413;98.087;111.610;104.681
3029207.465;158.697;189.766;163.279;137.016;162.609;104.457;118.315;107.624
3029207.473;151.508;177.063;155.941;115.857;163.987;103.191;116.341;110.008
3029207.481;135.787;162.721;140.518;110.455;146.292;84.676;97.565;88.252
3029207.489;129.305;155.196;132.285;103.302;136.383;82.068;95.628;86.054
3029207.497;125.356;143.498;129.156;83.745;136.830;83.297;98.124;90.525
3029207.505;125.617;145.622;129.491;78.268;135.936;81.956;96.597;89.332
3029207.513;136.159;157.505;137.724;92.797;148.527;97.454;112.206;109.784
3029207.521;121.333;141.785;119.694;89.146;132.173;85.011;101.663;93.915
3029207.529;114.813;130.609;114.888;81.919;124.536;71.712;90.338;78.753
3029207.537;115.298;123.791;114.292;70.035;125.989;73.202;94.026;82.552
3029207.545;113.472;126.734;103.638;64.485;114.851;69.588;88.513;79.535
3029207.569;111.274;128.448;106.059;79.125;116.900;61.989;81.770;74.692
3029207.577;117.719;135.563;120.290;90.860;142.455;63.702;86.315;73.500
3029207.585;126.176;142.194;126.101;88.811;150.464;75.884;96.112;85.384
3029207.593;120.103;131.242;116.378;81.137;137.053;72.308;88.364;84.825
3029207.601;129.826;141.747;126.511;89.779;145.882;73.686;89.295;82.999
3029207.609;136.271;151.880;128.895;97.193;151.992;78.119;94.995;93.691
3029207.617;129.677;148.155;125.319;89.109;136.569;72.680;93.393;86.203
3029207.625;135.414;156.537;131.652;102.408;142.492;82.329;104.755;95.889
3029207.633;124.238;142.753;122.190;83.745;135.750;76.741;98.236;93.319
3029207.641;109.076;136.718;111.945;70.818;130.348;59.865;80.280;75.884
3029207.649;106.618;135.712;104.532;72.457;118.241;62.361;81.994;81.621
3029207.657;113.174;144.318;112.429;72.606;124.425;70.781;89.630;88.252
3029207.665;104.196;138.432;100.769;69.477;114.888;61.505;79.349;78.566
3029207.673;101.030;133.440;99.428;61.579;114.739;63.740;81.807;79.200
3029207.681;98.459;133.589;103.004;62.548;117.458;59.754;78.157;67.987
3029207.689;95.740;132.099;104.532;74.096;117.123;59.195;80.392;68.657
3029207.697;86.278;118.949;95.442;59.269;108.890;50.925;72.643;60.312
3029207.705;82.403;122.413;84.825;41.127;88.587;45.151;65.342;57.146
3029207.713;90.003;136.830;92.052;64.708;93.691;47.497;68.024;62.734
3029207.721;91.158;132.620;98.273;60.648;105.649;45.896;64.299;56.550
3029207.729;90.487;131.093;93.654;49.546;101.663;48.950;66.161;62.771
3029207.737;93.356;130.869;95.256;61.430;109.375;50.552;69.030;64.746
3029207.745;83.223;111.908;84.080;39.339;95.516;45.039;63.702;60.163
3029207.753;70.408;102.073;71.414;13.076;75.623;29.244;49.919;44.070
3029207.751;94.734;131.540;105.090;50.515;116.266;42.766;65.565;50.887
3029207.759;138.581;174.083;147.484;97.081;152.923;85.011;108.518;98.050
3029207.767;131.354;166.669;138.469;93.766;143.014;74.171;100.546;87.619
3029207.775;119.768;152.886;126.474;78.715;139.736;71.190;96.262;87.097
3029207.783;73.425;99.689;77.747;16.615;85.309;33.081;56.103;45.784
3029207.791;80.764;119.247;80.317;40.308;83.745;35.800;58.599;43.772
3029207.799;84.639;125.617;86.501;53.309;92.834;46.082;68.471;58.152
3029207.807;74.767;158.213;80.056;43.437;88.289;42.766;64.820;53.421
3029207.815;76.853;192.486;81.696;23.693;95.703;50.925;74.171;61.616
3029207.823;89.258;214.986;102.222;29.318;107.922;59.046;82.664;71.637
3029207.831;79.572;208.430;90.152;40.978;96.001;43.400;64.969;54.389
3029207.839;85.011;218.004;95.218;37.290;100.955;48.429;67.912;63.293
3029207.847;76.480;216.812;85.533;25.369;96.746;39.153;56.922;52.080
3029207.855;84.639;218.973;94.846;30.659;106.916;39.563;57.667;54.054
3029207.863;99.577;232.421;109.859;48.354;119.619;54.762;70.520;76.443
3029207.871;78.119;219.978;89.854;16.615;100.918;45.784;59.344;65.602
3029207.879;56.289;200.123;66.161;-0.410;68.471;22.277;37.700;36.545
3029207.887;64.634;210.702;72.345;11.623;73.425;27.418;39.041;38.780
3029207.895;94.362;242.069;97.752;47.795;87.358;50.366;59.530;58.226
3029207.903;111.200;257.269;110.865;63.702;98.534;62.250;72.457;71.786
3029207.911;100.322;243.708;105.500;55.134;87.023;44.368;57.183;50.180
3029207.919;105.426;248.402;118.464;56.475;110.157;43.325;55.879;49.919
3029207.927;112.429;253.767;122.190;61.169;110.939;56.699;70.073;64.149
3029207.935;112.839;260.212;115.559;71.377;93.468;60.648;76.406;65.416
3029207.946;105.239;263.490;103.638;56.177;86.613;60.201;75.772;66.161
3029207.954;104.234;262.745;104.122;58.338;88.327;63.106;77.225;66.124
3029207.962;86.203;238.568;93.021;46.231;71.116;46.082;59.605;46.119
3029207.970;83.447;230.484;94.399;31.628;71.786;46.343;61.207;42.096
3029207.978;82.031;237.413;89.370;41.947;79.460;44.554;60.461;37.439
3029207.986;93.654;257.455;99.130;62.287;86.650;67.055;80.839;60.387
3029207.994;90.301;257.678;100.248;49.733;87.768;76.927;90.003;66.869
3029208.002;74.878;247.657;81.323;34.086;68.992;71.414;85.607;64.485
3029208.010;63.851;243.112;69.141;29.653;50.440;64.038;78.864;57.928
3029208.018;58.785;248.030;67.912;19.073;44.666;47.311;63.144;41.388
3029208.026;62.734;256.225;71.526;22.389;55.172;37.961;54.091;38.557
3029208.034;72.271;270.382;79.833;30.175;68.210;39.116;57.779;41.500
3029208.042;78.417;281.744;82.031;33.341;78.902;41.053;60.759;51.893
3029208.050;67.055;276.864;64.932;34.422;58.152;26.338;47.684;38.557
3029208.058;53.048;263.080;47.870;12.293;42.655;15.646;39.525;28.312
3029208.066;55.693;267.290;54.725;4.321;48.950;22.650;47.088;38.110
3029208.074;59.456;272.095;56.848;13.746;53.346;20.340;45.262;35.875
3029208.082;68.545;284.612;63.330;23.730;65.491;22.687;48.913;42.208
3029208.090;75.810;294.149;62.361;35.316;61.728;26.226;53.644;45.188
3029208.098;60.089;277.236;45.709;24.363;41.686;13.933;43.288;30.808
3029208.106;43.958;257.231;27.046;-3.278;21.718;-2.012;31.367;16.131
3029208.114;46.790;256.784;26.897;-6.445;26.487;-1.937;34.198;15.832
3029208.122;67.241;276.193;42.021;17.285;60.834;17.174;51.223;45.635
3029208.130;64.559;266.880;39.488;17.211;57.817;12.256;48.243;44.741
3029208.142;48.764;244.416;21.309;-3.539;39.898;8.941;45.076;38.780
3029208.150;48.950;247.397;14.640;0.596;30.249;5.886;42.655;33.155
3029208.158;58.152;263.043;25.816;21.718;28.275;10.170;48.392;33.751
3029208.166;66.720;269.078;32.298;31.888;29.504;21.942;61.616;43.623
3029208.174;62.697;257.678;29.840;26.748;21.048;12.368;53.123;29.430
3029208.182;61.654;256.300;30.138;20.936;10.431;4.135;43.251;20.154
3029208.190;74.804;275.858;47.944;35.577;32.522;6.966;43.772;23.544
3029208.198;65.565;268.742;43.176;42.841;22.128;-4.396;29.542;7.749
3029208.206;49.025;251.643;26.859;22.650;-3.241;-11.772;22.762;-3.986
3029208.214;32.336;232.607;9.760;11.250;-30.510;-22.426;11.101;-13.746
3029208.222;37.737;238.195;12.890;17.844;-26.599;-20.675;10.654;-10.803
3029208.230;50.142;252.314;29.951;28.275;-3.614;-10.319;22.203;-0.708
3029208.238;47.088;246.875;40.308;24.922;12.927;-17.919;16.466;-9.127
3029208.246;28.647;224.300;19.073;10.021;-11.697;-34.571;3.353;-22.985
3029208.254;33.677;238.419;19.260;23.134;-19.781;-34.273;7.711;-23.134
3029208.262;54.091;253.692;41.164;26.338;7.190;-19.707;23.954;-6.631
3029208.270;78.753;278.875;67.912;60.722;38.147;5.551;45.672;23.097
3029208.278;45.262;237.077;35.949;19.148;2.496;-20.601;15.087;-3.725
3029208.286;21.122;210.330;10.803;-7.413;-21.420;-37.402;-2.049;-18.440
3029208.294;30.547;221.543;21.830;5.066;-4.023;-26.822;11.101;-6.966
3029208.302;36.955;223.443;29.579;11.958;6.817;-22.389;19.148;-2.012
3029208.310;43.064;226.572;38.110;28.908;13.337;-18.068;28.647;0.000
3029208.318;46.231;228.137;39.190;30.324;15.907;-14.827;36.918;2.533
3029208.326;70.669;254.177;66.720;48.839;30.100;0.708;53.495;20.266
3029208.321;67.130;250.340;65.565;45.896;30.659;-3.316;45.076;18.775
3029208.329;42.543;225.008;35.875;30.063;8.270;-25.816;19.856;-4.843
3029208.337;36.657;219.569;32.112;21.681;10.133;-31.292;14.715;-13.597
3029208.345;48.243;227.280;49.546;21.383;28.275;-16.131;29.281;-0.447
3029208.353;60.052;231.564;54.687;38.147;27.455;2.161;49.993;15.944
3029208.361;68.173;238.977;64.969;52.042;39.749;12.815;56.215;28.163
3029208.369;51.334;226.535;50.440;40.084;26.003;1.602;39.563;20.377
3029208.377;28.126;209.361;24.810;-5.215;3.725;-6.743;32.075;9.798
3029208.385;22.203;209.101;22.650;3.614;-6.966;-9.015;31.106;5.737
3029208.393;44.778;230.484;46.678;26.561;15.013;-2.682;36.471;16.317
3029208.401;57.183;245.571;55.544;47.721;16.354;0.596;41.276;18.291
3029208.409;74.133;261.702;70.930;74.841;28.722;7.004;47.088;23.395
3029208.417;79.460;258.833;81.025;68.806;34.310;7.525;44.778;21.607
