Timestamp,AFz,AF3,AF4,AF7,AF8,Pz,P3,P4,2024-05-20 10:01:12.219,fs=125
5784517.790;47.386;58.673;54.389;61.505;8.754;35.726;38.967;30.957
5784517.798;43.996;52.862;52.601;56.997;0.000;36.173;40.494;32.075
5784517.806;35.428;40.345;49.137;36.992;-9.239;37.439;38.110;31.888
5784517.814;41.947;45.933;59.046;47.162;-1.937;44.554;43.847;39.153
5784517.822;45.486;62.399;53.756;59.977;4.955;46.827;41.835;41.127
5784517.830;44.070;59.381;47.497;56.326;7.637;50.142;44.778;42.394
5784517.838;34.049;42.766;46.343;45.635;-3.278;45.784;41.127;38.370
5784517.846;27.344;32.298;40.680;34.943;-9.537;37.588;33.267;32.149
5784517.854;30.361;37.141;43.474;35.614;-3.502;37.402;33.230;36.918
5784517.862;27.977;34.161;41.686;36.769;-3.204;31.441;27.195;33.304
5784517.870;26.822;37.700;34.720;42.543;0.931;31.143;25.742;31.218
5784517.878;17.658;27.716;20.713;37.067;-9.798;31.292;25.071;31.739
5784517.886;15.311;22.501;23.097;30.734;-14.380;35.502;30.398;36.880
5784517.894;22.762;32.187;33.416;36.359;-7.339;37.998;36.471;37.402
5784517.902;23.767;32.820;33.714;35.726;-5.104;34.198;33.677;32.596
5784517.910;20.266;26.599;28.312;29.728;-5.439;31.926;31.628;30.994
5784517.918;17.136;22.724;24.736;26.748;-6.557;30.473;30.734;33.379
5784517.926;22.016;23.656;29.430;32.112;-1.714;33.081;30.659;38.035
5784517.934;24.997;34.347;28.275;34.831;-12.368;34.943;31.404;39.525
5784517.942;33.602;42.580;39.302;41.500;3.725;36.918;32.336;42.431
5784517.950;30.398;32.745;37.476;40.792;11.437;33.341;28.089;35.986
5784517.958;29.653;34.161;32.522;43.176;10.878;32.149;25.444;34.831
5784517.966;40.270;47.274;42.580;54.091;15.944;26.301;20.005;32.037
5784517.974;52.229;54.576;54.017;61.654;20.079;29.430;23.432;35.502
5784517.943;61.803;69.812;63.069;70.967;26.152;33.900;27.902;41.910
5784517.951;68.359;77.747;72.829;75.810;33.900;23.469;18.105;33.602
5784517.959;69.439;77.002;70.892;75.921;32.410;17.136;17.546;23.991
5784517.967;78.902;85.607;80.131;84.974;43.847;21.309;24.475;27.642
5784517.975;85.980;92.685;89.072;90.636;46.566;25.257;27.232;30.436
5784517.983;85.793;93.021;89.817;92.350;43.251;22.762;24.326;27.008
5784517.991;79.311;88.252;84.899;87.507;34.347;17.397;19.297;19.968
5784517.999;78.082;86.501;86.129;88.960;39.563;21.011;24.401;18.813
5784518.007;68.434;73.947;73.202;74.655;38.482;21.048;20.452;17.583
5784518.015;57.630;62.808;60.163;70.445;33.416;25.854;19.930;23.730
5784518.023;46.790;53.383;46.305;70.594;22.836;30.547;21.569;26.189
5784518.031;40.829;46.603;38.296;65.714;13.001;41.425;28.722;40.755
5784518.039;32.857;36.918;30.212;48.839;2.533;39.414;25.928;36.880
5784518.047;29.467;34.608;25.369;49.025;0.894;39.302;32.857;33.267
5784518.055;21.085;22.389;14.640;42.468;-3.129;33.341;32.187;31.069
5784518.063;15.907;17.546;10.319;36.694;-13.784;28.536;34.682;26.710
5784518.071;9.760;15.162;-0.522;45.709;-26.412;22.613;32.224;16.205
5784518.079;0.112;2.757;-6.072;23.656;-24.363;17.472;19.036;10.803
5784518.087;7.451;18.217;0.820;40.196;-24.363;27.381;27.418;18.701
5784518.095;17.956;31.702;7.823;56.215;-14.119;38.184;39.972;24.736
5784518.103;14.529;22.799;6.445;53.048;-8.605;40.568;39.637;30.436
5784518.111;-0.484;9.164;-11.958;35.614;-42.990;29.579;25.518;19.968
5784518.119;-2.198;6.929;-12.033;38.669;-45.598;26.412;23.879;17.434
5784518.127;-1.676;3.576;-10.878;32.708;-40.792;33.081;33.192;25.593
5784518.194;-3.465;3.204;-10.803;37.625;-35.390;37.588;40.121;28.610
5784518.202;-8.494;-2.980;-16.205;31.441;-43.511;32.708;36.135;22.873
5784518.210;0.037;5.811;-9.611;46.231;-36.955;42.915;43.400;33.788
5784518.218;-6.035;0.298;-12.927;40.494;-50.180;37.886;34.533;28.536
5784518.226;2.496;7.637;-4.433;42.953;-48.056;40.904;33.379;36.508
5784518.234;-0.745;3.986;-7.898;46.678;-36.173;34.161;31.851;27.195
5784518.242;-4.731;1.378;-8.866;41.537;-36.173;24.326;18.701;19.856
5784518.250;-0.894;8.345;-5.923;56.550;-49.099;22.277;23.134;15.087
5784518.258;24.922;29.393;25.332;67.949;-23.320;28.200;30.063;23.134
5784518.266;59.754;62.771;61.728;96.932;8.456;33.528;35.129;32.783
5784518.274;91.195;97.565;97.565;125.952;29.840;26.561;27.567;21.197
5784518.282;155.270;164.658;174.269;183.620;101.514;33.118;31.479;30.659
5784518.290;183.433;185.370;204.295;199.452;123.642;35.353;35.018;34.384
5784518.298;199.899;201.203;225.678;205.934;143.275;29.728;31.292;25.108
5784518.306;216.924;222.325;252.761;225.157;164.807;27.195;24.252;25.518
5784518.314;220.388;221.841;263.080;227.727;172.928;23.060;19.483;22.985
5784518.322;218.824;224.635;250.079;225.306;171.997;20.675;17.285;21.793
5784518.330;216.328;217.669;247.099;214.539;171.252;33.118;33.751;29.765
5784518.338;188.723;186.339;223.517;191.592;154.153;23.358;18.775;22.985
5784518.346;153.929;151.433;191.666;162.572;120.848;13.113;9.723;8.792
5784518.354;129.752;125.542;155.903;135.899;98.348;18.142;12.368;19.111
5784518.362;109.412;106.134;130.944;118.278;74.655;20.154;14.901;19.521
5784518.370;84.862;81.174;101.477;98.906;49.956;19.334;11.101;19.707
5784518.378;68.657;62.473;87.209;84.266;40.904;24.065;18.217;20.787
5784518.406;52.601;50.254;73.984;74.208;21.867;23.358;16.168;23.991
5784518.414;44.517;42.878;55.358;70.632;16.466;14.268;5.774;14.380
5784518.422;38.557;32.894;43.288;60.387;6.743;7.972;-0.410;5.141
5784518.430;34.161;29.728;39.861;53.197;6.370;19.372;9.909;15.572
5784518.438;31.702;28.312;37.812;56.662;12.107;26.301;15.907;15.460
5784518.446;24.624;22.501;35.502;55.283;3.316;27.344;15.497;5.327
5784518.454;24.810;21.756;35.018;53.532;1.341;34.943;20.675;11.586
5784518.462;17.062;13.597;20.377;42.096;-3.539;31.292;17.248;18.440
5784518.470;5.141;1.751;6.109;26.822;-16.168;17.099;7.749;14.566
5784518.478;-5.178;-9.947;-2.608;22.128;-18.477;9.425;5.923;13.337
5784518.486;-8.158;-9.388;-1.527;22.314;-14.044;7.637;8.047;13.113
5784518.494;-3.763;1.490;0.522;23.134;-17.136;11.176;13.299;14.082
5784518.502;-4.247;-6.147;0.261;19.893;-15.087;11.437;9.947;13.486
5784518.510;-4.955;-6.147;-2.198;16.801;-11.437;10.878;5.402;12.517
5784518.518;-5.960;-8.866;-3.316;18.552;-16.987;13.374;6.221;14.305
5784518.526;-3.651;-3.986;-5.998;25.406;-10.394;21.011;12.890;15.050
5784518.534;-14.566;-12.331;-16.540;14.938;-14.901;31.479;23.469;21.197
5784518.542;-3.912;0.112;2.272;19.148;4.955;23.693;18.105;10.319
5784518.550;2.235;4.135;12.666;14.976;14.603;22.613;15.981;8.158
5784518.558;-0.857;-1.937;9.499;3.166;15.795;19.372;7.525;8.494
5784518.566;10.952;6.445;21.420;6.221;38.110;25.071;12.331;15.311
5784518.574;17.099;9.835;25.630;3.986;50.217;30.063;15.236;20.824
5784518.582;19.148;9.723;28.312;4.172;55.693;33.155;16.801;23.060
5784518.590;22.724;18.701;34.347;11.027;57.742;33.081;16.578;22.948
5784518.586;16.242;8.903;27.679;5.625;43.660;30.771;11.213;20.750
5784518.594;11.437;1.602;17.956;-2.310;40.121;30.845;10.058;19.222
5784518.602;9.686;4.396;10.505;-2.310;45.225;32.820;14.603;20.228
5784518.610;7.637;-0.969;7.227;-3.837;44.741;36.061;15.832;23.879
5784518.618;0.224;-6.072;-0.484;-15.721;32.298;34.943;14.454;19.521
5784518.626;-7.749;-12.740;-3.614;-18.217;22.426;35.912;11.101;18.515
5784518.634;-3.092;-7.749;0.745;-12.070;32.857;48.652;22.352;30.994
5784518.642;-5.104;-10.356;-3.725;-12.591;31.032;53.458;27.567;31.590
5784518.650;-15.050;-21.011;-16.131;-23.879;23.209;49.621;24.661;25.295
5784518.658;-18.254;-25.779;-17.174;-30.324;19.073;49.099;28.722;26.599
5784518.666;-15.683;-20.154;-12.368;-28.498;21.532;41.611;27.418;27.604
5784518.674;-10.319;-13.150;-10.058;-15.013;23.022;24.997;18.440;24.773
5784518.682;-8.345;-9.760;-10.282;-9.239;29.318;12.144;10.543;21.681
5784518.690;-10.319;-16.168;-13.225;-17.770;22.799;-0.820;-2.384;13.821
5784518.698;-3.539;-9.164;-8.345;-16.876;26.487;3.316;0.335;14.156
5784518.706;-3.502;-5.774;-7.786;-12.219;29.840;6.817;0.484;10.654
5784518.714;-1.937;-6.072;-5.737;-7.823;31.143;10.170;-0.931;12.144
5784518.722;1.043;1.639;-7.525;-3.986;24.997;13.076;-1.974;11.027
5784518.730;-8.941;-14.529;-18.328;-19.185;18.440;7.972;-5.290;2.086
5784518.738;-19.185;-24.289;-25.034;-26.934;16.354;5.476;-8.680;0.149
5784518.746;-26.003;-27.306;-33.043;-28.089;17.621;9.537;-3.986;3.688
5784518.754;-25.630;-25.295;-33.230;-31.516;8.792;14.268;0.112;6.631
5784518.762;-27.157;-26.710;-38.072;-31.516;5.886;13.039;-3.017;5.886
5784518.770;-28.312;-27.418;-36.731;-28.946;4.396;10.654;-7.972;7.637
5784518.691;-30.845;-32.894;-37.551;-29.951;6.407;13.523;-5.327;13.448
5784518.699;-25.555;-29.877;-35.949;-32.037;17.472;6.221;-11.809;8.158
5784518.707;-18.105;-19.409;-29.951;-29.355;21.756;5.998;-9.649;7.227
5784518.715;-16.391;-22.352;-28.014;-26.710;17.285;5.588;-8.605;4.284
5784518.723;-17.621;-22.128;-33.341;-24.959;8.084;0.373;-12.107;-0.075
5784518.731;-11.921;-15.385;-23.432;-22.464;19.372;-2.384;-15.274;-3.427
5784518.739;-3.353;-10.058;-9.909;-15.423;39.823;3.874;-11.399;5.029
5784518.747;-2.533;-6.892;-13.895;-15.646;38.818;7.488;-9.201;7.786
5784518.755;-7.413;-8.531;-20.117;-18.179;28.796;9.537;-7.227;7.488
5784518.763;-6.706;-11.474;-21.942;-11.399;29.132;16.093;0.484;12.442
5784518.771;-9.984;-13.262;-25.295;-15.274;28.349;12.331;-1.676;5.960
5784518.779;-11.325;-15.348;-25.705;-18.254;31.702;4.843;-10.096;0.522
5784518.787;-13.746;-18.887;-24.065;-22.724;31.814;4.880;-11.399;5.066
5784518.795;-10.468;-14.789;-21.644;-18.887;30.361;9.388;-6.258;8.754
5784518.803;-16.317;-22.277;-28.759;-23.097;24.885;3.241;-12.517;4.321
5784518.811;-20.713;-29.467;-32.447;-24.624;19.595;-2.459;-16.354;4.880
5784518.819;-25.444;-33.714;-35.688;-29.095;18.403;-10.170;-22.128;-3.614
5784518.827;-21.495;-26.450;-27.642;-27.642;24.214;-10.245;-18.664;-5.066
5784518.835;-17.546;-20.713;-23.283;-21.569;31.143;-1.937;-9.909;2.757
5784518.843;-15.385;-21.607;-24.065;-21.122;30.100;7.227;-2.868;10.282
5784518.851;-16.131;-22.650;-30.436;-19.930;24.401;14.454;2.161;20.638
5784518.859;-17.434;-24.885;-25.295;-24.177;36.024;0.559;-9.872;6.817
5784518.867;-15.497;-24.885;-20.564;-25.220;38.072;-3.465;-12.815;-0.857
5784518.875;-13.299;-22.799;-19.222;-28.685;44.554;-4.694;-16.727;-1.378
5784518.870;-7.413;-19.446;-13.076;-27.381;49.546;-6.072;-18.403;0.596
5784518.878;-3.651;-10.356;-9.239;-21.495;46.939;-2.272;-13.188;3.651
5784518.886;-4.955;-13.150;-13.150;-19.744;47.907;-0.075;-9.276;3.725
5784518.894;-9.760;-22.165;-19.036;-22.799;40.159;0.708;-10.096;3.763
5784518.902;-10.133;-20.899;-16.280;-24.065;49.137;6.445;-7.190;9.127
5784518.910;-6.557;-16.280;-15.274;-20.042;46.268;11.697;-3.465;12.629
5784518.918;-5.588;-19.111;-13.113;-18.142;48.652;15.981;0.931;13.337
5784518.926;-10.207;-19.446;-16.354;-19.632;43.474;16.205;0.633;6.445
5784518.934;-8.345;-13.635;-15.832;-19.632;47.423;23.395;6.072;8.419
5784518.942;-8.121;-14.342;-17.472;-19.334;45.337;27.865;7.972;13.262
5784518.950;-6.519;-16.727;-16.354;-14.044;46.715;28.312;4.880;15.907
5784518.958;-12.405;-22.799;-23.209;-17.695;45.709;18.366;-3.129;13.337
5784518.966;-17.807;-31.739;-26.003;-28.200;38.967;5.439;-10.170;10.207
5784518.974;-18.030;-32.336;-21.569;-30.063;41.127;-4.023;-14.156;5.998
5784518.982;-16.987;-27.940;-21.569;-27.940;42.878;-2.533;-11.586;8.754
5784518.990;-13.560;-21.756;-21.942;-21.048;42.506;2.496;-7.302;15.236
5784518.998;-15.497;-26.226;-26.189;-21.197;48.615;-3.502;-13.635;7.264
5784519.006;-16.764;-27.716;-25.630;-27.567;37.402;-9.239;-23.432;-8.047
5784519.014;-19.744;-28.759;-27.865;-28.461;36.024;-10.431;-30.175;-8.903
5784519.022;-10.058;-19.185;-16.429;-16.019;49.621;4.880;-17.509;7.227
5784519.030;-13.299;-21.756;-18.515;-17.136;43.921;8.345;-12.405;11.511
5784519.038;-22.538;-30.994;-31.218;-28.312;27.530;-1.676;-17.621;1.043
5784519.046;-26.152;-31.665;-37.216;-32.298;28.647;-5.774;-20.638;-6.482
5784519.054;-16.168;-24.848;-27.381;-19.558;44.852;4.619;-12.368;2.421
5784519.095;-13.709;-17.360;-26.710;-14.156;43.325;9.425;-6.780;8.829
5784519.103;-27.530;-30.100;-37.551;-27.567;21.532;-3.874;-19.521;-4.470
5784519.111;-23.022;-26.859;-31.069;-24.475;22.128;-6.370;-20.526;-6.035
5784519.119;-11.586;-18.366;-21.867;-13.225;43.400;2.980;-10.431;7.376
5784519.127;-4.172;-10.878;-19.521;-7.004;53.048;3.614;-9.723;1.118
5784519.135;-5.215;-11.958;-16.913;-8.978;49.993;8.717;-8.345;3.912
5784519.143;-6.966;-12.070;-19.372;-9.201;41.574;6.743;-11.958;6.258
5784519.151;-6.258;-10.021;-22.464;-5.476;33.788;1.341;-17.025;1.527
5784519.159;-14.417;-20.675;-32.149;-9.574;14.827;1.527;-14.268;3.353
5784519.167;-13.337;-18.626;-34.012;-5.029;15.460;1.937;-9.164;4.433
5784519.175;-18.403;-18.664;-42.282;-10.803;7.488;1.714;-7.711;3.092
5784519.183;-35.018;-39.712;-61.132;-24.475;-4.433;-7.041;-22.650;-4.061
5784519.191;-33.751;-30.324;-55.693;-16.354;4.098;-3.800;-20.973;0.447
5784519.199;-25.928;-20.526;-46.156;-9.127;8.903;-0.112;-15.497;0.931
5784519.207;-29.653;-24.438;-49.956;-9.611;3.837;-4.992;-17.956;-5.402
5784519.215;-30.436;-30.138;-54.501;-10.431;5.439;-3.576;-13.709;-0.335
5784519.223;-25.742;-30.249;-52.564;-10.617;13.225;-1.900;-11.139;1.639
5784519.231;-33.863;-33.416;-53.160;-14.082;4.619;-5.513;-17.919;-11.735
5784519.239;-30.696;-30.994;-50.142;-10.282;6.370;0.484;-17.211;-12.107
5784519.247;-24.512;-24.177;-42.059;-2.049;14.454;0.522;-20.564;-11.399
5784519.255;-27.269;-28.089;-50.627;-4.768;10.803;2.235;-19.595;-6.706
5784519.263;-33.006;-33.639;-58.636;-14.566;5.700;-0.298;-15.758;-6.743
5784519.271;-34.720;-32.559;-59.232;-15.423;-2.198;-1.192;-4.992;-2.310
5784519.279;-36.731;-37.849;-64.336;-11.176;-4.880;-6.296;-1.490;-2.980
5784519.276;-30.994;-29.467;-58.375;-0.559;1.453;-7.935;0.596;-3.614
5784519.284;-27.083;-25.816;-55.805;-2.682;4.508;-6.109;3.688;-4.098
5784519.292;-27.232;-28.536;-60.946;-5.886;-0.447;-7.898;-1.602;-7.786
5784519.300;-21.011;-18.403;-51.633;-1.639;11.176;-1.788;-3.390;-6.109
5784519.308;-17.472;-13.635;-44.964;8.829;25.071;0.745;-7.823;-8.121
5784519.316;-9.350;-5.327;-33.341;17.658;31.330;7.935;-3.465;2.533
5784519.324;-22.389;-24.959;-49.397;2.906;13.597;6.855;-6.109;2.272
5784519.332;-33.192;-40.904;-61.169;-5.998;-0.969;2.831;-9.499;-5.327
5784519.340;-28.238;-24.624;-53.048;-4.508;16.205;11.213;2.459;0.596
5784519.348;-28.610;-24.922;-56.364;-7.935;14.938;8.419;1.490;-2.421
5784519.356;-33.528;-30.547;-65.044;-9.201;5.588;4.172;-3.725;-3.539
5784519.364;-37.737;-41.053;-62.585;-15.236;-0.559;2.794;-4.470;-2.906
5784519.372;-43.474;-49.658;-69.179;-13.411;-8.345;-1.378;-9.052;-6.333
5784519.380;-32.969;-37.886;-63.069;-4.917;13.001;5.960;-1.118;-1.080
5784519.388;-28.349;-29.542;-57.407;-4.582;18.105;7.562;0.484;-2.496
5784519.396;-29.169;-31.367;-61.169;-3.129;7.637;3.912;-0.633;-5.662
5784519.404;-23.283;-23.693;-55.395;6.184;0.894;7.488;4.359;-0.745
5784519.412;-25.034;-33.081;-57.109;2.272;5.998;5.104;0.522;-4.172
5784519.420;-19.781;-21.458;-49.807;12.107;26.822;7.376;-0.633;-1.453
5784519.428;-13.970;-11.399;-45.896;15.683;29.244;7.525;-3.092;0.075
5784519.436;-17.509;-17.546;-49.844;13.709;13.970;-2.421;-12.107;-11.362
5784519.444;-11.697;-17.509;-41.015;17.285;19.930;-3.278;-12.517;-10.468
5784519.452;-4.210;-8.717;-35.837;18.366;40.568;5.662;-0.075;-2.384
5784519.460;-1.937;-1.751;-35.763;23.544;39.116;10.319;6.631;-2.123
5784519.514;3.092;0.335;-30.734;33.528;31.441;19.856;14.566;3.166
5784519.522;6.780;-0.112;-28.461;38.333;33.155;24.550;18.664;5.588
5784519.530;4.359;0.224;-29.318;35.726;35.577;22.054;14.529;1.490
5784519.538;-6.072;-14.044;-35.353;16.205;40.419;9.201;0.633;-5.923
5784519.546;-4.582;-2.794;-37.365;23.097;34.794;8.568;0.969;-2.161
5784519.554;-10.394;-8.866;-43.698;24.997;19.260;3.763;-0.596;-5.215
5784519.562;-15.236;-19.968;-50.552;22.091;17.732;-1.416;-4.657;-9.909
5784519.570;-20.303;-24.252;-49.882;13.709;21.011;-1.788;-4.061;-12.368
5784519.578;-26.189;-29.318;-56.364;0.633;16.466;3.800;-0.931;-2.123
5784519.586;-20.452;-23.358;-59.083;14.044;12.219;11.809;5.141;6.706
5784519.594;-5.215;-6.668;-45.300;37.253;14.827;14.678;7.264;9.239
5784519.602;-1.453;-3.241;-43.698;46.641;14.342;14.715;5.625;9.313
5784519.610;-1.639;-1.788;-43.884;53.458;7.190;8.754;1.639;0.335
5784519.618;1.565;4.545;-42.096;55.507;0.186;9.574;5.178;-3.837
5784519.626;0.000;6.519;-43.698;57.071;-6.258;5.737;3.465;-9.052
5784519.634;1.565;4.210;-40.196;59.344;-2.831;0.149;1.267;-13.746
5784519.642;-0.484;4.582;-44.033;68.024;-3.800;-6.221;-2.645;-9.649
5784519.650;2.943;7.525;-45.076;68.806;-0.820;-1.900;-1.974;-5.737
5784519.658;7.637;9.127;-41.015;63.665;-2.086;0.373;-1.453;-9.127
5784519.666;13.635;16.354;-35.390;70.371;-3.316;6.072;3.204;-5.364
5784519.674;11.288;15.572;-33.155;74.282;3.353;9.015;0.857;-3.390
5784519.682;11.548;19.893;-29.095;72.680;-2.943;13.858;2.570;0.410
5784519.690;6.109;10.841;-34.310;67.241;-4.582;17.509;2.012;0.782
5784519.698;4.396;6.445;-42.766;64.299;2.831;15.460;1.080;-5.290
5784519.682;14.044;20.899;-31.032;69.439;8.941;19.222;7.376;-1.080
5784519.690;11.511;19.744;-29.132;62.585;0.782;15.572;8.382;-1.267
5784519.698;5.923;18.142;-33.230;66.087;-8.121;13.113;12.219;2.235
5784519.706;7.525;14.268;-33.751;69.290;-4.470;15.646;20.228;11.884
5784519.714;6.780;13.001;-38.818;62.510;2.831;13.672;22.240;7.004
5784519.722;9.313;14.231;-31.292;65.938;3.651;13.076;18.328;4.657
5784519.730;11.623;24.177;-31.441;72.196;-1.751;9.872;10.617;4.172
5784519.738;10.841;18.738;-31.404;72.755;-4.321;5.551;6.333;1.341
5784519.746;13.411;19.260;-26.040;72.569;-3.539;7.674;7.860;-0.224
5784519.754;16.801;26.599;-28.647;76.406;3.278;18.254;17.993;8.643
5784519.762;16.019;25.667;-29.542;66.794;3.017;21.942;21.681;10.766
5784519.770;12.331;11.250;-28.498;67.465;2.123;22.948;18.924;11.027
5784519.778;16.056;17.248;-22.501;70.333;0.112;24.699;18.924;16.764
5784519.786;9.015;10.654;-26.003;58.599;1.714;20.340;12.852;11.884
5784519.794;1.974;4.023;-40.419;45.151;-4.731;13.895;3.427;4.582
5784519.802;6.966;10.952;-38.072;51.744;-7.749;17.360;6.147;3.316
5784519.810;3.502;4.545;-38.333;54.091;-11.958;20.415;9.872;0.298
5784519.818;4.321;1.714;-34.235;55.060;-11.139;25.593;16.168;4.508
5784519.826;4.023;5.029;-36.247;49.137;-3.874;29.281;25.146;9.462
5784519.834;-1.602;-0.186;-42.021;45.709;-8.792;27.753;26.152;11.772
5784519.842;-13.858;-8.903;-57.779;35.502;-25.332;21.122;19.707;9.350
5784519.850;-20.713;-17.062;-64.597;34.757;-29.728;16.727;15.534;8.568
5784519.858;-17.136;-18.142;-54.762;39.414;-24.438;12.107;9.611;3.465
5784519.866;-16.354;-14.305;-56.624;36.694;-23.209;6.445;2.310;-4.433
5784519.846;-17.360;-9.239;-60.387;30.659;-27.418;5.066;0.000;-5.737
5784519.854;-19.260;-21.420;-58.599;33.937;-31.479;9.313;4.694;-3.017
5784519.862;-14.268;-8.419;-54.501;38.147;-23.656;15.497;11.772;2.608
5784519.870;-13.076;-8.941;-56.699;39.861;-19.483;11.921;11.064;-2.310
5784519.878;-4.321;-0.224;-48.429;49.137;-10.356;10.878;11.735;-5.476
5784519.886;-6.221;2.421;-47.870;48.056;-16.689;6.817;7.227;-9.649
5784519.894;-11.548;-6.594;-52.676;41.015;-22.613;6.147;6.817;-11.772
5784519.902;-6.743;-5.215;-43.996;45.113;-11.846;12.964;10.692;-6.035
5784519.910;-11.846;-11.958;-50.552;39.227;-13.113;5.215;1.229;-8.307
5784519.918;-16.168;-11.139;-53.868;32.187;-14.119;-0.745;-4.582;-5.625
5784519.926;-15.646;-9.760;-51.707;30.063;-15.162;-5.439;-6.519;-6.184
5784519.934;-12.890;-7.860;-50.329;36.247;-15.646;-3.800;-4.657;-5.178
5784519.942;-16.056;-14.752;-49.882;34.310;-15.125;-3.204;-5.104;-3.390
5784519.950;-9.276;-11.586;-40.978;32.298;0.186;-6.668;-9.686;-5.923
5784519.958;-6.258;-6.072;-43.176;30.100;5.700;1.453;-1.974;-6.482
5784519.966;-3.688;-3.688;-38.706;28.498;-0.410;5.588;5.215;-5.551
5784519.974;-8.158;-5.625;-41.835;28.722;-4.880;-1.192;0.969;-9.425
5784519.982;-13.448;-18.179;-48.690;19.819;-9.574;-8.121;-6.966;-14.082
5784519.990;-16.056;-20.005;-48.801;19.632;-9.090;-8.903;-10.580;-12.778
5784519.998;-17.583;-11.772;-57.220;20.601;-12.144;-9.872;-11.213;-14.864
5784520.006;-11.511;-9.127;-51.782;24.773;-7.413;-2.012;2.049;-11.027
5784520.014;-11.548;-8.121;-44.517;23.134;-8.345;1.453;7.860;-9.462
5784520.022;-18.328;-17.062;-50.999;20.564;-17.546;-3.129;-1.676;-17.397
5784520.030;-16.503;-14.044;-55.730;20.117;-10.729;-4.731;-11.586;-15.683
5784520.071;-16.540;-15.497;-56.699;22.240;-10.431;1.043;-11.213;-7.823
5784520.079;-22.352;-24.848;-57.928;13.299;-14.566;3.576;-9.723;-6.482
5784520.087;-26.599;-27.306;-58.450;6.482;-20.266;2.496;-6.780;-4.582
5784520.095;-29.355;-26.599;-61.281;6.296;-20.079;-6.184;-8.978;-9.052
5784520.103;-35.539;-38.221;-68.136;-5.849;-22.054;-12.405;-10.394;-9.164
5784520.111;-18.515;-22.128;-56.848;14.789;-14.156;-12.480;-4.731;-8.978
5784520.119;-9.090;-10.431;-48.056;29.765;-15.236;-19.930;-7.786;-17.025
5784520.127;-18.068;-16.168;-61.132;24.512;-32.187;-25.779;-13.448;-21.569
5784520.135;-18.440;-21.942;-58.562;27.642;-39.935;-23.730;-14.007;-25.108
5784520.143;-11.660;-15.907;-50.329;35.502;-38.221;-12.666;-5.700;-15.013
5784520.151;-5.849;1.974;-54.203;51.446;-39.786;-1.676;-1.043;-0.037
5784520.159;-14.640;-3.986;-60.387;49.062;-46.492;-3.912;-8.270;-5.849
5784520.167;-11.921;-4.917;-54.203;46.045;-42.506;-0.112;-3.763;-2.906
5784520.175;-11.250;-7.674;-54.017;39.712;-42.878;4.135;4.321;-0.820
5784520.183;-12.629;-9.909;-54.352;46.380;-47.348;3.912;7.115;-2.831
5784520.191;-11.325;-7.935;-60.163;53.793;-49.099;13.188;16.019;3.651
5784520.199;-7.898;3.949;-53.197;52.601;-44.666;16.019;17.509;6.258
5784520.207;-8.717;-2.757;-54.836;46.380;-35.763;9.649;9.947;0.261
5784520.215;-14.082;-9.723;-58.077;49.807;-40.196;12.368;8.941;2.012
5784520.223;-16.913;-11.064;-59.195;47.646;-43.660;14.380;6.035;5.178
5784520.231;-26.599;-21.756;-65.565;32.857;-59.716;13.597;5.625;6.519
5784520.239;-31.143;-26.375;-73.351;15.981;-57.295;16.801;10.021;9.760
5784520.247;-38.370;-32.298;-75.996;10.952;-54.166;14.938;13.188;9.462
5784520.255;-37.476;-36.657;-76.555;22.762;-57.966;5.513;11.437;0.671
5784520.310;-34.980;-35.726;-76.480;30.771;-58.487;-4.806;8.307;-6.557
5784520.318;-33.751;-26.338;-72.382;25.928;-64.522;-10.468;5.476;-10.729
5784520.326;-26.785;-20.340;-71.488;29.951;-55.395;-2.719;12.778;-1.453
5784520.334;-12.554;-1.825;-57.183;44.256;-41.090;4.508;18.589;4.470
5784520.342;-18.403;-9.835;-61.356;40.680;-46.678;1.937;13.895;0.671
5784520.350;-24.177;-20.452;-65.453;29.318;-46.827;-0.484;9.201;-3.353
5784520.358;-27.046;-22.501;-66.012;28.126;-44.778;-2.347;5.029;-4.470
5784520.366;-33.826;-23.879;-73.016;22.687;-48.168;-13.337;-7.749;-11.884
5784520.374;-31.479;-20.452;-72.420;16.987;-49.733;-18.962;-14.193;-14.938
5784520.382;-33.006;-25.891;-69.961;17.062;-50.329;-13.486;-11.697;-9.015
5784520.390;-35.278;-31.255;-75.065;16.317;-54.464;-3.837;-2.906;-1.118
5784520.398;-9.462;-3.763;-43.735;36.843;-26.561;3.725;3.912;5.439
5784520.406;16.838;24.438;-8.978;51.968;-1.304;-4.582;-6.072;2.198
5784520.414;61.318;64.746;38.929;77.933;47.609;0.782;-1.304;7.115
5784520.422;98.944;94.958;88.476;97.826;93.691;-3.986;-5.737;2.272
5784520.430;137.500;136.271;134.893;120.774;141.971;-4.172;-2.012;6.333
5784520.438;173.487;170.991;183.880;137.314;203.736;3.092;9.239;20.489
5784520.446;175.014;169.128;199.787;125.505;224.747;-5.439;0.745;13.895
5784520.454;158.958;146.143;191.219;96.150;218.675;-18.813;-13.337;-0.708
5784520.462;132.732;115.633;161.193;71.116;208.057;-29.020;-25.928;-14.082
5784520.470;107.028;89.295;138.283;43.474;203.997;-33.043;-33.900;-14.864
5784520.478;82.478;59.791;111.982;14.007;183.024;-33.379;-35.651;-13.672
5784520.486;50.552;26.822;75.847;-15.087;153.221;-37.141;-38.818;-17.285
5784520.494;30.138;6.817;49.770;-35.465;138.618;-36.992;-39.600;-20.638
5784520.505;19.483;-6.184;41.276;-43.958;134.893;-31.665;-35.241;-14.417
5784520.513;20.824;-2.086;38.221;-37.216;123.680;-26.152;-27.418;-6.817
5784520.521;12.070;-11.958;17.919;-39.972;105.016;-25.891;-25.369;-4.470
5784520.529;7.413;-11.362;13.970;-46.678;100.620;-21.607;-19.781;-7.264
5784520.537;6.184;-11.474;11.250;-44.517;100.918;-10.543;-7.823;-1.565
5784520.545;-0.335;-16.354;0.931;-49.174;85.421;-8.643;-8.419;-8.866
5784520.553;-2.533;-18.477;-5.439;-44.778;75.139;-6.407;-11.288;-9.909
5784520.561;-2.719;-18.142;-8.941;-39.339;65.453;2.198;-4.098;-0.596
5784520.569;-3.129;-18.589;-4.098;-34.906;72.941;8.531;4.433;10.133
5784520.577;-12.666;-26.859;-18.664;-44.405;64.932;12.964;9.052;13.746
5784520.585;-30.473;-38.072;-39.600;-60.685;40.494;13.970;4.359;16.019
5784520.593;-42.729;-52.601;-54.017;-76.778;22.464;12.442;-1.118;21.867
5784520.601;-47.423;-65.640;-58.003;-81.249;19.893;8.047;-2.272;23.507
5784520.609;-44.145;-65.379;-48.243;-74.618;33.043;0.820;-5.737;19.856
5784520.617;-34.384;-51.446;-40.866;-66.124;43.176;-0.373;-3.912;17.509
5784520.625;-36.061;-48.280;-44.182;-72.792;37.700;-8.941;-9.835;3.204
5784520.633;-41.574;-51.409;-52.415;-77.784;26.226;-14.789;-19.073;-0.708
5784520.641;-42.878;-59.791;-53.607;-79.274;26.710;-15.423;-21.122;-4.992
5784520.649;-34.124;-57.407;-40.978;-68.471;40.755;-6.706;-11.213;-4.359
5784520.657;-16.056;-36.359;-22.464;-48.801;55.358;15.236;13.337;14.342
5784520.665;-19.632;-31.218;-32.596;-53.495;48.690;12.442;10.841;5.662
5784520.673;-28.312;-37.774;-43.698;-61.244;34.943;7.935;5.588;2.123
5784520.681;-29.877;-43.735;-40.568;-67.614;36.098;7.562;5.774;5.364
5784520.689;-34.049;-51.595;-40.047;-68.508;37.327;-0.112;-2.533;-4.657
5784520.655;-34.198;-50.366;-45.039;-65.044;35.316;-1.825;-6.370;-2.421
5784520.663;-31.963;-49.397;-40.941;-63.069;36.769;-1.490;-8.345;4.098
5784520.671;-32.187;-47.162;-43.325;-70.967;37.588;-11.101;-16.801;-4.396
5784520.679;-34.757;-50.515;-47.311;-80.131;32.708;-10.692;-16.652;-3.278
5784520.687;-35.726;-54.128;-40.084;-81.956;40.121;-5.402;-13.635;5.737
5784520.695;-38.669;-54.426;-46.343;-80.094;35.912;-7.674;-16.652;4.433
5784520.703;-41.388;-64.634;-53.495;-84.527;31.590;-7.786;-18.366;6.221
5784520.711;-40.196;-61.058;-50.515;-87.470;37.700;-9.127;-21.346;2.868
5784520.719;-38.110;-54.091;-48.764;-78.455;28.349;-6.817;-19.521;1.974
5784520.727;-37.961;-53.160;-45.002;-78.119;22.985;-7.004;-21.048;-4.582
5784520.735;-31.218;-47.162;-41.537;-69.253;33.453;0.224;-11.548;-0.745
5784520.743;-28.014;-44.815;-40.866;-70.184;38.296;3.316;-6.333;0.820
5784520.751;-29.579;-44.182;-40.568;-67.391;34.049;4.694;-3.166;-1.453
5784520.759;-25.593;-40.829;-38.892;-59.940;38.892;8.494;1.267;8.047
5784520.767;-29.579;-44.666;-40.494;-67.540;26.859;-0.447;-5.104;7.674
5784520.775;-46.864;-62.659;-53.681;-79.833;10.878;-13.784;-16.056;-5.253
5784520.783;-49.844;-67.651;-58.301;-80.839;14.827;-14.119;-18.552;-0.633
5784520.791;-53.905;-70.222;-65.714;-88.774;9.015;-14.976;-23.916;-2.459
5784520.799;-48.690;-60.797;-65.416;-82.180;15.981;-4.917;-16.987;7.749
5784520.807;-46.603;-61.542;-52.936;-75.549;17.360;-3.874;-13.709;6.668
5784520.815;-43.400;-61.207;-49.248;-75.400;21.830;-9.723;-15.050;-1.267
5784520.823;-41.686;-60.052;-52.378;-69.514;23.134;-14.044;-18.403;-8.158
5784520.831;-37.774;-54.166;-51.819;-67.316;24.624;-16.913;-18.589;-12.890
5784520.839;-31.181;-40.978;-46.752;-64.112;28.685;-11.884;-10.356;-7.898
5784520.864;-38.184;-52.489;-48.764;-68.881;16.838;-19.670;-16.652;-18.962
5784520.872;-47.050;-66.236;-51.931;-76.853;8.531;-25.965;-24.028;-26.152
5784520.880;-43.884;-62.920;-48.205;-79.684;17.881;-22.873;-23.171;-22.203
5784520.888;-39.749;-52.191;-51.633;-72.010;25.630;-21.197;-25.146;-18.030
5784520.896;-51.372;-60.797;-64.857;-77.263;3.800;-27.940;-30.398;-26.785
5784520.904;-52.676;-66.906;-60.648;-78.566;2.906;-26.338;-28.610;-23.954
5784520.912;-47.870;-65.044;-57.444;-74.655;8.009;-22.203;-26.375;-16.056
5784520.920;-49.993;-67.838;-59.865;-79.051;6.631;-20.713;-26.152;-13.150
5784520.928;-50.962;-63.181;-62.138;-82.552;8.009;-23.916;-30.585;-19.036
5784520.936;-46.529;-62.808;-58.860;-77.151;11.809;-22.128;-27.195;-26.301
5784520.944;-38.967;-54.464;-47.311;-69.924;15.870;-14.491;-19.409;-18.962
5784520.952;-39.414;-55.060;-45.858;-68.210;16.317;-16.801;-19.521;-16.056
5784520.960;-46.678;-64.261;-52.415;-71.786;11.101;-18.850;-19.185;-24.997
5784520.968;-47.013;-59.046;-55.209;-72.122;8.307;-18.775;-20.601;-25.295
5784520.976;-46.566;-56.550;-58.748;-74.953;5.551;-19.297;-22.613;-22.650
5784520.984;-51.893;-67.316;-54.725;-80.615;6.892;-23.916;-28.983;-23.916
5784520.992;-49.435;-69.886;-51.260;-75.921;14.752;-22.985;-29.728;-22.613
5784521.000;-48.243;-66.720;-52.936;-74.916;10.245;-26.375;-32.373;-24.699
5784521.008;-51.484;-64.559;-61.356;-83.856;4.470;-31.888;-35.539;-28.647
5784521.016;-51.372;-65.267;-60.163;-78.492;4.508;-35.316;-39.041;-27.753
5784521.024;-54.203;-66.794;-59.791;-76.815;-4.023;-35.763;-40.047;-29.057
5784521.032;-52.266;-67.316;-56.587;-77.635;-0.820;-27.157;-33.565;-24.848
5784521.040;-53.942;-69.067;-58.599;-79.684;2.086;-27.604;-34.347;-27.865
5784521.048;-50.180;-60.387;-59.158;-73.761;3.688;-30.026;-37.216;-30.436
5784521.120;-54.836;-70.743;-56.848;-80.019;2.943;-37.961;-42.841;-37.737
5784521.128;-53.234;-70.333;-51.744;-80.131;-0.894;-39.078;-41.053;-38.594
5784521.136;-55.246;-67.092;-59.269;-84.154;-4.768;-43.660;-41.574;-45.374
5784521.144;-54.240;-68.769;-57.518;-83.447;-1.453;-39.972;-39.674;-40.419
5784521.152;-48.541;-63.740;-49.286;-75.027;10.729;-33.155;-37.998;-27.567
5784521.160;-46.007;-64.075;-44.890;-75.698;9.984;-34.980;-40.308;-28.424
5784521.168;-46.082;-66.385;-44.107;-77.821;3.241;-38.967;-41.574;-31.777
5784521.176;-53.346;-73.276;-56.513;-85.570;-1.453;-45.486;-45.970;-33.602
5784521.184;-53.868;-67.577;-59.456;-81.621;0.149;-44.666;-42.953;-36.135
5784521.192;-48.466;-61.765;-55.246;-75.214;2.123;-42.692;-39.600;-39.823
5784521.200;-45.523;-59.269;-50.366;-78.157;1.006;-35.278;-36.508;-30.436
5784521.208;-49.435;-61.095;-52.191;-83.074;-6.519;-28.722;-32.969;-22.575
5784521.216;-53.272;-60.424;-52.527;-84.341;-9.798;-32.112;-36.135;-25.630
5784521.224;-53.905;-65.714;-56.475;-89.668;-4.470;-34.124;-37.327;-25.891
5784521.232;-50.515;-58.450;-51.334;-82.105;9.201;-30.026;-31.963;-19.632
5784521.240;-52.005;-60.052;-48.801;-87.135;3.278;-43.958;-47.758;-38.110
5784521.248;-62.436;-73.761;-53.607;-99.353;-13.486;-54.836;-60.014;-47.572
5784521.256;-56.773;-63.367;-53.383;-89.370;-9.649;-51.819;-57.742;-41.649
5784521.264;-61.244;-71.600;-62.287;-95.218;-6.929;-55.246;-61.654;-43.847
5784521.272;-57.891;-66.459;-61.207;-86.352;-11.101;-51.372;-57.258;-42.915
5784521.280;-57.481;-66.794;-57.556;-86.017;-14.938;-43.102;-46.045;-38.147
5784521.288;-55.656;-60.983;-50.291;-87.768;-13.411;-38.035;-39.563;-36.135
5784521.296;-47.833;-52.191;-47.535;-80.280;-2.049;-28.834;-33.900;-29.020
5784521.304;-46.827;-56.103;-49.174;-83.186;-0.931;-26.450;-31.628;-29.393
5784521.298;-48.093;-57.928;-51.074;-79.572;-4.582;-35.278;-38.929;-32.596
5784521.306;-57.220;-67.055;-56.773;-82.701;-15.162;-53.421;-53.793;-40.680
5784521.314;-64.634;-70.892;-62.585;-96.560;-24.773;-66.683;-62.734;-52.750
5784521.322;-59.940;-64.485;-60.648;-91.754;-14.938;-61.616;-58.450;-50.180
5784521.330;-58.226;-68.173;-59.493;-88.513;-7.451;-51.036;-51.074;-44.852
5784521.338;-61.207;-70.445;-58.524;-89.854;-14.901;-43.921;-48.131;-39.935
5784521.346;-66.422;-71.861;-65.751;-93.207;-25.034;-41.984;-49.397;-39.451
5784521.354;-53.234;-56.624;-54.017;-81.286;-8.307;-29.840;-34.757;-30.324
5784521.362;-47.684;-53.011;-49.584;-76.815;-2.012;-29.802;-32.149;-33.192
5784521.370;-58.115;-67.018;-51.633;-87.656;-7.339;-40.904;-40.382;-44.927
5784521.378;-58.003;-65.826;-53.309;-88.103;-15.870;-39.786;-37.216;-40.606
5784521.386;-59.083;-68.098;-57.966;-87.284;-19.409;-36.433;-34.012;-32.298
5784521.394;-61.207;-71.451;-61.356;-87.358;-11.623;-38.259;-34.906;-32.857
5784521.402;-67.130;-74.767;-69.365;-91.866;-17.323;-40.419;-37.141;-39.972
5784521.410;-64.373;-69.626;-60.312;-93.430;-25.891;-39.823;-38.296;-43.474
5784521.418;-53.495;-53.681;-50.515;-84.490;-19.781;-30.510;-31.367;-36.024
5784521.426;-57.667;-66.571;-58.040;-83.856;-17.732;-27.567;-31.814;-33.565
5784521.434;-63.293;-75.251;-62.734;-89.556;-14.491;-34.422;-39.041;-43.027
5784521.442;-58.524;-71.861;-57.295;-85.011;-9.984;-33.379;-34.124;-42.096
5784521.450;-44.368;-49.770;-43.698;-74.506;-3.949;-33.230;-29.989;-39.227
5784521.458;-49.770;-56.140;-43.772;-75.325;-10.021;-42.394;-37.141;-42.208
5784521.466;-60.387;-67.912;-59.344;-81.547;-18.142;-47.944;-43.362;-42.468
5784521.474;-60.610;-69.588;-64.969;-86.166;-18.552;-41.500;-37.812;-35.949
5784521.482;-58.152;-65.155;-60.573;-84.490;-14.342;-37.141;-36.322;-34.273
5784521.490;-55.172;-63.032;-51.074;-79.274;-2.980;-32.820;-34.235;-31.479
5784521.498;-58.450;-66.794;-54.687;-88.662;-15.981;-35.465;-36.433;-37.625
5784521.506;-53.607;-62.846;-53.123;-73.798;-14.938;-29.802;-28.238;-33.751
5784521.514;-44.331;-49.174;-46.045;-62.734;-6.817;-25.965;-23.022;-31.292
5784521.510;-37.812;-44.592;-37.700;-63.144;0.969;-26.524;-24.438;-34.273
5784521.518;-43.996;-58.152;-43.884;-74.729;-5.923;-38.967;-36.061;-45.896
5784521.526;-40.643;-53.570;-42.617;-68.396;-6.445;-38.929;-34.012;-46.454
5784521.534;-40.233;-41.723;-39.414;-60.201;-3.129;-34.086;-29.579;-37.774
5784521.542;-40.531;-44.480;-40.494;-63.553;-1.937;-32.559;-28.983;-33.900
5784521.550;-37.141;-47.162;-39.004;-64.634;1.937;-21.979;-21.756;-21.681
5784521.558;-43.511;-55.544;-41.537;-73.053;-3.055;-15.199;-17.099;-14.231
5784521.566;-27.940;-34.198;-29.989;-50.291;-3.278;-17.211;-13.225;-21.867
5784521.574;-20.638;-22.277;-22.985;-40.941;-2.086;-21.011;-16.578;-28.312
5784521.582;-12.703;-14.417;-17.770;-24.065;2.868;-21.383;-15.348;-26.338
5784521.590;-4.508;-5.960;-7.153;-18.142;5.700;-22.650;-14.640;-28.275
5784521.598;-1.863;-4.284;-10.841;-14.417;6.519;-23.805;-16.615;-24.736
5784521.606;6.929;8.084;-3.241;-4.470;15.907;-16.876;-9.499;-16.987
5784521.614;8.158;5.066;0.969;-4.172;22.724;-12.293;-5.141;-19.632
5784521.622;12.070;8.158;4.694;-1.229;22.016;-7.302;-4.135;-16.913
5784521.630;5.625;-1.229;-0.298;-7.972;8.754;-8.009;-5.737;-16.689
5784521.638;1.192;-3.241;-5.327;-7.749;9.090;-13.039;-8.903;-23.656
5784521.646;1.527;2.943;-9.798;-6.445;10.952;-12.144;-7.451;-23.656
5784521.654;0.447;0.112;-13.299;-10.021;10.878;-9.723;-4.396;-28.983
5784521.662;-5.737;-8.903;-13.374;-12.964;1.527;-9.872;-9.127;-29.206
5784521.670;-12.219;-15.572;-19.819;-25.108;-5.960;-10.878;-13.635;-26.561
5784521.678;-15.162;-20.936;-24.959;-27.679;-11.213;-15.646;-17.881;-22.277
5784521.686;-18.515;-25.034;-23.283;-27.977;-3.986;-28.610;-25.034;-22.911
5784521.694;-15.832;-18.403;-26.003;-31.069;-2.719;-32.224;-20.750;-21.979
5784521.676;-9.909;-12.890;-21.271;-20.973;-6.817;-25.071;-5.104;-19.558
5784521.684;-6.966;-9.872;-14.864;-16.503;-5.960;-23.544;-0.186;-21.085
5784521.692;-12.182;-17.621;-16.093;-15.646;2.272;-24.773;-4.694;-27.902
5784521.700;-11.772;-17.621;-18.924;-15.125;2.719;-21.383;-7.823;-24.103
5784521.708;-6.594;-10.021;-15.721;-17.658;5.811;-13.784;-4.359;-17.025
5784521.716;-10.505;-13.709;-24.140;-24.401;-8.494;-14.417;-7.227;-15.832
5784521.724;-7.339;-7.749;-15.646;-13.560;-1.825;-11.362;-6.668;-11.660
5784521.732;0.522;-2.533;-0.484;0.671;9.350;-14.715;-13.001;-18.626
5784521.740;1.341;-4.768;-6.147;2.049;3.316;-14.491;-12.778;-22.165
5784521.748;3.614;-1.453;-9.984;-4.843;3.837;-3.278;-2.123;-9.201
5784521.756;-0.559;-2.310;-12.517;-15.423;-0.075;-4.657;-1.341;-13.821
5784521.764;7.525;3.166;0.894;-1.304;10.431;-2.496;0.410;-15.385
5784521.772;13.039;9.760;10.282;9.201;13.299;3.390;6.035;-7.413
5784521.780;8.643;5.215;0.522;4.210;5.923;4.657;9.164;-3.316
5784521.788;-5.998;-11.958;-16.466;-11.064;-10.729;1.378;5.178;-9.127
5784521.796;-16.391;-26.636;-24.289;-28.908;-8.196;-4.470;-5.253;-14.454
5784521.804;-12.033;-16.280;-20.377;-25.667;-4.880;-4.768;-8.121;-14.529
5784521.812;-10.133;-12.107;-12.070;-20.117;-8.494;-1.527;-5.886;-8.792
5784521.820;-15.385;-16.131;-20.042;-20.452;-11.213;-6.333;-7.972;-14.454
5784521.828;-14.603;-15.907;-24.103;-17.360;-14.119;-7.302;-8.233;-12.107
5784521.836;-7.935;-12.293;-17.956;-17.919;-8.643;-6.370;-8.903;2.794
5784521.844;-12.182;-21.718;-14.976;-25.071;-5.625;-20.713;-22.985;-19.185
5784521.852;-10.021;-14.864;-13.523;-22.165;-10.021;-22.203;-23.507;-26.934
5784521.860;-9.090;-14.268;-16.093;-16.131;-11.958;-19.111;-22.501;-21.011
5784521.840;-8.605;-10.245;-13.150;-13.821;-5.215;-13.299;-14.976;-12.591
5784521.848;-11.399;-14.789;-16.876;-21.979;-7.264;-8.866;-8.494;-3.465
5784521.856;-27.902;-35.577;-31.628;-39.078;-22.724;-22.240;-20.079;-16.950
5784521.864;-30.175;-37.774;-30.026;-38.482;-33.118;-31.218;-27.269;-27.791
5784521.872;-27.418;-37.886;-24.475;-38.855;-24.624;-30.845;-27.679;-25.146
5784521.880;-16.987;-26.152;-15.423;-29.728;-9.350;-28.126;-26.003;-24.997
5784521.888;-9.164;-17.844;-9.872;-22.128;-1.825;-22.836;-23.469;-20.415
5784521.896;-17.360;-25.518;-15.497;-36.694;-13.374;-23.879;-28.238;-17.993
5784521.904;-21.793;-31.404;-19.297;-38.929;-16.950;-24.550;-30.175;-16.764
5784521.912;-13.523;-22.240;-13.374;-23.507;-14.380;-16.093;-20.377;-11.809
5784521.920;-8.494;-12.293;-7.376;-12.815;-7.227;-12.144;-13.821;-11.884
5784521.928;-12.107;-15.348;-13.337;-25.108;-10.319;-11.437;-8.531;-16.317
5784521.936;-16.429;-21.905;-17.658;-30.920;-11.548;-10.543;-5.104;-15.050
5784521.944;-20.340;-17.956;-22.687;-27.604;-27.530;-14.678;-10.468;-15.646
5784521.952;-9.835;-9.947;-8.680;-17.658;-12.964;-9.201;-7.339;-5.066
5784521.960;-9.723;-12.182;-5.998;-18.887;-4.210;-19.036;-16.876;-10.617
5784521.968;-12.666;-16.354;-12.219;-25.369;-15.125;-31.292;-33.155;-25.146
5784521.976;-9.052;-16.168;-7.302;-28.312;-15.236;-29.653;-37.253;-24.922
5784521.984;-5.364;-10.021;-5.215;-25.928;-13.672;-28.387;-39.078;-22.799
5784521.992;-8.605;-9.350;-6.780;-24.475;-11.027;-33.937;-41.686;-31.926
5784522.000;-7.041;-12.144;-0.261;-20.973;-5.923;-35.688;-38.706;-37.663
5784522.008;-8.829;-12.554;-3.912;-18.105;-10.245;-25.779;-25.220;-30.100
5784522.016;-16.131;-17.211;-16.391;-30.622;-14.640;-19.595;-14.789;-25.928
5784522.024;-20.862;-21.197;-19.558;-35.055;-20.824;-23.991;-17.881;-29.542
5784522.050;-20.713;-21.122;-17.993;-33.118;-18.924;-24.922;-19.372;-26.189
5784522.058;-21.867;-20.526;-21.867;-33.528;-28.051;-22.687;-18.850;-21.383
5784522.066;-20.079;-19.744;-18.701;-31.069;-26.599;-22.538;-21.979;-20.042
5784522.074;-11.176;-7.860;-13.597;-23.320;-8.829;-16.801;-21.085;-13.672
5784522.082;-8.345;-6.072;-5.513;-18.701;-0.745;-15.721;-23.916;-12.182
5784522.090;-14.529;-16.354;-12.219;-28.089;-17.062;-19.744;-26.822;-17.174
5784522.098;-15.460;-20.228;-15.534;-28.573;-20.377;-20.117;-25.742;-18.924
5784522.106;-13.672;-15.572;-8.345;-27.306;-13.150;-23.209;-26.412;-24.438
5784522.114;-9.611;-6.109;-7.637;-24.885;-12.927;-22.501;-21.905;-26.003
5784522.122;-5.849;-1.825;-4.694;-18.515;-7.302;-15.199;-12.666;-19.930
5784522.130;-8.903;-12.107;-9.872;-20.377;-7.078;-12.927;-11.548;-15.832
5784522.138;-15.534;-18.105;-18.664;-26.375;-15.646;-14.119;-14.529;-16.578
5784522.146;-11.735;-11.325;-14.603;-27.642;-15.385;-8.866;-10.952;-2.421
5784522.154;-17.136;-13.635;-17.136;-29.169;-16.578;-11.176;-14.454;-1.229
5784522.162;-22.016;-20.042;-17.397;-32.820;-21.346;-13.672;-15.944;-8.903
5784522.170;-20.862;-21.569;-18.664;-29.504;-14.678;-11.995;-13.672;-8.158
5784522.178;-13.672;-18.142;-8.605;-28.685;-3.688;-11.288;-12.666;-8.419
5784522.186;-4.806;-12.666;8.196;-33.155;9.313;-13.039;-12.368;-13.821
5784522.194;18.254;13.337;34.459;-11.213;29.691;-10.431;-7.190;-17.658
5784522.202;69.477;65.267;92.722;37.737;75.586;0.224;4.508;-12.740
5784522.210;114.664;111.572;140.220;80.168;102.036;8.121;14.044;-5.625
5784522.218;157.319;159.889;178.814;128.858;131.465;10.617;12.293;4.023
5784522.226;176.989;184.998;199.601;156.052;141.971;2.012;0.894;-2.980
5784522.234;192.076;207.946;213.310;179.112;137.538;-4.247;-3.949;-8.829
5784522.201;210.106;225.380;230.186;209.771;143.126;4.917;5.066;-5.215
5784522.209;221.655;239.573;242.554;231.564;142.045;10.096;9.574;0.037
5784522.217;228.286;246.316;245.608;241.213;144.616;24.475;26.524;11.288
5784522.225;218.339;235.736;228.956;236.593;123.717;25.854;29.542;9.313
5784522.233;204.891;230.372;206.679;231.601;96.262;24.363;30.212;2.831
5784522.241;176.243;203.811;173.002;212.267;68.732;15.534;24.438;-5.215
5784522.249;149.347;174.344;147.596;188.462;37.737;17.025;25.071;-2.161
5784522.257;126.921;154.190;120.960;171.438;13.895;22.724;28.834;7.562
5784522.265;91.158;112.280;82.143;136.383;-14.901;16.205;18.887;6.966
5784522.273;69.328;90.636;55.954;118.017;-36.731;10.505;10.952;5.551
5784522.281;59.828;85.197;42.804;106.953;-44.517;5.104;3.502;7.227
5784522.289;47.311;72.047;28.610;98.795;-49.099;-0.931;-1.714;8.568
5784522.297;39.563;62.808;28.312;89.332;-54.389;0.037;3.390;9.276
5784522.305;27.791;47.460;17.248;76.182;-66.236;-1.527;5.960;-0.335
5784522.313;28.089;46.082;8.270;79.796;-67.167;6.929;15.423;0.633
5784522.321;33.043;51.670;10.245;86.278;-61.244;20.415;28.759;3.949
5784522.329;27.083;44.629;5.253;79.498;-64.857;20.638;30.063;-0.559
5784522.337;18.366;37.663;1.192;73.984;-75.065;16.652;22.091;-0.671
5784522.345;9.388;25.965;-6.780;62.399;-83.260;11.474;11.213;-3.278
5784522.353;8.941;25.965;-12.107;57.705;-85.197;9.723;7.227;-4.247
5784522.361;-2.086;11.846;-27.940;48.503;-94.324;2.794;2.794;-7.562
5784522.369;-10.841;7.451;-36.359;46.492;-98.273;-5.662;-1.974;-8.680
5784522.377;-15.870;3.316;-41.462;44.927;-106.134;-4.843;5.029;-7.264
5784522.385;-14.193;7.376;-36.508;48.429;-106.171;-2.235;14.007;-4.955
5784522.380;-10.543;13.113;-26.263;51.521;-94.585;2.906;23.544;-3.204
5784522.388;-19.260;-0.894;-36.284;40.382;-100.359;5.513;24.363;-8.456
5784522.396;-25.146;-11.399;-48.205;28.163;-103.712;13.970;24.885;0.000
5784522.404;-27.977;-13.784;-47.423;28.163;-106.767;18.440;27.008;5.476
5784522.412;-29.169;-9.015;-51.446;30.696;-109.412;16.987;23.730;2.868
5784522.420;-31.106;-9.649;-49.807;26.971;-110.455;13.374;18.515;-0.708
5784522.428;-23.469;-7.823;-36.284;32.820;-102.334;19.744;21.867;7.264
5784522.436;-18.589;-3.241;-36.620;33.751;-94.101;25.295;25.816;18.105
5784522.444;-26.710;-8.494;-46.231;26.077;-99.801;17.658;21.085;10.729
5784522.452;-34.496;-18.477;-53.905;24.661;-105.388;12.182;15.795;2.943
5784522.460;-32.037;-15.311;-47.795;26.375;-102.557;13.597;18.775;5.439
5784522.468;-28.126;-11.288;-40.196;30.436;-98.273;17.285;24.252;13.113
5784522.476;-34.794;-17.397;-46.156;24.438;-111.572;11.921;19.185;0.075
5784522.484;-46.454;-31.590;-64.783;14.044;-115.484;-3.502;2.459;-14.640
5784522.492;-41.723;-28.759;-58.711;15.460;-103.153;0.000;4.955;-5.588
5784522.500;-48.913;-36.247;-58.897;6.519;-107.698;-0.335;5.476;-1.118
5784522.508;-56.922;-42.208;-67.800;-7.153;-117.682;-8.717;0.596;-10.021
5784522.516;-49.360;-32.522;-62.957;3.725;-113.957;-7.562;2.980;-8.456
5784522.524;-34.943;-18.068;-51.521;22.314;-106.059;-9.201;2.086;-7.823
5784522.532;-19.632;-7.302;-39.488;39.451;-92.797;-7.488;3.166;-3.241
5784522.540;-22.687;-11.921;-34.533;33.453;-86.017;-14.193;-3.241;-6.333
5784522.548;-23.171;-11.995;-28.126;21.495;-89.370;-23.805;-11.809;-15.087
5784522.556;-21.905;-12.927;-26.226;21.905;-94.734;-25.369;-13.411;-20.601
5784522.564;-16.280;-4.135;-26.599;35.763;-86.501;-12.778;0.224;-8.605
5784522.559;-21.048;-7.898;-36.880;35.390;-86.911;-14.715;-1.118;-8.419
5784522.567;-27.157;-15.795;-40.494;27.977;-86.948;-17.658;-4.172;-19.409
5784522.575;-30.063;-21.085;-36.918;18.403;-90.636;-15.236;-3.651;-21.234
5784522.583;-27.046;-12.703;-32.671;23.767;-92.164;-13.076;-3.166;-17.732
5784522.591;-28.498;-14.603;-33.714;25.593;-95.479;-11.325;-1.341;-14.529
5784522.599;-37.067;-26.338;-49.248;9.090;-95.665;-15.572;-7.525;-22.240
5784522.607;-39.712;-31.479;-52.340;13.001;-93.877;-17.099;-12.368;-21.644
5784522.615;-34.273;-25.965;-37.067;19.521;-81.956;-9.052;-6.333;-10.543
5784522.623;-30.324;-17.509;-31.702;23.171;-84.750;-8.680;-4.880;-7.823
5784522.631;-31.628;-17.919;-31.292;21.271;-85.719;-16.913;-7.972;-13.821
5784522.639;-38.892;-28.983;-43.325;13.039;-86.278;-27.828;-16.242;-24.438
5784522.647;-32.447;-25.518;-40.717;13.188;-79.572;-24.363;-9.611;-15.236
5784522.655;-22.016;-10.766;-30.175;29.355;-79.013;-16.913;-0.149;-6.445
5784522.663;-17.099;-8.196;-19.744;40.010;-76.853;-25.779;-9.425;-19.148
5784522.671;-11.995;-2.421;-10.952;40.941;-65.565;-25.220;-10.580;-18.962
5784522.679;-11.921;2.347;-16.354;32.596;-63.181;-22.314;-8.643;-15.497
5784522.687;-5.662;11.027;-6.668;44.778;-64.895;-12.778;-1.453;-7.525
5784522.695;-10.319;0.969;-10.841;41.015;-70.184;-8.680;1.118;-6.557
5784522.703;-20.042;-7.898;-20.824;27.642;-71.973;-10.803;-3.017;-5.886
5784522.711;-17.881;-4.135;-16.205;29.951;-68.247;-8.531;1.006;-2.943
5784522.719;-16.838;2.757;-14.715;33.416;-72.494;-10.133;1.006;-9.499
5784522.727;-11.250;10.058;-14.827;43.325;-68.247;-0.075;10.915;-1.490
5784522.735;-13.448;3.502;-9.462;35.539;-72.084;6.855;11.995;-0.745
5784522.743;-7.004;7.525;-8.754;36.471;-66.161;22.799;24.103;11.288
5784522.771;-5.327;10.505;-6.445;38.669;-60.871;28.983;28.908;11.064
5784522.779;-12.405;3.763;-8.121;35.092;-67.763;26.077;25.965;7.749
5784522.787;-12.480;4.694;-14.491;34.831;-70.296;22.165;23.283;6.482
5784522.795;-13.486;2.906;-12.033;34.645;-74.208;11.697;17.099;1.714
5784522.803;-11.958;6.892;-14.491;29.467;-65.528;6.407;13.635;0.559
5784522.811;-12.927;3.427;-14.417;33.304;-64.336;10.096;17.025;8.382
5784522.819;-18.813;-1.974;-23.730;33.155;-70.967;4.880;12.033;6.519
5784522.827;-18.105;-1.490;-21.979;28.275;-74.990;2.608;9.798;0.559
5784522.835;-21.197;-6.706;-24.959;19.632;-76.629;1.080;9.984;-1.490
5784522.843;-20.489;-8.307;-26.412;23.954;-73.761;-0.224;8.978;1.714
5784522.851;-21.197;-1.676;-26.710;26.301;-74.320;-0.931;7.004;-1.118
5784522.859;-21.532;-1.751;-26.636;23.767;-79.870;-1.714;4.135;-3.241
5784522.867;-29.504;-11.399;-30.957;15.385;-86.352;-5.178;1.676;-10.505
5784522.875;-30.994;-16.615;-36.135;11.846;-83.633;-5.662;1.639;-14.566
5784522.883;-27.902;-15.572;-37.700;13.672;-78.753;-3.763;2.943;-13.672
5784522.891;-20.564;-8.084;-30.026;18.552;-71.004;-2.384;3.129;-11.362
5784522.899;-26.040;-5.290;-29.802;13.523;-80.168;-11.623;-9.686;-12.815
5784522.907;-28.796;-7.451;-35.390;15.162;-81.882;-18.328;-16.987;-16.838
5784522.915;-27.679;-14.268;-32.559;14.901;-78.715;-15.385;-14.901;-13.560
5784522.923;-30.585;-20.750;-36.769;7.600;-77.561;-13.374;-13.486;-11.437
5784522.931;-34.720;-18.142;-39.823;9.574;-81.435;-9.611;-5.998;-9.201
5784522.939;-27.753;-9.313;-36.135;15.460;-80.615;-6.482;-0.112;-8.307
5784522.947;-27.083;-8.196;-34.422;12.927;-76.331;-9.201;-2.533;-11.176
5784522.955;-36.433;-18.291;-39.190;7.264;-83.223;-12.964;-5.178;-19.670
5784522.951;-34.533;-21.011;-35.763;8.605;-76.629;-11.548;-6.594;-15.683
5784522.959;-29.355;-12.666;-36.433;12.629;-72.084;-11.027;-6.594;-11.362
5784522.967;-19.819;-9.723;-28.089;20.936;-68.210;-5.811;-0.857;-3.763
5784522.975;-24.252;-13.635;-31.181;15.460;-69.030;-9.313;-7.078;-7.600
5784522.983;-31.218;-15.274;-35.986;6.333;-76.666;-21.644;-23.954;-21.271
5784522.991;-27.195;-13.076;-32.447;7.972;-70.892;-20.415;-23.618;-20.713
5784522.999;-23.395;-10.431;-25.369;14.938;-67.689;-14.938;-16.429;-15.907
5784523.007;-22.016;-9.574;-27.493;15.944;-66.012;-8.941;-7.190;-10.170
5784523.015;-22.948;-9.462;-31.441;15.348;-67.428;-11.064;-7.227;-12.219
5784523.023;-23.656;-14.007;-33.788;8.605;-68.992;-16.503;-11.027;-19.707
5784523.031;-23.544;-13.821;-29.057;9.015;-67.726;-24.512;-19.372;-27.642
5784523.039;-20.154;-3.166;-27.493;22.613;-64.149;-23.991;-19.521;-22.389
5784523.047;-24.177;-9.574;-25.965;18.775;-63.777;-23.693;-14.417;-25.295
5784523.055;-19.819;-6.296;-28.796;19.260;-63.255;-23.246;-14.044;-23.209
5784523.063;-20.638;-10.245;-30.510;13.784;-66.236;-25.630;-19.670;-20.303
5784523.071;-22.203;-8.643;-27.642;11.474;-65.044;-29.430;-26.412;-19.446
5784523.079;-20.042;-6.780;-26.822;20.005;-64.634;-28.349;-23.320;-19.595
5784523.087;-21.905;-11.362;-26.524;20.079;-63.255;-29.244;-24.773;-21.830
5784523.095;-23.916;-11.437;-25.183;18.664;-57.481;-25.406;-22.165;-18.738
5784523.103;-24.848;-15.385;-27.679;12.070;-58.375;-21.271;-14.938;-16.578
5784523.111;-20.973;-9.425;-28.498;17.844;-54.315;-16.354;-9.947;-9.090
5784523.119;-27.902;-15.572;-31.702;16.838;-63.740;-22.128;-15.125;-19.073
5784523.127;-26.971;-17.993;-28.834;10.841;-63.218;-24.401;-15.870;-25.667
5784523.135;-10.356;-2.049;-13.448;23.283;-42.804;-12.703;-5.811;-15.311
5784523.143;-16.466;-4.321;-21.569;23.656;-53.383;-17.025;-9.798;-22.277
5784523.151;-26.748;-12.890;-30.808;17.174;-62.510;-24.810;-14.640;-30.585
5784523.159;-30.361;-17.397;-35.428;8.568;-60.908;-26.040;-16.205;-28.275
5784523.167;-34.869;-27.418;-37.849;-0.857;-60.461;-23.544;-13.150;-24.401
5784523.148;-31.926;-23.432;-32.932;5.439;-54.799;-18.068;-5.029;-19.558
5784523.156;-38.445;-25.369;-37.998;4.731;-65.230;-25.295;-15.423;-27.455
5784523.164;-39.823;-23.618;-41.500;1.043;-72.122;-31.851;-25.369;-31.255
5784523.172;-35.949;-24.773;-35.614;-2.608;-64.634;-29.169;-23.618;-24.214
5784523.180;-30.026;-22.277;-27.381;6.035;-48.950;-19.521;-15.572;-14.827
5784523.188;-27.493;-18.664;-27.679;7.637;-45.113;-16.093;-10.915;-15.683
5784523.196;-21.569;-8.494;-22.128;17.583;-49.211;-15.199;-10.729;-18.179
5784523.204;-29.095;-18.254;-32.037;7.972;-63.404;-18.477;-12.293;-22.464
5784523.212;-28.573;-18.813;-30.771;7.302;-61.952;-20.526;-11.995;-23.395
5784523.220;-26.785;-20.824;-22.687;10.543;-48.429;-15.348;-7.637;-16.354
5784523.228;-22.203;-15.236;-22.128;10.617;-43.325;-11.735;-4.433;-16.168
5784523.236;-20.675;-9.164;-23.991;11.325;-48.988;-13.076;-11.772;-19.856
5784523.244;-25.779;-17.025;-24.997;6.929;-57.854;-14.789;-16.503;-15.832
5784523.252;-36.620;-30.138;-32.447;-1.900;-64.485;-19.409;-18.887;-20.340
5784523.260;-34.571;-26.450;-32.485;0.410;-56.811;-12.629;-11.362;-12.554
5784523.268;-26.748;-14.789;-24.922;6.855;-46.268;-7.339;-4.023;-9.723
5784523.276;-26.077;-15.162;-21.644;8.866;-49.099;-10.878;-4.210;-18.887
5784523.284;-32.522;-22.948;-28.126;6.892;-58.264;-17.881;-8.456;-26.338
5784523.292;-36.508;-29.430;-32.857;-2.421;-56.736;-17.695;-11.288;-20.750
5784523.300;-42.580;-35.763;-36.247;-10.952;-56.699;-16.727;-10.878;-17.621
5784523.308;-44.666;-37.812;-34.794;-13.709;-53.160;-17.211;-9.686;-20.303
5784523.316;-37.737;-26.375;-29.355;-5.886;-50.180;-19.670;-13.746;-21.458
5784523.324;-35.763;-24.997;-30.845;-3.427;-50.403;-28.051;-23.209;-27.046
5784523.332;-36.061;-29.840;-27.046;-1.080;-48.019;-25.705;-22.613;-23.879
5784523.324;-35.651;-34.869;-28.722;-4.880;-51.521;-20.750;-21.569;-16.168
5784523.332;-34.124;-36.173;-29.430;-3.986;-51.670;-14.380;-13.821;-12.480
5784523.340;-35.539;-24.997;-30.473;-8.084;-56.066;-8.978;-5.215;-16.429
5784523.348;-34.533;-25.295;-27.455;-6.109;-50.813;-4.657;1.080;-14.901
5784523.356;-27.679;-23.991;-18.701;-8.345;-34.235;-15.348;-9.164;-20.675
5784523.364;-39.786;-42.990;-29.132;-27.902;-39.190;-27.232;-23.358;-28.685
5784523.372;-42.729;-44.294;-28.536;-37.029;-38.408;-33.751;-29.057;-35.688
5784523.380;-45.188;-48.392;-24.252;-49.584;-31.926;-40.866;-36.843;-38.259
5784523.388;-36.359;-35.726;-9.276;-45.635;-12.890;-41.053;-40.568;-32.298
5784523.396;-27.046;-29.877;-2.384;-42.468;5.141;-36.508;-36.955;-30.622
5784523.404;-34.682;-38.855;-10.915;-50.738;-0.820;-34.124;-38.669;-31.963
5784523.412;-33.453;-35.688;-5.737;-54.725;-5.290;-31.739;-34.906;-33.192
5784523.420;-29.132;-29.579;5.923;-50.254;2.086;-31.218;-30.138;-36.620
5784523.428;-27.604;-28.983;0.224;-49.099;10.952;-39.041;-36.769;-40.084
5784523.436;-26.114;-30.994;1.118;-42.170;10.319;-37.961;-36.806;-37.327
5784523.444;-28.796;-32.857;1.751;-46.119;1.155;-33.826;-34.943;-33.788
5784523.452;-24.214;-22.203;10.692;-42.841;3.166;-25.146;-31.851;-30.436
5784523.460;-21.085;-18.850;6.296;-39.302;11.697;-15.162;-24.103;-28.238
5784523.468;-25.705;-26.412;1.155;-36.247;5.104;-5.700;-16.093;-21.979
5784523.476;-31.330;-30.212;-7.749;-43.958;-3.614;-5.998;-16.950;-28.983
5784523.484;-27.008;-27.902;4.098;-46.790;-0.075;0.708;-11.437;-19.334
5784523.492;-20.489;-19.670;10.617;-37.067;9.723;8.158;-5.141;2.012
5784523.500;-15.721;-16.242;12.517;-30.063;14.082;8.568;-0.633;13.709
5784523.508;-19.521;-22.389;3.949;-36.508;2.980;-11.809;-14.789;-5.066
5784523.505;-20.899;-25.779;9.909;-36.284;2.347;-26.561;-23.395;-17.099
5784523.513;-17.099;-16.317;13.746;-33.639;7.190;-32.559;-26.934;-19.260
5784523.521;-12.144;-13.523;10.729;-34.980;11.250;-30.287;-24.438;-21.122
5784523.529;-13.001;-14.976;9.499;-33.751;15.646;-25.146;-16.913;-22.464
5784523.537;-18.179;-16.168;1.118;-34.347;5.141;-29.542;-22.128;-30.287
5784523.545;-22.985;-25.779;6.445;-37.253;2.347;-29.132;-23.581;-26.636
5784523.553;-22.836;-20.340;8.494;-43.623;1.602;-25.071;-19.595;-17.472
5784523.561;-19.036;-15.087;4.321;-40.382;16.391;-21.532;-18.701;-16.429
5784523.569;-31.926;-32.671;-6.966;-43.735;3.465;-23.283;-24.326;-18.850
5784523.577;-35.353;-39.861;-7.115;-50.180;-2.980;-22.203;-24.140;-16.876
5784523.585;-32.149;-29.840;-3.651;-48.243;-1.788;-18.552;-18.924;-12.554
5784523.593;-20.228;-13.746;8.978;-38.706;7.078;-11.474;-10.990;-7.823
5784523.601;-18.403;-11.437;7.451;-31.926;13.635;-12.554;-8.754;-13.672
5784523.609;-21.048;-22.091;1.751;-35.986;4.806;-21.122;-13.225;-25.108
5784523.617;-18.254;-24.959;2.310;-38.035;4.880;-25.183;-17.844;-25.071
5784523.625;-18.850;-20.638;8.829;-42.506;6.929;-25.667;-19.222;-25.369
5784523.633;-21.309;-22.314;7.339;-42.655;6.072;-25.481;-17.509;-24.699
5784523.641;-18.477;-20.489;7.041;-29.728;7.562;-20.042;-9.462;-18.254
5784523.649;-35.167;-34.906;-14.640;-44.629;-6.594;-28.051;-19.707;-29.430
5784523.657;-38.594;-41.872;-9.164;-55.097;-4.433;-24.289;-22.613;-22.538
5784523.665;-32.596;-29.579;-2.682;-49.472;-1.825;-21.420;-20.899;-14.789
5784523.673;-33.379;-28.610;-9.835;-46.529;-7.041;-31.218;-28.424;-26.040
5784523.681;-32.187;-33.453;-8.047;-40.904;-10.282;-33.937;-29.020;-31.292
5784523.689;-29.504;-31.255;-4.321;-39.339;-0.075;-30.920;-25.593;-29.728
5784523.684;-25.257;-23.581;2.868;-42.990;7.786;-29.467;-23.469;-28.126
5784523.692;-21.309;-18.626;4.694;-38.296;7.749;-26.524;-20.303;-28.908
5784523.700;-22.911;-24.475;0.410;-37.812;4.061;-31.143;-25.146;-35.539
5784523.708;-20.340;-26.785;4.619;-31.739;4.657;-33.826;-29.653;-36.173
5784523.716;-21.271;-22.799;4.172;-39.823;9.611;-38.818;-34.608;-37.402
5784523.724;-23.916;-23.544;5.327;-40.233;2.980;-43.213;-38.520;-39.637
5784523.732;-28.573;-27.940;-4.321;-44.517;-6.929;-41.015;-36.135;-36.880
5784523.740;-36.731;-40.382;-16.727;-47.050;-11.884;-42.319;-39.414;-37.961
5784523.748;-33.453;-36.657;-10.915;-43.549;-3.986;-36.135;-34.720;-28.834
5784523.756;-33.528;-34.161;-9.872;-47.795;-1.043;-28.163;-28.647;-26.748
5784523.764;-34.682;-38.445;-7.413;-51.446;-10.170;-26.673;-30.175;-24.773
5784523.772;-32.857;-35.763;-9.909;-50.142;-19.148;-25.705;-28.387;-23.209
5784523.780;-29.542;-29.430;-11.027;-36.955;-5.774;-25.481;-25.034;-23.395
5784523.788;-24.103;-24.028;-5.588;-28.610;4.992;-24.512;-19.819;-28.647
5784523.796;-19.893;-23.171;2.980;-31.814;7.749;-21.160;-12.554;-30.622
5784523.804;-22.277;-24.438;5.066;-36.024;0.522;-19.893;-10.356;-27.940
5784523.812;-26.040;-27.865;-5.476;-42.394;-7.488;-15.907;-6.817;-21.830
5784523.820;-25.854;-26.859;-9.350;-34.049;-2.235;-15.348;-9.723;-22.724
5784523.828;-23.358;-24.512;-8.233;-22.873;-7.376;-14.305;-12.293;-19.893
5784523.836;-16.466;-15.683;1.676;-13.262;-21.420;-8.233;-6.221;-11.548
5784523.844;-6.668;-1.602;11.474;5.104;-19.595;-8.568;-6.519;-6.445
5784523.852;-6.892;6.258;0.708;9.984;-29.579;-17.546;-13.709;-11.288
5784523.860;6.668;15.683;14.231;29.057;-24.699;-14.603;-6.817;-10.692
5784523.868;18.775;25.332;20.750;50.552;-21.309;-5.327;6.892;-0.335
5784523.880;18.962;23.916;21.346;45.486;-23.432;-2.645;12.778;1.676
5784523.888;26.524;29.132;33.565;52.191;-14.678;4.135;18.328;0.969
5784523.896;15.832;24.773;25.779;45.113;-24.810;0.671;8.568;-2.906
5784523.904;13.113;18.068;20.638;36.769;-26.263;-5.290;2.533;-11.437
5784523.912;14.305;17.136;19.670;36.582;-19.744;-6.035;3.241;-12.293
5784523.920;8.047;13.635;15.311;34.720;-26.152;-1.378;9.052;-4.694
5784523.928;6.929;9.052;14.827;32.037;-31.777;5.104;13.821;2.459
5784523.936;3.278;5.662;13.597;28.014;-35.837;4.955;6.407;-4.731
5784523.944;1.788;8.829;9.425;28.759;-34.682;14.044;11.586;1.378
5784523.952;-5.253;-1.602;0.522;19.781;-35.577;17.509;11.697;3.912
5784523.960;-7.078;-4.508;0.075;15.944;-35.278;17.323;15.385;5.029
5784523.968;-7.227;-6.407;-0.596;22.016;-43.735;9.835;16.056;-1.565
5784523.976;-8.903;-9.239;2.161;23.060;-39.153;2.831;17.919;-7.860
5784523.984;-2.608;1.341;9.127;21.048;-33.267;3.502;27.306;-5.849
5784523.992;-1.937;2.682;5.029;21.607;-35.353;1.192;25.705;-3.204
5784524.000;6.519;6.258;13.448;25.406;-22.240;5.476;25.816;-0.037
5784524.008;3.763;2.608;10.468;27.008;-26.710;-0.559;14.603;-7.153
5784524.016;-2.347;-6.407;10.505;19.111;-31.702;0.596;10.021;-4.135
5784524.024;-0.894;-2.906;13.448;14.156;-22.128;-4.433;0.335;-6.370
5784524.032;-0.484;1.080;11.548;17.881;-20.526;-7.302;-4.657;-6.631
5784524.040;-5.402;-3.278;6.296;12.107;-28.349;-0.820;2.421;-4.284
5784524.048;-3.912;-3.725;2.906;13.746;-34.235;7.153;10.207;-0.149
5784524.056;1.453;-2.347;10.394;24.438;-34.273;9.909;13.597;-0.037
5784524.064;11.064;8.456;22.613;29.132;-25.630;17.434;22.985;5.029
5784524.092;10.133;14.156;17.248;30.920;-16.056;15.423;23.507;3.092
5784524.100;4.433;3.986;10.803;26.785;-19.893;14.044;20.675;3.278
5784524.108;6.184;2.310;15.125;26.971;-24.289;18.179;21.532;8.009
5784524.116;1.416;-1.416;12.517;19.483;-33.341;12.852;16.317;2.459
5784524.124;-4.843;-6.855;8.903;12.666;-30.622;3.837;7.600;-2.049
5784524.132;-1.974;1.155;8.531;13.933;-27.046;3.949;6.035;-0.633
5784524.140;1.974;8.978;9.872;17.360;-25.183;5.700;6.706;2.384
5784524.148;2.533;3.055;12.331;20.452;-28.461;6.147;5.290;7.749
5784524.156;0.857;1.900;13.895;20.415;-26.822;5.849;6.035;9.052
5784524.164;-7.823;-6.929;8.456;8.531;-34.608;2.310;4.880;2.831
5784524.172;-8.754;-4.806;8.680;5.551;-31.143;3.949;8.568;2.123
5784524.180;-2.012;5.253;12.927;14.231;-25.183;5.700;10.319;4.768
5784524.188;-2.533;5.513;13.337;18.403;-25.034;1.006;5.290;1.155
5784524.196;4.806;8.531;18.999;21.867;-18.366;5.662;9.127;10.878
5784524.204;1.788;4.470;18.962;18.030;-26.524;4.210;8.717;3.017
5784524.212;-3.837;-1.676;10.543;5.476;-27.604;1.043;4.098;0.782
5784524.220;-9.611;-3.204;4.359;1.639;-33.751;4.992;9.313;4.582
5784524.228;-10.021;-2.570;5.178;6.333;-32.485;8.531;16.838;7.562
5784524.236;-6.296;4.321;6.892;10.170;-25.854;12.964;20.713;10.021
5784524.244;-7.413;-4.917;6.743;6.966;-27.716;11.139;15.162;9.499
5784524.252;-8.941;-5.029;7.711;5.104;-29.355;3.129;5.402;3.092
5784524.260;-5.513;2.235;10.133;11.586;-29.765;3.874;7.078;3.204
5784524.268;-3.241;7.600;6.296;12.480;-27.642;2.459;8.345;2.272
5784524.276;-2.719;8.643;2.980;7.562;-28.387;0.075;9.239;-5.066
5784524.345;-4.508;4.806;6.743;11.735;-26.487;0.112;6.407;-7.525
5784524.353;-1.527;4.135;9.462;11.735;-28.349;2.459;7.004;-4.619
5784524.361;-4.098;3.614;3.576;8.084;-29.057;2.459;6.333;-2.682
5784524.369;-1.937;8.047;5.439;10.915;-22.799;4.619;9.052;-2.272
5784524.377;-8.531;-0.186;1.974;2.310;-19.222;-1.304;3.800;-4.396
5784524.385;-17.397;-10.803;-3.427;-6.072;-28.200;-9.723;-2.272;-10.282
5784524.393;-20.191;-13.597;-8.829;-6.631;-34.794;-13.076;-4.657;-16.354
5784524.401;-16.205;-7.115;-3.278;-3.800;-33.975;-13.374;-7.562;-16.987
5784524.409;-16.838;-11.101;-3.800;-6.407;-33.677;-14.007;-14.082;-13.411
5784524.417;-14.566;-5.141;-4.061;-4.098;-34.347;-3.651;-6.668;-2.645
5784524.425;-20.079;-15.721;-10.468;-7.600;-40.717;-4.992;-6.109;-6.333
5784524.433;-15.832;-12.144;-7.302;-8.903;-23.991;-14.603;-9.462;-19.073
5784524.441;-21.607;-19.185;-9.090;-24.997;-21.048;-17.546;-6.668;-24.289
5784524.449;-27.753;-29.020;-7.711;-39.339;-21.458;-16.131;-2.049;-20.750
5784524.457;-26.859;-25.034;-4.694;-43.400;-9.015;-10.058;0.224;-9.127
5784524.465;-33.118;-36.508;-9.015;-56.401;-5.253;-16.093;-9.686;-11.660
5784524.473;-43.362;-47.199;-19.781;-66.087;-9.276;-25.667;-22.501;-19.632
5784524.481;-45.970;-52.266;-19.819;-74.133;-6.445;-27.455;-28.983;-20.489
5784524.489;-45.337;-51.484;-14.827;-71.786;1.974;-31.888;-33.937;-27.902
5784524.497;-34.384;-34.831;-8.158;-60.163;1.565;-31.926;-33.528;-27.344
5784524.505;-31.963;-34.384;-7.488;-60.499;-0.745;-35.241;-36.918;-28.946
5784524.513;-32.112;-34.980;-13.933;-55.246;5.402;-35.129;-34.571;-32.187
5784524.521;-33.826;-35.577;-13.895;-57.444;7.600;-34.571;-32.559;-34.422
5784524.529;-31.553;-37.067;-9.239;-55.246;1.118;-29.430;-26.561;-36.508
5784524.554;-28.051;-33.118;-10.356;-50.701;3.017;-21.048;-17.807;-32.894
5784524.562;-31.963;-36.694;-10.207;-59.865;1.378;-13.597;-14.715;-29.169
5784524.570;-34.831;-40.233;-12.554;-56.997;0.224;-2.794;-7.339;-17.248
5784524.578;-45.225;-48.652;-24.848;-65.863;-2.012;-1.267;-8.978;-9.052
5784524.586;-49.248;-56.550;-27.791;-73.202;-10.207;-4.955;-9.388;-5.290
5784524.594;-52.452;-56.848;-33.118;-70.110;-15.423;-18.440;-15.162;-8.047
5784524.602;-42.953;-42.617;-23.209;-61.244;-6.706;-29.579;-19.446;-12.778
5784524.610;-36.918;-36.918;-17.658;-52.415;1.751;-42.096;-31.069;-21.085
5784524.618;-29.728;-29.653;-10.505;-47.050;4.843;-41.947;-32.857;-22.538
5784524.626;-28.051;-32.261;-9.201;-42.282;12.293;-39.749;-35.278;-22.165
5784524.634;-31.963;-38.370;-9.276;-52.378;4.806;-38.482;-39.041;-25.444
5784524.642;-34.608;-37.141;-11.511;-57.481;1.863;-33.751;-34.869;-25.369
5784524.650;-31.777;-36.284;-8.568;-47.013;10.952;-19.483;-19.558;-16.280
5784524.658;-36.955;-41.574;-10.990;-53.532;5.849;-12.293;-11.101;-7.935
5784524.666;-36.173;-40.345;-16.689;-53.532;1.527;-6.370;-4.992;-6.929
5784524.674;-25.481;-31.330;-9.090;-40.978;4.098;-1.788;0.447;-5.476
5784524.682;-12.405;-18.068;0.931;-27.046;10.505;-1.490;6.035;-10.580
5784524.690;-5.066;-1.341;9.798;-7.860;6.109;0.410;10.841;-9.723
5784524.698;8.792;11.399;21.569;11.548;4.992;3.390;14.752;-2.347
5784524.706;15.460;20.862;23.395;29.020;1.825;-3.837;7.413;-4.247
5784524.714;15.944;21.867;21.495;29.728;-8.605;-6.892;-0.373;-3.912
5784524.722;10.505;18.291;16.317;28.983;-9.537;-5.364;-1.453;-1.229
5784524.730;5.998;10.654;9.425;24.289;-14.119;-6.594;-2.272;2.272
5784524.738;8.903;15.274;12.927;26.077;-15.572;-0.708;2.682;5.774
5784524.705;16.242;19.372;25.630;27.791;-5.290;8.941;13.374;13.299
5784524.713;15.050;20.154;20.266;24.997;0.149;12.256;21.048;9.313
5784524.721;6.631;13.188;9.723;23.022;-4.992;6.333;19.111;0.782
5784524.729;3.874;5.104;7.264;23.618;-9.537;2.757;14.007;-0.112
5784524.737;7.041;11.064;16.168;23.544;-14.752;9.499;19.297;6.966
5784524.745;8.121;9.499;17.993;21.346;-4.508;12.591;16.429;4.470
5784524.753;2.980;1.602;7.674;17.323;-8.084;13.523;12.666;-2.384
5784524.761;-3.055;-2.123;1.341;17.062;-9.052;18.105;16.764;2.235
5784524.769;4.321;6.594;9.015;23.618;-8.792;25.295;25.928;15.497
5784524.777;13.821;15.981;22.426;33.081;-8.121;27.455;31.441;29.057
5784524.785;14.007;18.440;17.509;34.869;-1.676;17.472;27.791;15.199
5784524.793;3.874;4.657;4.172;25.779;-7.935;3.427;19.073;-1.267
5784524.801;3.278;1.639;2.310;22.613;-13.188;-1.192;17.770;-2.868
5784524.809;5.662;12.591;7.264;29.132;-16.950;0.075;20.638;1.378
5784524.817;9.537;14.156;14.082;33.528;-13.486;-3.949;17.323;-4.470
5784524.825;12.442;14.156;12.890;35.539;-1.863;-3.353;16.317;-7.823
5784524.833;10.207;8.121;11.474;31.367;-0.410;-4.135;14.678;-9.052
5784524.841;4.992;3.278;2.086;27.008;-13.076;-5.551;14.454;-11.884
5784524.849;5.625;8.866;5.141;26.152;-18.179;-8.307;8.941;-16.019
5784524.857;12.331;17.323;21.383;33.975;-2.347;-4.582;7.674;-8.903
5784524.865;4.806;7.637;5.551;27.232;-10.580;8.233;19.409;9.276
5784524.873;-6.258;-6.557;-5.923;12.740;-16.689;6.296;16.876;2.906
5784524.881;-4.135;-9.611;1.155;4.470;-5.700;-4.880;2.533;-6.184
5784524.889;-6.631;-17.993;-5.886;-10.170;-3.241;-1.304;4.284;1.043
5784524.916;-9.499;-21.011;-4.396;-21.309;-2.943;-2.608;2.682;-1.900
5784524.924;-13.784;-28.536;-0.112;-34.422;4.396;-11.697;-5.327;-11.437
5784524.932;-10.841;-28.051;8.270;-40.159;23.581;-17.323;-12.405;-15.944
5784524.940;-12.666;-29.244;6.855;-45.672;34.869;-24.252;-23.991;-17.062
5784524.948;-22.128;-41.164;-2.980;-61.616;32.485;-34.831;-36.396;-22.426
5784524.956;-29.802;-54.650;-6.631;-76.294;33.416;-37.439;-35.837;-29.877
5784524.964;-35.577;-59.754;-7.190;-90.562;34.235;-41.649;-35.465;-34.310
5784524.972;-43.400;-68.471;-13.150;-102.334;39.116;-44.331;-39.376;-33.937
5784524.980;-53.830;-75.474;-23.022;-112.653;37.551;-46.380;-47.609;-35.465
5784524.988;-60.052;-81.547;-26.599;-120.401;32.745;-43.735;-51.558;-31.851
5784524.996;-73.165;-95.554;-41.388;-132.956;23.134;-44.294;-55.544;-35.875
5784525.004;-74.208;-95.107;-36.098;-130.907;26.599;-34.757;-47.050;-28.871
5784525.012;-68.620;-89.779;-31.590;-125.132;31.553;-30.287;-42.468;-25.593
5784525.020;-63.106;-85.570;-31.292;-125.207;32.075;-28.275;-41.164;-25.146
5784525.028;-59.903;-76.741;-27.567;-115.000;30.026;-17.509;-25.108;-23.656
5784525.036;-68.247;-80.876;-30.883;-121.109;28.312;-21.644;-29.206;-26.338
5784525.044;-68.471;-85.458;-32.671;-120.401;23.097;-21.383;-29.914;-26.114
5784525.052;-71.898;-87.433;-39.227;-120.029;22.575;-26.599;-32.894;-31.181
5784525.060;-74.208;-93.095;-41.239;-124.462;18.664;-28.089;-34.757;-31.032
5784525.068;-75.959;-93.877;-39.004;-133.365;16.466;-24.363;-34.422;-24.475
5784525.076;-73.835;-83.931;-38.892;-129.193;17.509;-23.581;-37.365;-16.280
5784525.084;-73.127;-87.917;-36.769;-123.046;23.544;-22.389;-36.769;-10.282
5784525.092;-75.065;-91.195;-41.537;-123.531;18.105;-24.699;-37.514;-11.511
5784525.100;-82.441;-98.944;-51.931;-134.744;3.427;-30.398;-41.910;-14.976
5784525.154;-74.431;-91.605;-42.468;-119.694;17.621;-27.306;-37.216;-8.158
5784525.162;-68.694;-78.566;-39.265;-116.304;23.618;-27.306;-35.726;-10.245
5784525.170;-73.053;-85.682;-42.357;-127.181;16.615;-30.510;-38.370;-15.721
5784525.178;-79.162;-94.697;-46.119;-123.940;12.890;-34.794;-41.313;-23.805
5784525.186;-69.104;-84.415;-41.723;-115.633;23.618;-29.281;-38.520;-21.420
5784525.194;-76.741;-93.691;-49.770;-128.970;13.411;-32.075;-43.288;-24.028
5784525.202;-74.729;-88.811;-48.876;-121.333;18.589;-26.971;-36.247;-23.507
5784525.210;-63.255;-73.723;-34.496;-108.443;24.997;-13.523;-23.097;-7.637
5784525.218;-65.304;-75.921;-35.278;-110.306;21.942;-13.039;-20.899;-13.001
5784525.226;-68.024;-81.360;-39.376;-113.808;19.297;-12.442;-21.681;-21.048
5784525.234;-69.030;-81.584;-42.915;-108.667;16.950;-6.445;-15.870;-15.460
5784525.242;-71.228;-83.037;-40.904;-113.510;17.621;-7.823;-19.930;-14.007
5784525.250;-69.104;-80.615;-38.520;-109.524;20.564;-9.015;-19.260;-17.732
5784525.258;-64.820;-76.331;-42.804;-107.810;21.718;-13.560;-23.060;-25.108
5784525.266;-66.869;-80.504;-39.041;-112.951;16.913;-19.073;-27.604;-29.095
5784525.274;-67.912;-82.180;-43.511;-117.086;18.440;-20.675;-29.989;-25.667
5784525.282;-76.182;-87.321;-55.656;-122.823;9.052;-25.928;-36.843;-27.306
5784525.290;-74.953;-87.097;-51.968;-118.352;14.007;-21.905;-35.018;-22.426
5784525.298;-66.236;-79.125;-44.145;-108.778;22.724;-15.274;-30.212;-13.076
5784525.306;-66.459;-77.374;-42.431;-110.604;21.309;-12.927;-29.057;-8.270
5784525.314;-63.777;-78.864;-34.943;-116.341;19.707;-8.605;-28.238;-3.055
5784525.322;-65.118;-82.776;-35.055;-117.794;18.515;-8.233;-27.418;-3.949
5784525.330;-66.757;-80.131;-41.313;-115.372;18.887;-11.325;-27.232;-9.947
5784525.338;-72.941;-86.017;-50.105;-120.662;8.978;-22.091;-37.476;-19.670
5784525.306;-79.609;-95.405;-56.662;-128.858;4.172;-27.120;-41.462;-22.016
5784525.314;-78.157;-95.293;-53.495;-125.170;9.127;-26.040;-36.992;-19.707
5784525.322;-78.380;-91.270;-50.627;-119.470;14.678;-32.447;-40.680;-29.355
5784525.330;-68.955;-84.639;-37.663;-116.266;26.450;-33.826;-40.755;-33.565
5784525.338;-58.413;-75.623;-21.197;-116.080;43.884;-31.367;-38.482;-29.318
5784525.346;-34.645;-52.862;7.637;-89.817;62.510;-25.220;-32.112;-24.028
5784525.354;9.835;-7.153;56.550;-47.237;100.918;-25.183;-29.989;-23.432
5784525.362;46.976;33.304;88.736;-10.878;125.207;-15.572;-21.532;-13.933
5784525.370;77.859;66.534;119.917;22.873;138.134;-12.480;-19.297;-9.611
5784525.378;107.773;99.652;151.023;55.395;154.339;-9.798;-15.944;-10.096
5784525.386;139.996;134.967;184.253;92.052;174.940;-5.253;-15.311;-8.084
5784525.394;172.406;168.160;215.471;127.293;193.454;5.588;-1.565;-2.347
5784525.402;187.941;191.592;228.733;151.992;198.521;6.743;4.359;-3.017
5784525.410;192.374;195.093;235.103;161.193;196.062;3.986;2.272;-6.668
5784525.418;201.762;205.562;237.636;176.057;194.050;13.448;12.703;0.447
5784525.426;209.920;216.365;242.442;187.457;194.982;21.867;19.670;7.600
5784525.434;205.785;214.726;239.350;187.829;188.053;15.199;14.156;1.974
5784525.442;197.999;208.765;230.186;185.817;175.759;7.674;8.643;-3.800
5784525.450;197.776;205.934;227.951;188.537;166.409;7.413;7.451;-0.969
5784525.458;187.382;200.309;214.130;190.921;153.482;5.439;4.582;2.049
5784525.466;175.163;184.402;198.036;181.198;143.461;0.037;-2.272;2.272
5784525.474;158.064;168.756;178.032;166.856;120.811;2.049;-0.335;5.811
5784525.482;137.873;148.602;152.551;145.286;104.867;-0.261;1.155;-2.459
5784525.490;126.436;137.947;135.787;133.663;89.854;4.582;7.600;1.043
5784525.461;118.352;128.523;120.997;131.503;73.053;7.264;12.703;-0.186
5784525.469;97.789;105.426;101.924;113.659;53.272;3.092;9.127;-8.456
5784525.477;84.005;92.797;88.774;95.926;40.494;1.639;5.998;-10.617
5784525.485;74.282;81.696;78.455;90.413;33.788;2.868;4.098;-11.362
5784525.493;68.396;76.741;69.216;86.650;34.980;-3.986;-3.017;-18.403
5784525.501;60.238;65.006;58.115;76.033;27.604;-8.456;-7.451;-14.976
5784525.509;39.712;41.872;33.155;58.375;4.768;-15.758;-16.317;-12.144
5784525.517;21.309;23.954;21.569;40.159;-8.754;-18.217;-21.644;-10.356
5784525.525;7.898;10.207;10.394;27.381;-13.411;-13.746;-18.738;-11.586
5784525.533;4.321;9.760;3.166;24.773;-20.489;-2.459;-9.611;-9.350
5784525.541;3.837;10.021;-1.788;28.200;-21.383;9.239;0.298;-1.229
5784525.549;-10.319;-8.568;-16.466;13.523;-29.095;3.800;-6.892;-4.433
5784525.557;-12.666;-12.442;-20.117;12.703;-33.043;6.929;-1.565;1.751
5784525.565;-21.532;-23.656;-24.773;9.052;-42.506;9.425;5.402;-1.229
5784525.573;-28.461;-31.888;-32.373;-1.565;-51.558;6.221;5.439;-7.749
5784525.581;-34.422;-35.055;-39.861;-3.763;-56.475;1.378;5.737;-12.182
5784525.589;-27.716;-30.063;-34.012;2.570;-48.839;3.912;10.468;-7.413
5784525.597;-30.696;-37.439;-35.651;-3.614;-42.170;-4.880;1.676;-13.560
5784525.605;-36.061;-48.913;-39.712;-11.660;-49.993;-5.215;-1.267;-12.591
5784525.613;-39.786;-49.323;-42.319;-11.697;-55.619;2.310;3.092;-5.774
5784525.621;-41.015;-46.268;-49.137;-11.995;-58.003;6.482;4.247;1.378
5784525.629;-47.460;-53.123;-56.364;-16.429;-68.732;12.070;9.015;5.029
5784525.637;-44.368;-56.513;-53.607;-15.907;-65.379;20.601;16.168;13.933
5784525.645;-42.096;-55.023;-49.137;-12.554;-55.023;18.664;15.534;10.356
5784525.653;-50.813;-63.032;-55.172;-17.546;-62.883;11.176;9.947;0.224
5784525.661;-54.911;-64.857;-61.989;-22.016;-64.783;6.966;5.625;0.075
5784525.669;-59.083;-70.669;-64.299;-24.214;-74.804;7.004;5.700;-0.447
5784525.677;-52.638;-70.408;-61.132;-20.303;-67.800;17.881;14.268;10.356
5784525.636;-51.036;-63.106;-59.642;-22.128;-63.889;21.979;16.317;12.033
5784525.644;-53.309;-67.465;-57.109;-25.332;-67.502;21.458;17.323;9.127
5784525.652;-52.266;-62.957;-57.630;-18.068;-64.261;19.819;18.403;10.356
5784525.660;-56.624;-65.006;-62.585;-24.214;-73.984;14.380;13.523;11.399
5784525.668;-62.250;-75.474;-69.849;-35.465;-75.512;10.729;8.568;13.560
5784525.676;-57.556;-70.967;-64.671;-28.871;-67.763;16.950;13.374;21.271
5784525.684;-56.326;-71.712;-64.075;-35.129;-72.792;14.752;11.958;15.311
5784525.692;-55.395;-67.018;-65.565;-29.393;-75.586;10.803;8.605;10.394
5784525.700;-48.913;-49.882;-57.779;-17.509;-73.537;9.127;10.990;6.370
5784525.708;-48.727;-51.819;-57.332;-20.564;-76.443;14.640;15.981;14.007
5784525.716;-60.573;-68.583;-67.316;-35.726;-81.882;14.864;9.909;14.752
5784525.724;-59.232;-66.869;-67.316;-34.794;-77.784;22.687;15.497;24.289
5784525.732;-55.805;-61.281;-63.032;-24.140;-74.506;24.438;16.801;21.867
5784525.740;-56.513;-61.095;-61.169;-32.634;-78.641;22.799;17.583;18.664
5784525.748;-58.599;-60.014;-70.482;-35.278;-83.074;13.560;14.007;10.207
5784525.756;-63.293;-64.895;-74.469;-35.539;-86.688;8.978;11.660;-1.118
5784525.764;-60.014;-65.416;-65.006;-29.095;-81.062;10.729;13.039;-2.570
5784525.772;-59.307;-63.777;-67.391;-26.785;-85.719;14.454;15.050;2.943
5784525.780;-54.576;-53.607;-63.591;-19.222;-74.394;22.650;23.991;14.864
5784525.788;-50.291;-49.770;-58.673;-22.911;-72.382;26.561;29.877;21.942
5784525.796;-58.115;-60.201;-66.981;-33.490;-79.982;25.630;27.940;23.507
5784525.804;-60.350;-55.805;-78.343;-27.530;-88.029;25.928;26.710;24.550
5784525.812;-65.304;-61.356;-75.325;-30.696;-86.129;21.681;23.544;15.460
5784525.820;-65.938;-66.459;-68.732;-41.351;-79.274;13.411;19.111;8.903
5784525.875;-67.204;-65.938;-73.388;-37.439;-76.704;8.754;19.632;5.774
5784525.883;-73.202;-71.824;-78.045;-42.878;-84.341;1.490;13.746;-0.484
5784525.891;-77.114;-74.953;-80.876;-45.784;-89.072;-5.923;7.078;-6.519
5784525.899;-71.861;-68.396;-81.845;-34.422;-84.713;-0.410;12.256;-3.353
5784525.907;-65.528;-60.908;-79.274;-29.355;-78.045;4.843;17.323;1.825
5784525.915;-54.240;-48.950;-64.559;-26.412;-70.184;5.439;18.179;2.980
5784525.923;-56.438;-52.266;-60.350;-28.424;-73.686;3.166;12.144;2.086
5784525.931;-54.277;-53.607;-62.026;-23.469;-70.371;5.029;11.437;6.221
5784525.939;-51.334;-54.315;-57.966;-23.395;-69.402;9.798;14.976;9.611
5784525.947;-49.621;-50.478;-57.630;-23.916;-66.012;13.895;18.403;14.938
5784525.955;-48.280;-45.747;-58.562;-21.756;-57.444;12.256;17.472;11.586
5784525.963;-50.701;-53.197;-57.034;-27.381;-56.475;8.009;10.543;7.600
5784525.971;-51.372;-56.326;-55.544;-29.430;-63.628;10.692;10.543;11.809
5784525.979;-51.744;-52.527;-59.158;-25.071;-59.381;17.062;16.578;17.174
5784525.987;-51.521;-54.054;-61.095;-26.599;-54.874;16.950;17.025;15.385
5784525.995;-47.013;-49.286;-55.954;-23.879;-57.854;16.317;21.197;13.486
5784526.003;-40.084;-40.233;-50.813;-20.973;-52.452;16.242;21.234;10.841
5784526.011;-39.153;-43.251;-48.615;-20.079;-46.454;10.245;17.025;4.582
5784526.019;-45.672;-49.397;-57.332;-21.085;-61.356;0.596;7.376;-0.633
5784526.027;-51.185;-47.684;-62.510;-20.862;-67.391;-4.247;1.304;4.061
5784526.035;-49.509;-51.856;-59.754;-22.054;-57.779;-1.043;4.582;9.052
5784526.043;-53.495;-59.903;-63.144;-32.634;-64.224;-4.731;0.857;1.267
5784526.051;-53.942;-53.160;-63.553;-33.118;-67.130;-9.462;-7.600;-3.166
5784526.059;-56.848;-53.085;-61.542;-27.232;-67.130;-10.468;-10.915;-5.253
5784526.220;-50.440;-49.025;-57.146;-19.036;-64.112;-5.774;-3.092;-2.272
5784526.228;-47.497;-42.841;-58.077;-17.881;-57.742;-5.923;2.310;-0.373
5784526.236;-49.695;-53.011;-56.736;-21.681;-56.848;-9.872;-1.080;-6.482
5784526.244;-48.056;-51.893;-54.426;-16.727;-60.610;-7.227;0.410;-6.445
5784526.252;-44.107;-42.245;-53.234;-13.895;-61.877;-6.780;-0.261;-6.258
5784526.260;-37.886;-40.121;-45.449;-8.941;-42.617;0.261;7.004;3.390
5784526.268;-36.731;-36.880;-48.205;-7.153;-47.199;-3.763;2.868;-1.416
5784526.276;-39.898;-43.884;-50.068;-11.735;-47.795;-8.345;-5.253;-1.900
5784526.284;-42.245;-48.392;-50.366;-12.666;-47.237;-7.637;-5.551;0.447
5784526.292;-45.970;-48.131;-57.220;-22.836;-58.711;-11.921;-7.339;-4.470
5784526.300;-41.313;-41.761;-51.446;-16.354;-52.042;-8.196;-1.676;1.267
5784526.308;-41.611;-42.766;-55.432;-12.852;-53.346;-8.233;-2.831;2.310
5784526.316;-44.554;-47.237;-59.567;-17.025;-56.513;-13.150;-7.115;-5.960
5784526.324;-43.176;-49.621;-56.773;-15.311;-56.438;-16.242;-7.898;-8.196
5784526.332;-46.268;-52.340;-60.908;-10.543;-55.060;-19.632;-9.239;-10.952
5784526.340;-41.053;-46.641;-56.662;-6.035;-47.982;-14.491;-5.290;-6.407
5784526.348;-36.731;-35.800;-50.291;-6.557;-49.509;-6.855;1.602;2.310
5784526.356;-42.133;-39.898;-54.725;-11.995;-54.501;-10.841;-3.316;-3.502
5784526.364;-43.213;-48.429;-60.014;-13.970;-58.264;-12.442;-5.886;-9.723
5784526.372;-37.700;-43.958;-57.034;-11.995;-56.252;-4.880;0.559;-2.868
5784526.380;-37.961;-41.910;-52.713;-10.729;-52.825;-2.980;3.427;-0.782
5784526.388;-38.818;-45.449;-52.452;-10.245;-46.268;-10.468;-0.484;-8.233
5784526.396;-38.631;-46.864;-52.825;-13.076;-48.392;-8.978;-1.900;-7.674
5784526.404;-39.712;-50.403;-51.819;-18.589;-54.799;-4.172;3.017;-2.645
5784526.399;-33.751;-37.886;-48.168;-18.701;-52.266;-0.447;6.445;1.900
5784526.407;-36.731;-45.039;-54.426;-22.836;-53.346;-4.135;3.427;-1.602
5784526.415;-41.611;-50.701;-61.728;-22.426;-60.275;-2.384;4.992;2.310
5784526.423;-25.705;-31.032;-44.107;-5.886;-41.127;-0.224;6.743;8.345
5784526.431;-6.780;-13.821;-21.383;5.327;-26.077;-0.261;7.451;9.611
5784526.439;-4.843;-14.417;-22.911;8.456;-30.510;-0.931;7.935;2.496
5784526.447;-4.508;-17.025;-21.718;9.984;-31.181;4.284;11.884;1.453
5784526.455;3.241;-6.706;-14.454;17.509;-18.626;18.887;22.687;13.150
5784526.463;5.327;-1.863;-10.915;17.621;-7.264;24.773;23.544;23.246
5784526.471;-2.645;-16.280;-18.850;7.078;-19.968;16.727;14.566;16.093
5784526.479;-17.323;-31.106;-29.095;-5.774;-27.604;7.413;6.743;7.525
5784526.487;-20.452;-29.802;-35.912;-2.235;-31.069;3.539;6.370;6.780
5784526.495;-19.260;-26.338;-36.210;-3.316;-31.218;-3.502;5.662;0.484
5784526.503;-21.420;-31.032;-37.029;-3.614;-35.278;-6.147;5.960;-5.588
5784526.511;-19.185;-30.510;-35.465;-2.980;-38.259;-1.267;8.568;-3.465
5784526.519;-23.507;-34.086;-34.645;-12.144;-36.061;2.868;6.817;2.459
5784526.527;-30.175;-37.514;-42.766;-12.852;-35.390;2.645;-0.112;3.353
5784526.535;-29.206;-33.081;-41.947;-8.978;-36.657;1.453;0.037;6.519
5784526.543;-27.455;-35.316;-40.419;-9.425;-37.402;1.602;6.333;11.846
5784526.551;-30.920;-43.288;-45.635;-12.740;-49.807;-9.090;0.596;5.886
5784526.559;-23.469;-35.055;-39.078;-8.792;-39.302;-12.852;0.633;-1.416
5784526.567;-18.962;-28.163;-33.900;0.075;-29.244;-6.594;6.035;-1.453
5784526.575;-6.109;-11.623;-20.079;11.474;-16.801;5.253;15.572;9.388
5784526.583;-4.321;-8.345;-14.082;14.529;-12.927;4.210;10.245;12.331
5784526.551;-3.353;-9.798;-17.546;9.760;-18.515;2.086;6.668;5.551
5784526.559;-2.459;-7.898;-19.856;8.456;-23.954;5.364;11.660;7.115
5784526.567;-16.727;-21.160;-27.940;-0.335;-32.000;1.267;8.009;2.831
5784526.575;-23.097;-28.610;-38.296;-1.863;-37.178;1.900;6.407;4.470
5784526.583;-22.873;-23.581;-35.800;-6.817;-34.124;7.264;7.823;10.356
5784526.591;-19.856;-19.893;-29.728;-7.078;-29.020;12.033;10.356;16.019
5784526.599;-24.438;-23.693;-32.522;-6.258;-41.388;13.784;11.846;14.193
5784526.607;-22.128;-17.360;-33.490;-0.447;-41.351;14.044;13.709;12.517
5784526.615;-22.277;-21.197;-38.184;-0.596;-45.747;16.168;19.707;14.938
5784526.623;-21.458;-15.125;-34.496;-4.582;-35.167;12.629;19.483;10.952
5784526.631;-11.325;-11.548;-23.022;-2.049;-18.068;9.686;19.334;7.115
5784526.639;-16.205;-12.033;-24.065;-7.413;-21.309;10.729;23.060;7.339
5784526.647;-16.801;-15.981;-19.297;-6.892;-19.372;10.096;22.762;2.868
5784526.655;-16.242;-14.827;-18.589;-9.052;-20.526;9.015;18.142;6.929
5784526.663;-23.730;-27.381;-27.642;-19.334;-21.234;7.413;13.597;11.176
5784526.671;-23.283;-27.567;-28.983;-22.016;-22.240;6.743;10.319;12.182
5784526.679;-29.840;-28.759;-33.081;-27.679;-25.183;-1.080;1.714;2.496
5784526.687;-32.522;-28.647;-37.216;-26.748;-26.040;-3.576;-1.006;-0.782
5784526.695;-25.928;-24.736;-32.261;-18.887;-30.175;1.006;1.416;6.557
5784526.703;-29.430;-32.037;-32.745;-24.438;-32.075;-4.470;-7.264;-0.894
5784526.711;-33.677;-33.528;-39.861;-28.946;-35.502;-5.476;-8.419;-2.123
5784526.719;-39.972;-45.039;-43.698;-32.410;-35.688;-3.353;-4.694;1.565
5784526.727;-45.188;-45.039;-50.664;-38.370;-40.568;-11.921;-9.723;-6.706
5784526.735;-39.227;-37.067;-49.025;-32.224;-38.147;-8.158;-0.373;-0.596
5784526.760;-36.098;-38.967;-41.276;-30.622;-39.265;-0.969;7.674;1.155
5784526.768;-36.284;-37.737;-36.098;-29.355;-33.863;2.794;9.201;0.000
5784526.776;-30.100;-32.075;-29.728;-23.320;-14.789;16.019;20.228;12.219
5784526.784;-27.195;-26.077;-29.542;-23.432;-18.589;21.122;24.065;21.756
5784526.792;-25.593;-26.859;-29.430;-25.146;-26.710;16.466;19.632;17.881
5784526.800;-30.994;-34.124;-37.327;-27.344;-31.181;8.233;14.640;8.643
5784526.808;-35.465;-38.333;-42.468;-30.398;-38.520;3.241;12.368;-0.075
5784526.816;-35.726;-34.384;-39.563;-23.730;-32.820;3.614;12.033;-1.080
5784526.824;-32.932;-30.212;-35.800;-24.326;-23.246;-2.086;6.780;-3.017
5784526.832;-26.859;-28.312;-31.739;-23.395;-20.340;-6.668;3.874;-4.843
5784526.840;-24.401;-30.883;-35.763;-24.587;-23.916;-10.915;-3.763;-4.135
5784526.848;-28.647;-32.336;-34.943;-28.126;-29.020;-14.529;-10.282;-6.370
5784526.856;-33.230;-31.814;-38.818;-25.369;-36.545;-12.219;-9.350;-8.196
5784526.864;-34.906;-33.863;-41.090;-27.269;-27.940;-5.439;-4.582;-5.327
5784526.872;-27.940;-25.928;-32.447;-22.314;-19.446;1.118;0.186;-0.745
5784526.880;-31.292;-31.888;-38.221;-27.940;-32.894;4.768;3.576;3.353
5784526.888;-37.961;-37.327;-51.111;-30.808;-40.345;6.072;8.754;9.686
5784526.896;-30.696;-31.777;-33.826;-30.585;-21.122;-6.817;-1.416;-2.161
5784526.904;-25.667;-28.647;-27.493;-33.081;-6.333;-13.709;-6.221;-12.442
5784526.912;-15.125;-22.836;-12.405;-33.192;12.666;-18.999;-12.852;-14.715
5784526.920;-7.339;-19.297;2.868;-34.943;23.507;-19.968;-15.050;-12.740
5784526.928;-0.112;-11.213;9.462;-35.688;32.894;-26.636;-25.071;-14.231
5784526.936;4.768;-3.390;19.483;-32.820;54.315;-31.963;-34.198;-13.672
5784526.944;4.135;-7.860;21.830;-41.574;65.081;-37.625;-40.308;-15.348
5784527.007;4.768;-19.409;27.902;-45.672;62.697;-38.259;-37.849;-16.950
5784527.015;1.565;-17.695;23.581;-49.807;62.324;-36.173;-34.906;-22.873
5784527.023;0.075;-5.104;15.721;-49.658;66.496;-31.702;-32.261;-28.834
5784527.031;2.198;-9.090;20.973;-44.629;65.379;-25.518;-26.859;-31.888
5784527.039;4.210;-10.543;23.209;-44.443;68.955;-19.930;-23.022;-22.277
5784527.047;1.341;-16.466;19.260;-47.907;62.883;-25.406;-31.367;-20.526
5784527.055;-4.135;-21.383;13.262;-49.435;58.748;-26.561;-32.373;-18.626
5784527.063;-7.153;-22.352;3.837;-51.260;49.397;-28.238;-33.118;-16.950
5784527.071;-1.118;-13.784;6.482;-43.660;52.638;-18.999;-22.836;-14.640
5784527.079;7.153;-8.233;19.036;-29.840;61.654;-5.178;-9.947;-5.960
5784527.087;-6.519;-20.415;9.350;-45.858;53.011;-2.719;-8.829;-4.582
5784527.095;-9.798;-22.464;4.992;-52.415;51.744;-1.602;-3.949;-1.229
5784527.103;-9.909;-25.779;-3.539;-47.795;47.758;-11.772;-8.158;-6.855
5784527.111;-7.004;-17.211;-1.229;-42.692;52.005;-22.575;-15.050;-8.829
5784527.119;-10.654;-27.865;2.049;-49.919;52.080;-33.453;-27.753;-13.448
5784527.127;-11.660;-30.696;0.149;-52.527;48.764;-36.396;-34.347;-11.660
5784527.135;-11.995;-25.779;-1.676;-52.266;51.111;-35.837;-37.849;-12.219
5784527.143;4.470;-12.480;16.913;-36.098;63.181;-34.757;-37.923;-15.236
5784527.151;10.729;-7.972;21.458;-34.198;72.420;-25.928;-26.673;-9.090
5784527.159;8.605;-10.207;21.383;-41.239;78.045;-24.177;-24.363;-12.778
5784527.167;12.740;-6.668;30.436;-43.623;84.303;-15.423;-16.540;-11.846
5784527.175;8.680;-10.654;30.249;-46.790;82.031;-6.594;-8.643;-6.407
5784527.183;3.986;-19.521;19.781;-45.709;75.698;-4.023;-6.296;-2.310
5784527.191;-5.625;-34.831;13.001;-49.882;70.892;1.155;0.410;7.041
5784527.180;-11.437;-29.728;3.725;-58.413;64.448;-1.825;-3.800;3.539
5784527.188;-3.800;-21.495;11.250;-56.475;65.118;-5.960;-12.144;0.820
5784527.196;0.671;-21.756;19.148;-52.862;68.173;-6.594;-17.323;4.768
5784527.204;12.890;-12.144;34.533;-43.102;86.501;-1.267;-17.099;9.872
5784527.212;8.829;-16.466;26.710;-42.468;83.670;-1.602;-18.924;1.453
5784527.220;7.525;-14.231;21.756;-41.611;80.727;0.484;-16.615;-1.453
5784527.228;11.697;-5.662;29.579;-39.339;74.245;3.204;-9.760;2.123
5784527.236;19.856;1.751;38.333;-28.871;83.260;5.178;0.112;9.499
5784527.244;9.350;-12.070;26.301;-37.774;84.788;-10.245;-7.115;1.490
5784527.252;2.719;-19.595;17.434;-44.033;77.225;-22.426;-12.927;-4.508
5784527.260;3.204;-18.924;17.732;-39.116;71.786;-18.850;-9.090;-0.075
5784527.268;6.072;-14.417;23.544;-40.196;69.253;-9.127;-0.261;7.898
5784527.276;10.654;-7.115;30.436;-35.539;75.735;-8.233;0.894;2.161
5784527.284;11.399;-3.651;24.661;-30.100;77.896;-8.419;0.037;-1.453
5784527.292;5.960;-17.174;18.291;-37.663;69.812;-11.846;-5.327;-6.668
5784527.300;5.141;-12.629;20.042;-31.926;65.714;-12.890;-7.823;-9.984
5784527.308;16.764;1.751;34.459;-24.326;75.847;-3.912;1.788;-1.565
5784527.316;17.621;1.565;33.192;-25.779;77.784;-2.086;4.657;-4.545
5784527.324;9.798;-5.886;16.317;-31.963;69.179;-3.874;1.229;-7.674
5784527.332;0.484;-11.027;13.486;-42.692;65.379;-9.537;-7.674;-10.915
5784527.340;-6.631;-21.607;13.933;-53.309;55.544;-6.072;-8.456;-5.290
5784527.348;-5.551;-22.203;11.027;-52.080;54.352;-0.224;-7.190;7.376
5784527.356;-7.041;-21.160;12.368;-47.535;59.344;-2.570;-8.792;8.084
5784527.364;-0.447;-10.319;12.331;-45.076;59.381;-2.608;-6.072;6.035
5784527.330;3.241;-8.419;19.148;-41.649;62.510;-5.849;-8.643;6.594
5784527.338;-5.476;-16.540;10.505;-53.830;51.074;-13.299;-17.360;0.112
5784527.346;0.931;-10.207;18.105;-44.256;55.172;-4.359;-9.872;11.213
5784527.354;-0.186;-12.480;18.813;-43.660;54.985;-3.688;-8.568;9.462
5784527.362;3.912;-7.711;16.429;-40.866;58.636;-1.937;-5.215;9.686
5784527.370;4.284;-6.817;13.858;-41.910;56.028;-4.582;-6.668;5.104
5784527.378;7.004;-4.657;20.862;-37.737;56.662;-2.868;-3.912;3.166
5784527.386;5.774;-0.261;19.334;-39.190;55.693;-5.476;-6.109;0.149
5784527.394;0.410;-8.494;9.462;-38.967;56.252;-8.605;-9.537;1.490
5784527.402;-4.619;-19.297;9.015;-39.898;50.291;-8.978;-9.350;4.247
5784527.410;-0.149;-10.803;9.984;-37.998;51.409;-4.433;-5.476;14.454
5784527.418;-0.894;-4.992;11.250;-38.818;43.884;-7.004;-9.388;7.600
5784527.426;3.800;4.396;18.664;-34.124;50.776;-5.700;-6.184;1.565
5784527.434;8.307;2.086;18.850;-30.361;64.597;-5.178;-3.055;1.490
5784527.442;7.898;0.559;15.758;-32.112;58.487;-4.210;-3.688;-0.633
5784527.450;11.213;1.118;21.979;-28.089;59.642;7.562;8.233;10.394
5784527.458;14.864;8.233;24.587;-24.512;58.264;16.019;15.609;20.079
5784527.466;14.938;17.770;26.561;-25.854;55.693;11.511;9.350;16.727
5784527.474;3.763;3.465;12.182;-43.958;57.667;4.321;1.155;13.784
5784527.482;0.708;-11.884;11.697;-35.763;55.581;6.370;6.258;13.560
5784527.490;7.637;-4.359;18.664;-30.994;56.028;6.035;9.239;9.499
5784527.498;6.221;-1.863;14.678;-34.831;46.007;5.327;8.345;9.276
5784527.506;10.096;5.327;20.452;-32.261;49.956;0.745;3.204;5.178
5784527.514;11.586;1.676;21.048;-27.008;57.742;1.043;1.788;7.562
5784527.522;-0.708;-10.133;3.092;-43.698;44.219;-2.570;-3.614;11.213
5784527.530;-9.798;-18.105;-5.439;-52.266;36.955;-3.651;-6.035;7.749
5784527.538;-7.637;-16.876;-1.453;-47.497;44.256;-0.708;-2.757;6.817
5784527.546;-17.434;-28.722;-6.296;-55.097;35.837;-8.158;-9.909;1.155
5784527.525;-22.538;-33.602;-9.649;-65.155;27.269;-12.740;-15.683;-2.235
5784527.533;-25.183;-36.061;-14.827;-64.410;30.324;-18.366;-22.426;-10.058
5784527.541;-24.773;-31.777;-19.372;-61.095;33.081;-16.801;-20.526;-9.984
5784527.549;-22.911;-30.510;-10.841;-60.648;36.992;-18.366;-19.521;-10.617
5784527.557;-19.483;-29.802;-2.906;-57.630;35.278;-22.054;-19.819;-14.938
5784527.565;-21.644;-29.542;-6.035;-54.650;36.396;-20.303;-17.919;-13.076
5784527.573;-20.824;-34.422;-8.494;-55.768;38.370;-11.176;-9.127;-5.066
5784527.581;-19.483;-27.418;-10.766;-53.421;37.923;-8.084;-9.239;-4.172
5784527.589;-23.432;-25.183;-10.319;-58.264;27.083;-11.586;-14.491;-8.903
5784527.597;-28.089;-33.639;-14.268;-67.465;20.564;-19.521;-26.599;-16.429
5784527.605;-26.375;-35.986;-14.454;-63.293;32.596;-20.154;-28.722;-14.678
5784527.613;-21.271;-29.206;-14.566;-55.432;34.645;-21.718;-29.504;-10.766
5784527.621;-14.864;-23.283;-9.686;-49.174;30.659;-20.228;-25.220;-4.396
5784527.629;-19.819;-27.791;-8.903;-52.415;28.759;-27.940;-27.157;-10.021
5784527.637;-21.979;-25.332;-8.568;-58.226;31.590;-30.920;-26.859;-10.207
5784527.645;-20.228;-31.181;-8.345;-56.550;32.522;-23.805;-19.334;-3.427
5784527.653;-24.624;-36.992;-17.397;-58.897;31.106;-19.073;-16.764;-2.272
5784527.661;-21.942;-32.447;-12.256;-52.415;29.691;-14.827;-15.795;0.708
5784527.669;-14.678;-22.464;-6.855;-44.890;34.757;-10.282;-15.125;-0.149
5784527.677;-12.629;-17.136;-2.943;-48.988;36.471;-7.898;-15.274;1.341
5784527.685;-12.033;-18.775;-3.725;-49.174;38.445;-2.496;-8.978;5.327
5784527.693;-11.697;-21.718;-8.233;-45.039;33.304;-1.676;-6.370;5.737
5784527.701;-0.149;-10.990;3.390;-29.318;41.798;-6.817;-10.282;-1.043
5784527.709;9.015;0.894;13.597;-16.429;53.607;-5.662;-9.313;-2.272
5784527.736;21.271;13.039;28.908;-10.580;63.181;0.782;-3.092;2.012
5784527.744;7.227;4.694;16.019;-26.971;46.156;-4.619;-8.866;-7.637
5784527.752;-7.302;-12.256;-1.863;-37.998;34.720;-10.021;-13.858;-15.236
5784527.760;-5.960;-11.586;-0.373;-35.651;45.970;-4.321;-7.860;-4.247
5784527.768;-5.402;-7.227;2.980;-32.298;40.159;-3.800;-10.394;1.751
5784527.776;-8.047;-13.337;0.075;-38.892;35.316;-7.562;-15.423;0.894
5784527.784;-2.757;-10.952;5.551;-28.722;41.388;-1.527;-10.692;8.084
5784527.792;1.155;-6.258;9.350;-26.301;45.188;0.037;-10.356;10.505
5784527.800;-1.602;-6.892;-1.155;-27.530;40.643;5.141;-2.272;14.976
5784527.808;-0.112;-4.694;-0.037;-24.885;34.310;10.766;8.233;19.595
5784527.816;0.261;-7.227;1.825;-24.475;37.551;4.731;8.158;11.548
5784527.824;-1.304;-10.319;-0.149;-24.103;32.708;-0.112;5.551;7.190
5784527.832;-3.427;-12.778;-2.049;-32.075;40.494;-9.909;-6.258;1.267
5784527.840;-0.745;-9.835;1.006;-30.957;37.886;-9.462;-9.760;6.370
5784527.848;13.262;5.886;16.317;-9.611;47.646;-0.745;-5.998;17.583
5784527.856;12.852;8.307;16.391;-12.815;45.039;0.373;-7.376;18.850
5784527.864;3.800;-7.413;8.903;-18.589;45.039;-0.596;-8.903;16.242
5784527.872;7.860;-0.857;11.325;-17.770;52.899;1.863;-6.743;14.938
5784527.880;14.976;8.531;18.887;-13.188;50.850;5.178;-6.147;17.472
5784527.888;14.789;8.307;15.683;-12.107;48.578;-0.671;-12.219;7.935
5784527.896;16.503;4.917;16.764;-12.405;45.300;1.527;-8.792;10.803
5784527.904;13.597;-3.800;21.122;-15.795;46.939;4.619;-6.929;18.552
5784527.912;10.058;-2.459;14.864;-7.488;49.435;2.868;-9.052;15.832
5784527.920;8.382;4.731;5.327;-11.362;47.050;-0.745;-10.468;8.978
5784527.993;5.439;-2.086;6.258;-23.730;42.990;0.559;-8.792;3.949
5784528.001;15.385;9.909;17.248;-6.184;47.609;13.895;2.161;12.182
5784528.009;29.244;23.060;33.975;11.958;52.340;20.340;8.307;14.715
5784528.017;38.333;23.618;40.941;13.709;66.310;29.430;17.993;25.742
5784528.025;34.310;23.097;34.682;4.433;67.055;28.461;18.962;22.240
5784528.033;21.905;9.574;23.358;-5.290;57.928;20.489;12.778;13.486
5784528.041;20.899;16.354;21.420;-4.433;43.362;11.921;1.863;13.448
5784528.049;18.477;12.517;22.911;-9.760;38.147;0.484;-10.990;6.855
5784528.057;17.025;8.009;17.732;-10.878;42.543;-3.800;-15.758;5.513
5784528.065;22.948;17.546;25.257;2.533;51.707;6.370;-5.066;18.291
5784528.073;20.042;15.125;21.271;2.384;44.964;13.001;2.421;21.867
5784528.081;25.220;29.579;29.579;1.304;44.443;16.503;5.439;22.352
5784528.089;29.244;33.900;30.585;8.345;51.334;23.618;11.064;28.685
5784528.097;23.879;28.051;22.836;7.637;45.039;24.103;13.560;25.034
5784528.105;17.732;19.819;15.683;2.347;38.520;20.713;10.766;23.358
5784528.113;12.480;12.778;12.591;-5.811;35.614;12.666;2.943;20.117
5784528.121;27.195;32.224;32.261;8.382;48.056;16.019;5.476;28.573
5784528.129;18.775;22.426;18.664;-0.149;37.327;8.754;-3.800;19.744
5784528.137;9.015;11.027;10.543;-9.052;37.737;4.917;-9.052;11.548
5784528.145;23.916;25.257;25.295;4.619;44.666;16.280;2.421;23.283
5784528.153;30.659;25.630;33.937;8.792;47.870;21.271;9.723;27.716
5784528.161;27.381;35.204;32.373;4.619;50.887;16.093;7.451;20.415
5784528.169;15.348;24.252;13.523;0.745;38.557;11.399;3.502;17.695
5784528.177;15.162;21.383;11.660;-1.080;35.167;9.201;0.745;17.807
5784528.154;19.297;22.538;19.297;-1.192;43.772;14.044;5.215;25.183
5784528.162;15.758;20.079;20.079;-4.284;34.012;13.746;3.614;20.824
5784528.170;13.262;15.758;15.758;-6.445;29.281;9.611;-2.123;13.895
5784528.178;12.778;13.672;9.052;-5.700;29.206;7.413;-5.439;11.362
5784528.186;21.905;27.306;15.348;1.676;44.368;17.807;6.966;18.775
5784528.194;26.561;29.653;21.420;8.419;50.105;19.856;12.964;17.583
5784528.202;31.143;36.471;35.241;16.876;46.901;16.317;13.523;13.746
5784528.210;35.875;46.231;32.112;24.624;44.703;6.184;4.135;3.316
5784528.218;27.344;32.820;18.477;11.362;42.208;-3.725;-7.972;2.161
5784528.226;21.271;25.220;13.225;-1.490;41.686;-8.270;-13.299;1.788
5784528.234;18.403;18.738;21.271;-1.416;44.443;-3.949;-12.703;4.098
5784528.242;23.022;20.675;27.195;3.800;41.761;8.494;-4.955;18.179
5784528.250;28.461;34.124;22.128;8.680;43.996;17.695;1.751;24.699
5784528.258;30.734;35.390;24.922;9.537;46.454;14.640;-2.682;12.070
5784528.266;27.530;26.561;25.965;7.898;51.260;15.423;-0.671;11.511
5784528.274;32.037;35.241;35.018;10.207;50.217;16.131;1.639;16.317
5784528.282;35.688;39.190;31.590;12.927;51.856;15.013;1.490;21.048
5784528.290;38.408;43.362;32.298;21.234;56.550;14.901;6.221;20.526
5784528.298;34.161;35.316;25.965;13.337;51.633;8.903;0.857;3.204
5784528.306;34.049;31.441;32.820;13.821;50.440;11.921;0.298;4.545
5784528.314;34.831;33.118;31.888;16.503;49.621;20.079;7.413;14.678
5784528.322;34.608;36.769;30.957;14.864;45.262;22.464;8.941;18.626
5784528.330;37.476;41.388;29.765;18.105;54.799;19.446;4.210;16.950
5784528.338;37.327;40.047;30.808;17.099;59.493;17.360;0.857;18.887
5784528.352;32.000;26.673;33.639;12.964;50.664;12.480;-3.539;18.813
5784528.360;34.422;31.181;32.261;16.578;45.374;6.631;-6.855;9.798
5784528.368;37.737;32.708;30.845;23.060;49.695;11.325;-0.037;7.898
5784528.376;46.492;52.042;36.471;30.026;63.479;25.034;15.460;17.658
5784528.384;43.251;46.007;43.064;29.728;58.413;29.467;23.693;21.234
5784528.392;36.731;36.843;32.559;21.346;43.064;25.630;20.228;15.236
5784528.400;34.086;32.857;22.650;20.228;41.723;23.581;16.093;18.924
5784528.408;38.259;37.588;28.796;23.544;48.354;22.836;12.927;27.753
5784528.416;31.218;33.826;28.573;17.583;48.205;12.442;2.570;21.309
5784528.424;32.000;31.665;24.214;16.503;41.202;9.015;2.235;17.397
5784528.432;32.037;27.530;22.911;20.936;41.053;9.090;2.831;11.846
5784528.440;33.975;27.157;21.979;20.824;40.643;9.947;3.316;13.560
5784528.448;36.806;37.029;26.636;22.016;43.511;10.170;4.396;15.795
5784528.456;33.453;38.072;28.685;18.477;38.370;4.806;0.596;6.407
5784528.464;32.745;33.379;23.320;20.266;43.772;2.272;-1.267;4.731
5784528.472;41.500;35.167;29.504;31.702;54.426;10.952;9.537;16.205
5784528.480;42.021;45.300;31.702;34.422;50.552;10.170;10.468;14.789
5784528.488;44.629;50.664;40.270;37.141;51.036;9.201;9.947;7.860
5784528.496;45.821;47.423;35.465;37.365;51.819;10.580;6.557;5.811
5784528.504;43.400;39.935;26.524;34.347;44.890;13.039;3.316;9.798
5784528.512;41.053;38.855;26.785;30.473;42.319;16.950;8.158;17.621
5784528.520;37.700;38.482;26.412;26.748;38.110;13.486;9.313;12.256
5784528.528;41.127;40.941;29.132;31.330;46.827;9.350;6.109;4.247
5784528.536;36.471;33.751;26.710;28.647;42.096;4.396;2.757;4.582
5784528.606;41.910;38.669;29.989;29.951;43.027;12.107;11.399;13.933
5784528.614;41.574;39.302;30.696;28.461;44.219;12.256;7.227;15.236
5784528.622;40.568;37.290;32.447;27.120;44.405;14.603;8.605;17.397
5784528.630;37.551;34.012;28.834;32.112;49.248;18.850;12.703;17.509
5784528.638;24.103;21.569;15.050;19.781;35.800;11.399;3.763;5.700
5784528.646;28.238;21.234;19.781;12.740;35.688;18.999;10.543;11.735
5784528.654;44.331;40.643;36.806;31.963;43.251;29.095;19.893;27.306
5784528.662;38.780;38.594;32.261;31.181;50.031;20.638;11.846;19.968
5784528.670;33.341;28.200;30.436;27.679;51.260;9.872;1.527;8.941
5784528.678;39.078;40.792;29.206;30.138;42.915;6.519;-1.751;12.480
5784528.686;43.064;40.196;32.336;34.012;40.196;13.039;7.004;22.240
5784528.694;49.397;47.870;41.090;41.798;53.085;16.950;14.789;22.985
5784528.702;54.054;51.521;45.188;47.460;60.946;20.005;16.466;24.997
5784528.710;49.397;47.386;37.774;46.343;55.730;20.564;15.534;19.781
5784528.718;49.248;49.993;38.594;44.554;46.194;20.154;14.789;21.048
5784528.726;46.752;44.666;40.345;41.537;40.494;16.168;11.399;8.829
5784528.734;46.231;41.723;39.265;43.884;47.013;18.328;12.890;6.258
5784528.742;52.229;50.105;42.394;49.919;53.123;26.114;20.452;19.521
5784528.750;45.672;41.090;32.410;40.233;47.423;22.799;14.864;21.905
5784528.758;31.069;24.810;21.011;18.477;26.450;6.072;-1.192;8.978
5784528.766;37.700;29.989;33.751;27.977;40.047;15.125;9.239;18.105
5784528.774;54.762;45.300;49.584;44.517;57.705;26.152;21.383;32.149
5784528.782;50.217;39.749;44.778;34.757;53.197;18.552;12.666;26.971
5784528.790;48.056;43.660;36.322;31.739;47.646;21.346;14.417;25.369
5784528.816;47.758;45.709;39.935;28.983;51.819;19.409;13.225;19.372
5784528.824;40.866;30.585;43.735;21.644;48.690;13.746;7.153;11.586
5784528.832;39.525;32.112;40.159;22.054;43.474;17.956;9.127;19.670
5784528.840;37.439;37.216;31.367;23.507;37.327;19.856;12.405;23.618
5784528.848;31.330;32.224;19.297;18.105;32.671;15.832;8.717;21.122
5784528.856;30.212;27.008;26.859;14.119;34.720;14.529;7.190;18.701
5784528.864;41.798;48.503;38.408;25.705;43.698;19.744;12.144;17.993
5784528.872;53.495;54.985;51.558;42.915;52.638;27.306;18.701;27.642
5784528.880;47.944;56.624;41.910;44.517;42.878;25.779;19.148;25.481
5784528.888;42.357;51.521;32.149;37.663;40.457;23.767;20.228;19.297
5784528.896;34.161;39.935;30.324;27.269;34.273;16.466;15.907;15.125
5784528.904;28.498;32.298;28.238;17.732;31.181;4.880;5.774;10.878
5784528.912;20.191;23.060;19.372;12.144;27.120;-2.086;-1.453;11.437
5784528.920;17.360;28.871;8.978;14.752;22.687;-6.855;-8.307;8.531
5784528.928;22.575;30.175;14.789;20.415;25.220;-5.625;-11.474;5.364
5784528.936;25.071;30.585;21.309;17.323;30.398;-4.023;-13.299;3.725
5784528.944;25.742;31.143;23.954;10.915;26.785;-0.224;-11.809;8.941
5784528.952;15.497;22.165;14.454;1.863;20.154;-4.210;-16.838;7.562
5784528.960;11.735;17.434;4.992;6.109;17.881;-3.949;-14.156;3.763
5784528.968;13.746;16.429;18.142;12.554;28.014;2.161;-4.172;5.104
5784528.976;21.979;30.063;20.228;18.179;28.983;3.800;1.006;2.347
5784528.984;11.474;16.391;4.061;5.439;8.605;-2.980;-6.445;-6.631
5784528.992;20.638;31.814;6.557;17.956;12.256;4.508;1.788;3.800
5784529.000;36.582;48.093;25.593;33.379;36.061;14.231;14.156;12.703
5784528.964;27.269;32.037;22.687;21.160;31.441;14.752;13.746;13.560
5784528.972;22.538;28.014;10.096;23.991;14.417;21.756;18.813;18.552
5784528.980;39.749;48.615;25.332;41.090;29.095;19.334;16.466;13.337
5784528.988;43.176;52.787;27.008;41.015;30.585;15.423;13.299;11.437
5784528.996;50.701;61.132;39.488;47.088;30.436;25.965;23.954;22.203
5784529.004;45.076;54.315;34.571;44.107;36.806;27.269;22.575;23.022
5784529.012;46.454;55.470;32.410;40.643;31.032;28.946;20.266;25.071
5784529.020;40.792;45.747;22.873;38.259;28.163;25.071;13.337;20.675
5784529.028;37.588;38.743;21.681;32.485;30.138;22.314;11.362;16.801
5784529.036;41.164;48.354;35.278;34.347;31.479;17.546;11.250;15.497
5784529.044;33.788;41.015;28.200;26.636;28.126;7.600;4.433;6.557
5784529.052;31.516;37.290;16.876;28.200;21.271;5.327;0.373;8.680
5784529.060;37.290;43.102;24.177;30.994;28.796;11.064;7.413;14.044
5784529.068;29.244;33.416;19.781;23.432;21.681;4.545;3.055;5.439
5784529.076;21.532;27.604;13.486;17.472;14.119;3.651;-0.559;3.576
5784529.084;26.748;31.292;16.354;19.744;26.524;9.798;4.172;6.370
5784529.092;36.135;42.692;25.257;32.596;36.433;19.856;12.517;21.085
5784529.100;29.691;32.261;22.426;24.773;27.232;17.621;11.288;24.028
5784529.108;27.008;28.610;14.715;22.985;22.873;16.168;10.580;20.340
5784529.116;26.710;26.934;16.280;25.332;15.795;14.082;7.562;22.016
5784529.124;26.673;35.800;13.523;24.959;25.220;15.609;8.680;25.444
5784529.132;26.710;33.155;18.105;25.183;30.287;19.744;12.703;25.965
5784529.140;35.241;42.580;23.469;32.559;33.639;24.699;22.016;29.020
5784529.148;25.444;31.516;11.697;23.469;21.458;18.552;18.775;17.174
5784529.070;26.301;30.734;13.448;21.420;16.280;20.713;18.664;17.360
5784529.078;31.404;36.769;21.867;27.418;26.636;27.157;23.134;24.848
5784529.086;22.091;30.585;10.431;20.228;22.091;12.331;5.886;11.139
5784529.094;22.650;28.387;15.981;23.097;19.893;9.425;1.639;10.468
5784529.102;21.271;25.146;10.915;22.352;14.268;8.531;-0.037;9.462
5784529.110;24.550;27.381;9.015;24.028;14.789;11.884;5.402;9.388
5784529.118;28.796;34.943;15.758;24.252;19.930;19.670;13.672;11.474
5784529.126;27.642;33.379;16.354;27.083;27.530;21.420;15.199;13.262
5784529.134;32.783;32.969;20.973;32.745;26.859;25.257;18.440;22.948
5784529.142;26.114;28.238;12.368;27.642;17.807;16.280;10.654;15.162
5784529.150;18.664;25.369;3.465;23.097;6.929;6.184;2.757;0.298
5784529.158;18.626;27.455;3.874;23.693;13.486;9.649;5.662;3.912
5784529.166;25.965;28.536;14.603;27.716;20.191;20.936;18.515;18.142
5784529.174;28.685;33.006;18.850;24.922;17.770;25.705;24.959;17.285
5784529.182;20.936;19.893;8.605;20.154;15.050;21.458;18.962;14.268
5784529.190;24.587;27.753;14.417;26.412;17.397;27.828;20.899;23.693
5784529.198;29.765;34.645;19.670;29.169;26.710;32.894;23.097;26.338
5784529.206;31.926;32.559;21.569;33.118;25.332;30.957;21.718;22.948
5784529.214;31.143;30.249;18.030;31.181;18.030;25.220;17.844;14.976
5784529.222;26.673;24.959;15.758;29.765;18.030;17.881;13.523;12.405
5784529.230;29.020;31.106;18.328;32.745;15.534;19.111;19.372;11.399
5784529.238;33.155;39.674;17.546;31.702;18.589;17.285;19.558;9.462
5784529.246;34.533;32.149;27.120;33.826;33.341;14.603;17.174;10.394
5784529.254;30.436;27.679;19.930;33.826;23.544;12.703;13.299;8.307
5784529.265;28.796;29.802;14.566;30.808;12.219;9.052;7.413;8.047
5784529.273;33.453;33.416;17.062;35.912;16.950;14.640;12.368;17.062
5784529.281;36.806;37.849;19.632;38.631;25.369;20.675;17.695;27.604
5784529.289;25.705;20.452;13.448;26.710;17.248;16.242;14.007;20.042
5784529.297;16.764;20.079;4.880;20.377;10.096;-0.559;-3.614;-3.092
5784529.305;17.993;21.681;5.364;22.575;3.688;-6.035;-7.935;-4.992
5784529.313;19.893;20.564;6.743;18.217;7.227;-7.972;-7.898;-4.396
5784529.321;19.446;14.566;10.915;17.509;15.534;-4.619;-7.525;-0.186
5784529.329;19.744;16.503;9.984;16.950;14.715;-0.708;-3.241;8.084
5784529.337;7.078;5.104;-3.166;6.035;0.224;-2.831;-5.215;7.600
5784529.345;7.227;10.021;-4.992;10.692;-5.141;1.229;5.141;2.906
5784529.353;21.495;25.444;7.525;28.163;2.421;11.772;20.787;7.227
5784529.361;14.156;6.557;2.496;16.876;-2.645;9.052;13.262;4.955
5784529.369;20.526;18.030;6.594;16.727;12.182;17.807;19.073;12.964
5784529.377;18.328;15.944;7.451;7.860;14.305;17.025;15.795;11.139
5784529.385;16.093;9.574;10.692;11.250;9.313;17.956;12.405;13.448
5784529.393;13.337;7.115;1.937;8.419;2.943;13.933;4.843;8.121
5784529.401;17.807;10.505;6.631;10.878;5.811;8.382;0.633;2.086
5784529.409;25.481;17.285;14.454;15.981;19.632;10.617;6.035;9.015
5784529.417;22.873;18.291;10.319;15.981;12.368;10.133;7.302;9.798
5784529.425;23.469;18.068;14.715;22.836;16.876;14.342;10.878;14.640
5784529.433;22.165;22.277;13.709;22.203;10.505;16.540;13.225;19.372
5784529.441;32.000;33.826;16.354;30.547;12.964;25.518;22.165;25.779
5784529.449;38.818;42.357;20.899;32.671;23.134;28.573;28.498;30.696
5784529.461;30.920;31.702;20.750;27.828;16.019;17.434;18.440;19.744
5784529.469;22.762;21.234;9.798;25.220;4.247;10.319;9.984;15.199
5784529.477;24.401;27.753;11.846;25.593;8.792;18.962;16.503;22.389
5784529.485;22.277;32.559;6.333;27.269;0.671;27.008;21.644;30.175
5784529.493;18.813;30.920;3.651;20.973;-2.794;24.028;17.025;27.008
5784529.501;15.423;23.730;6.929;16.093;1.527;15.944;8.680;17.360
5784529.509;9.947;18.217;1.453;19.483;-1.639;12.442;6.929;18.515
5784529.517;12.890;26.524;3.502;20.117;-1.714;13.337;9.909;20.713
5784529.525;15.162;26.487;-0.410;23.171;-9.649;14.268;15.609;17.695
5784529.533;12.778;24.438;-3.204;22.762;-11.511;17.695;19.222;21.905
5784529.541;9.499;24.661;-4.098;16.242;-11.250;19.073;17.621;18.813
5784529.549;6.966;19.968;-4.843;15.609;0.671;20.750;16.242;19.558
5784529.557;12.554;20.117;6.706;16.205;6.780;21.830;15.385;23.618
5784529.565;10.803;18.440;0.894;11.772;-2.384;16.689;9.686;16.019
5784529.573;14.715;25.891;4.135;14.193;-7.004;19.222;13.225;21.905
5784529.581;10.841;19.073;2.272;8.978;-9.015;17.397;12.703;21.979
5784529.589;10.319;16.615;-5.737;7.488;-6.631;16.727;12.778;20.079
5784529.597;15.832;23.097;3.800;14.454;4.992;20.042;19.036;22.985
5784529.605;24.773;36.061;12.293;22.538;9.276;18.477;19.856;21.420
5784529.613;22.352;33.602;7.115;23.656;2.310;10.505;10.952;13.672
5784529.621;18.068;26.785;9.313;14.938;-6.817;6.668;3.800;8.568
5784529.629;13.039;18.589;0.298;8.941;-10.878;6.221;2.682;7.898
5784529.637;16.354;22.762;-1.341;14.976;-4.023;11.586;9.872;15.013
5784529.645;23.991;28.461;7.153;22.985;6.109;18.701;19.968;18.738
5784529.670;25.332;43.139;10.617;23.246;4.582;15.348;20.638;13.858
5784529.678;17.323;30.920;4.582;16.391;-0.708;8.382;12.442;8.531
5784529.686;13.597;18.589;5.588;13.933;-4.247;7.711;9.164;13.411
5784529.694;8.643;14.082;-2.049;4.880;-9.499;4.880;2.645;17.360
5784529.702;10.096;14.491;-2.049;6.817;1.900;9.835;3.651;22.203
5784529.710;16.615;22.203;3.502;9.090;7.488;7.935;0.671;20.117
5784529.718;35.726;41.611;26.599;18.068;28.498;11.995;6.557;24.289
5784529.726;51.372;49.509;50.552;23.060;52.527;9.574;6.594;21.085
5784529.734;73.276;69.812;78.380;39.227;76.294;11.809;8.866;20.862
5784529.742;109.784;109.635;119.172;78.455;104.569;12.740;10.021;21.569
5784529.750;140.108;143.126;151.061;107.065;123.866;15.981;15.795;26.152
5784529.758;173.859;176.318;187.345;142.604;147.112;15.721;19.893;22.203
5784529.766;197.105;195.727;211.596;165.515;154.823;18.142;24.401;24.550
5784529.774;220.649;234.284;236.817;205.301;172.853;36.061;42.990;41.053
5784529.782;221.282;236.370;229.813;214.614;168.346;39.749;45.672;43.958
5784529.790;214.800;226.684;219.569;212.714;149.161;41.500;45.300;41.388
5784529.798;201.389;218.302;200.830;208.318;122.897;48.652;52.787;48.578
5784529.806;180.863;201.873;172.257;197.738;89.407;50.478;56.922;51.074
5784529.814;160.933;183.061;142.492;182.353;65.379;44.554;52.750;41.239
5784529.822;137.575;161.119;110.641;163.279;35.912;40.941;49.062;36.582
5784529.830;125.654;147.372;99.242;152.998;22.650;43.400;49.435;43.027
5784529.838;111.945;129.044;86.091;140.183;15.758;46.156;52.974;46.939
5784529.846;93.207;108.443;68.843;124.164;2.980;43.288;47.274;43.698
5784529.854;86.054;104.010;59.642;120.215;-6.966;43.139;47.907;37.551
5784529.819;86.315;109.412;56.513;125.468;-10.654;44.778;51.185;39.227
5784529.827;84.303;108.033;52.489;126.287;-13.188;41.574;48.205;46.343
5784529.835;75.288;96.001;42.841;116.788;-20.191;38.072;46.529;43.921
5784529.843;68.992;86.427;35.353;106.841;-30.771;39.153;47.311;37.067
5784529.851;67.092;86.874;34.086;108.555;-31.665;51.409;58.562;46.752
5784529.859;51.334;72.531;19.968;93.095;-40.308;45.970;55.805;41.686
5784529.867;46.119;68.396;18.626;84.490;-45.002;33.043;46.156;30.957
5784529.875;46.305;66.943;17.323;86.650;-44.852;31.292;44.629;30.473
5784529.883;45.411;66.571;15.832;86.017;-41.090;34.571;42.208;36.359
5784529.891;40.010;60.871;7.488;79.498;-50.701;32.708;36.694;38.445
5784529.899;38.892;59.642;7.413;81.584;-50.217;38.184;44.815;46.715
5784529.907;33.006;51.484;1.006;77.188;-54.687;37.625;46.156;47.311
5784529.915;33.975;50.589;0.931;76.219;-53.570;44.070;51.707;50.813
5784529.923;37.067;52.638;3.763;81.696;-53.234;49.323;53.421;54.725
5784529.931;29.467;45.076;-2.161;75.586;-59.493;48.243;52.527;48.913
5784529.939;21.048;38.147;-8.568;64.410;-64.149;47.013;52.080;42.804
5784529.947;21.718;41.239;-7.115;63.628;-64.857;46.045;50.813;40.345
5784529.955;21.793;32.634;-8.568;64.261;-63.106;50.813;51.893;48.093
5784529.963;30.622;49.546;1.900;70.930;-50.478;59.381;60.983;55.172
5784529.971;30.510;47.758;1.565;69.328;-48.093;56.401;60.126;48.801
5784529.979;24.363;37.663;-4.098;62.883;-55.581;49.062;55.209;42.319
5784529.987;21.495;35.651;-7.339;62.697;-62.771;39.265;45.784;34.980
5784529.995;28.536;44.107;-1.304;73.984;-57.146;35.763;43.549;35.688
5784530.003;33.900;49.286;6.445;75.102;-52.936;33.826;43.251;38.669
5784529.957;20.936;33.081;-4.135;65.602;-60.983;25.034;36.135;28.461
5784529.965;12.256;26.599;-11.362;57.258;-75.847;18.589;31.143;21.309
5784529.973;16.429;27.604;-1.378;60.312;-64.522;22.165;33.975;26.971
5784529.981;20.415;32.410;2.533;64.485;-49.099;26.561;33.677;29.877
5784529.989;25.295;36.806;7.041;66.273;-42.170;31.665;37.625;34.273
5784529.997;13.448;24.736;-7.823;49.025;-55.805;19.409;26.338;24.177
5784530.005;14.603;23.395;-7.637;51.372;-59.120;18.254;26.822;21.942
5784530.013;17.285;25.555;-5.774;52.452;-58.524;19.558;30.994;25.593
5784530.021;18.589;25.705;-1.639;56.401;-57.630;25.295;35.465;33.267
5784530.029;17.770;26.748;-2.310;60.685;-59.158;28.946;35.465;37.290
5784530.037;12.740;23.618;-5.923;55.768;-62.585;23.171;29.020;29.840
5784530.045;20.489;26.859;0.596;62.175;-55.805;26.487;34.906;31.330
5784530.053;24.997;29.840;8.643;63.740;-51.372;29.057;41.239;32.112
5784530.061;25.406;38.520;8.121;63.665;-52.080;27.008;39.488;30.883
5784530.069;22.464;32.000;7.749;58.077;-52.750;24.363;36.098;31.814
5784530.077;23.171;31.032;5.402;59.530;-53.793;23.134;34.310;32.634
5784530.085;31.330;37.737;13.411;66.422;-44.964;30.883;41.351;42.170
5784530.093;28.163;31.963;10.207;61.467;-48.466;21.569;30.585;30.845
5784530.101;31.218;34.198;14.864;65.789;-45.374;20.750;29.057;28.051
5784530.109;39.898;39.972;25.332;74.953;-33.304;28.722;36.061;41.500
5784530.117;35.502;42.990;21.383;71.973;-35.241;23.954;30.957;39.116
5784530.125;37.253;49.658;22.687;74.543;-33.379;28.238;37.588;42.357
5784530.133;36.731;44.927;21.979;75.176;-36.061;36.471;46.603;48.168
5784530.141;28.238;35.651;12.740;65.640;-45.635;32.298;39.861;43.213
5784530.105;45.896;53.681;34.794;83.707;-23.693;46.827;57.183;58.040
5784530.113;74.990;82.999;65.751;110.567;4.172;73.016;84.192;88.066
5784530.121;57.593;68.992;44.741;89.891;-19.036;54.613;66.161;73.016
5784530.129;46.715;61.095;32.336;82.180;-28.573;37.700;50.627;57.183
5784530.137;6.184;20.303;-5.402;42.059;-64.075;9.201;16.317;41.202
5784530.145;-9.649;5.588;-20.415;27.232;-78.753;3.092;13.150;26.040
5784530.153;59.977;79.609;48.615;100.210;-18.589;55.544;70.445;69.998
5784530.161;90.785;113.025;80.019;127.666;1.416;64.559;84.192;80.392
5784530.169;76.741;96.187;63.218;110.865;-18.515;44.480;61.058;69.477
5784530.177;32.857;47.646;26.487;68.508;-54.911;2.272;10.319;44.927
5784530.185;-11.772;6.333;-16.168;26.636;-91.568;-41.462;-32.820;19.819
5784530.193;-66.608;-46.045;-67.428;-27.344;-142.865;-87.656;-70.743;-12.890
5784530.201;-106.134;-82.478;-109.822;-64.857;-179.298;-151.806;-118.278;-80.615
5784530.209;-171.438;-146.851;-175.275;-127.964;-242.442;-232.346;-192.747;-158.139
5784530.217;-215.098;-188.537;-218.041;-173.263;-286.475;-282.079;-240.356;-196.211
5784530.225;-150.725;-118.576;-154.562;-108.443;-228.584;-229.292;-184.439;-137.128
5784530.233;-210.218;-177.100;-216.104;-165.701;-282.414;-293.851;-252.686;-180.677
5784530.241;-317.507;-288.896;-326.037;-282.191;-387.616;-402.033;-368.245;-262.782
5784530.249;-418.648;-390.895;-424.646;-391.491;-490.397;-503.063;-474.937;-337.660
5784530.257;-455.752;-432.543;-457.466;-425.614;-526.831;-554.658;-522.621;-392.981
5784530.265;-520.758;-502.318;-515.580;-485.927;-582.002;-624.768;-586.621;-455.417
5784530.273;-629.909;-611.395;-628.307;-593.066;-686.012;-747.144;-709.444;-551.604
5784530.281;-630.356;-612.997;-623.725;-599.548;-688.024;-776.388;-739.954;-548.884
5784530.289;-557.117;-542.663;-545.681;-535.771;-614.673;-737.384;-699.088;-471.286
5784530.300;-576.675;-558.160;-564.307;-556.782;-636.540;-819.676;-765.026;-492.856
5784530.308;-566.579;-552.833;-555.143;-551.082;-626.557;-878.386;-769.682;-468.604
5784530.316;-596.307;-578.202;-588.000;-583.306;-656.769;-964.217;-803.471;-490.397
5784530.324;-684.522;-628.717;-702.180;-661.649;-772.029;-1054.481;-884.458;-575.930
5784530.332;-781.007;-741.705;-781.007;-751.279;-856.258;-1122.989;-966.862;-659.153
5784530.340;-820.719;-794.046;-808.835;-796.244;-884.756;-1161.732;-992.455;-688.434
5784530.348;-854.433;-839.755;-823.587;-831.075;-911.951;-1185.425;-1014.993;-716.783
5784530.356;-896.677;-890.791;-855.811;-874.139;-943.281;-1208.559;-1049.116;-755.936
5784530.364;-919.662;-919.662;-870.973;-903.644;-958.219;-1204.461;-1048.706;-765.808
5784530.372;-937.879;-938.438;-884.347;-922.941;-975.542;-1207.031;-1033.396;-777.543
5784530.380;-968.464;-967.905;-913.143;-953.749;-1006.462;-1229.756;-1034.737;-817.664
5784530.388;-969.283;-969.283;-911.132;-953.265;-1015.104;-1221.560;-1016.520;-823.289
5784530.396;-951.067;-952.333;-887.886;-936.687;-995.100;-1193.657;-990.406;-811.107
5784530.404;-931.658;-932.775;-863.411;-917.464;-973.009;-1161.173;-957.884;-795.349
5784530.412;-901.446;-904.649;-833.645;-886.731;-952.780;-1103.580;-903.234;-751.875
5784530.420;-866.465;-874.773;-791.363;-858.754;-914.782;-1062.974;-863.634;-719.763
5784530.428;-823.513;-831.969;-746.138;-822.879;-866.912;-1024.827;-823.773;-689.030
5784530.436;-799.559;-808.947;-723.265;-806.563;-839.010;-1003.481;-796.579;-682.473
5784530.444;-758.953;-763.200;-678.822;-771.694;-792.481;-968.166;-755.228;-650.995
5784530.452;-717.752;-714.622;-632.443;-733.100;-749.677;-933.819;-715.554;-621.863
5784530.460;-677.966;-672.862;-595.897;-693.984;-704.676;-887.811;-667.386;-582.151
5784530.468;-612.549;-605.099;-534.244;-622.272;-642.985;-814.945;-593.476;-518.933
5784530.476;-544.302;-533.313;-462.458;-549.071;-579.096;-744.127;-518.933;-457.503
5784530.484;-464.059;-456.274;-378.750;-462.532;-497.252;-658.482;-435.449;-381.172
5784530.495;-333.600;-324.771;-252.090;-331.514;-369.586;-523.627;-304.393;-252.910
5784530.503;-200.234;-189.915;-121.668;-203.066;-238.381;-384.524;-167.824;-119.321
5784530.511;-81.956;-71.079;2.049;-80.056;-114.515;-254.028;-45.747;5.104
5784530.519;31.590;44.405;116.304;38.259;-7.153;-130.087;67.875;114.553
5784530.527;89.109;97.416;169.314;94.101;52.899;-52.452;134.483;180.453
5784530.535;113.770;119.433;192.374;121.705;76.257;-19.409;163.652;202.879
5784530.543;122.562;134.856;200.607;138.246;83.856;-6.407;180.453;210.740
5784530.551;137.985;146.627;216.775;152.364;106.208;3.316;198.409;221.692
5784530.559;157.729;170.879;236.370;170.916;123.046;15.423;216.290;238.493
5784530.567;178.106;191.368;256.337;194.050;140.145;31.218;233.762;251.755
5784530.575;192.113;198.372;271.238;209.659;160.113;43.176;243.001;265.501
5784530.583;202.954;207.201;282.750;224.821;166.818;48.429;243.708;267.252
5784530.591;223.108;232.048;301.301;252.128;182.874;62.659;254.884;275.150
5784530.599;233.836;246.577;302.307;264.533;194.795;81.509;271.872;286.326
5784530.607;237.674;246.130;308.901;270.233;197.813;101.067;286.922;296.161
5784530.615;251.234;263.229;318.959;285.432;212.044;129.156;311.323;315.644
5784530.623;286.773;307.597;352.226;321.046;251.718;170.544;348.948;349.283
5784530.631;307.634;326.037;369.884;343.174;273.995;197.701;374.205;363.663
5784530.639;312.030;333.190;368.170;353.754;274.144;206.232;379.197;362.508
5784530.647;312.440;334.904;369.251;357.181;267.252;209.883;376.068;363.030
5784530.655;316.948;342.764;374.429;362.843;269.599;218.786;379.458;370.219
5784530.663;316.687;341.944;369.214;363.402;275.597;217.184;378.266;365.116
5784530.671;312.030;336.990;362.843;362.359;269.450;211.895;374.466;353.493
5784530.679;309.609;334.084;356.697;364.520;259.876;213.273;374.056;350.587
5784530.690;310.615;342.242;359.341;366.829;265.948;216.588;373.870;348.389
5784530.698;316.985;349.507;359.379;377.111;274.815;220.388;378.601;345.483
5784530.706;298.098;329.688;337.809;363.067;250.749;204.220;358.969;323.392
5784530.714;271.387;294.670;317.805;334.978;227.280;183.694;333.115;296.235
5784530.722;261.851;288.822;307.932;322.908;221.618;176.393;323.467;282.824
5784530.730;255.369;273.883;300.817;318.177;215.508;177.324;319.704;282.340
5784530.738;241.771;262.596;283.383;301.972;204.965;172.630;313.409;272.132
5784530.746;223.331;241.809;267.513;286.922;187.755;159.629;295.527;250.638
5784530.754;212.900;228.956;257.716;280.552;178.479;159.629;288.673;244.416
5784530.762;209.287;226.870;256.039;280.850;173.859;160.746;287.145;242.367
5784530.770;206.195;222.363;252.388;275.820;167.526;155.866;278.093;233.389
5784530.778;205.301;224.486;248.775;274.293;168.905;149.235;266.433;225.902
5784530.786;208.505;231.937;247.918;276.715;171.475;144.839;256.337;221.096
5784530.794;201.240;224.374;233.129;265.799;160.821;139.065;245.087;218.153
5784530.802;192.001;216.365;219.494;256.076;147.223;132.434;233.650;207.350
5784530.810;187.680;210.367;218.190;254.810;141.338;133.105;228.211;204.369
5784530.818;193.827;211.447;226.945;262.447;150.315;143.833;233.576;208.132
5784530.826;183.843;208.206;215.992;253.879;143.461;136.644;220.798;194.013
5784530.834;162.870;186.525;198.334;234.060;127.368;119.209;201.054;174.902
5784530.842;154.972;176.393;187.755;224.970;119.805;112.206;190.660;173.151
5784530.850;137.053;153.668;166.409;209.138;99.652;96.969;169.314;161.491
5784530.858;140.816;158.735;164.397;208.393;105.500;96.820;167.601;153.407
5784530.866;147.782;164.919;171.401;216.290;112.839;105.277;176.057;157.282
5784530.874;140.928;157.878;166.446;208.803;102.147;100.024;173.263;145.696
5784530.857;129.119;146.702;149.980;197.291;88.364;87.209;161.156;124.760
5784530.865;121.072;136.010;142.343;187.457;81.174;87.991;157.021;124.872
5784530.873;125.803;143.573;144.988;193.641;91.605;92.648;154.413;131.503
5784530.881;115.819;127.964;133.775;180.714;82.031;87.805;144.616;128.485
5784530.889;103.824;109.784;122.152;164.583;66.347;85.793;137.538;125.542
5784530.897;100.918;114.776;116.043;161.305;67.577;86.948;139.326;117.645
5784530.905;109.076;119.619;123.344;173.189;71.190;78.082;134.148;105.277
5784530.913;120.401;139.475;129.938;194.125;68.285;86.874;142.381;114.515
5784530.921;130.311;149.868;140.257;205.748;67.279;94.064;149.459;117.049
5784530.929;137.538;155.792;146.180;215.806;76.666;100.285;153.892;113.361
5784530.937;142.530;153.556;148.043;222.139;72.457;103.824;152.849;115.819
5784530.945;143.014;155.754;149.980;224.635;78.082;110.380;156.052;120.699
5784530.953;147.820;159.927;152.066;229.180;90.040;117.421;159.033;129.566
5784530.961;149.608;159.927;148.788;226.945;85.831;119.209;155.345;129.603
5784530.969;142.120;155.531;145.398;218.712;79.945;112.541;145.622;117.011
5784530.977;130.422;142.008;130.124;208.877;73.388;107.773;146.218;104.159
5784530.985;122.227;128.746;124.611;202.805;66.385;105.798;146.180;94.734
5784530.993;120.550;125.132;122.003;196.546;64.559;110.120;144.206;94.585
5784531.001;119.917;125.542;119.060;201.315;63.218;118.017;145.547;96.001
5784531.009;117.458;124.946;113.919;201.091;59.046;122.748;141.785;95.963
5784531.017;111.423;116.266;105.947;188.909;53.123;116.378;128.672;92.424
5784531.025;114.702;115.260;109.859;189.804;60.573;119.470;134.334;94.101
5784531.033;123.307;127.181;115.708;197.776;67.167;121.593;144.728;97.789
5784531.041;123.270;126.176;121.705;195.056;65.304;120.550;148.863;93.356
5784531.004;108.071;108.369;103.973;181.124;54.017;106.469;133.030;79.200
5784531.012;101.551;101.067;93.319;174.828;44.964;102.222;125.244;74.506
5784531.020;101.104;97.901;93.952;173.040;41.202;104.606;122.562;74.357
5784531.028;98.348;93.803;88.699;168.160;45.300;106.655;122.078;75.288
5784531.036;98.012;95.367;83.894;168.346;47.572;111.721;122.376;80.466
5784531.044;92.238;92.648;80.578;163.168;36.545;108.629;116.229;70.557
5784531.052;94.436;87.209;85.309;162.460;35.129;112.243;116.229;68.359
5784531.060;95.554;91.046;89.481;158.213;39.004;120.886;122.972;73.016
5784531.068;99.912;93.617;87.135;163.242;50.440;127.256;126.883;76.666
5784531.076;96.001;87.731;84.452;156.164;50.254;126.883;125.878;72.494
5784531.084;91.344;80.205;80.876;152.662;47.125;124.201;120.774;66.198
5784531.092;90.525;79.051;77.263;154.935;42.468;124.760;121.146;68.322
5784531.100;115.484;101.365;103.861;180.267;68.024;147.894;146.851;85.905
5784531.108;144.206;133.701;132.211;207.871;97.156;164.211;167.713;99.242
5784531.116;151.135;140.108;139.810;210.479;103.004;163.615;166.669;98.348
5784531.124;173.934;160.933;166.968;230.968;127.144;163.466;164.695;99.577
5784531.132;192.262;179.373;187.866;244.826;143.908;160.336;161.082;96.187
5784531.140;211.336;197.962;212.751;260.808;162.460;157.952;153.929;89.854
5784531.148;238.307;226.386;243.634;284.389;183.433;163.913;156.984;92.611
