Timestamp,AFz,AF3,AF4,AF7,AF8,Pz,P3,P4,2024-04-10 13:09:24.697,fs=125
2339680.999;20.899;31.777;14.603;36.284;7.451;17.248;12.442;16.131
2339681.007;18.142;28.983;13.225;34.422;8.829;20.079;17.472;18.254
2339681.015;11.735;22.762;7.600;27.455;4.694;20.415;19.521;18.515
2339681.023;1.192;12.405;-3.017;15.870;-5.886;16.093;15.572;14.789
2339681.031;1.490;13.039;-2.831;18.701;-3.837;16.093;15.199;12.480
2339681.039;1.341;12.666;-4.023;18.626;-5.029;13.337;10.729;9.574
2339681.047;-3.055;6.594;-7.190;13.001;-7.451;10.654;7.041;6.817
2339681.055;-6.407;2.161;-9.127;8.866;-7.674;8.717;5.774;5.215
2339681.063;-8.158;1.565;-11.921;6.743;-10.431;5.849;2.347;3.912
2339681.071;-15.348;-3.986;-19.148;2.906;-17.360;-0.931;-4.694;0.782
2339681.079;-14.044;-3.502;-17.472;3.092;-15.460;1.453;-1.192;4.955
2339681.087;-12.815;-2.421;-17.658;3.986;-16.652;5.364;4.433;7.674
2339681.095;-16.056;-6.445;-21.867;-0.224;-19.409;4.619;5.290;6.296
2339681.103;-15.162;-5.923;-20.862;0.708;-18.440;6.557;8.643;2.980
2339681.111;-15.013;-5.104;-21.197;2.235;-20.452;11.809;14.715;4.917
2339681.119;-15.236;-5.029;-20.750;2.123;-18.477;13.150;17.025;6.221
2339681.127;-12.293;-3.502;-17.583;3.725;-14.640;13.597;15.832;8.158
2339681.135;-13.262;-4.135;-19.222;3.427;-18.068;11.995;10.766;8.307
2339681.143;-13.039;-2.235;-18.701;4.582;-18.403;8.941;4.917;7.190
2339681.151;-14.380;-3.688;-20.266;3.017;-20.266;3.725;0.931;2.310
2339681.159;-17.323;-8.345;-23.991;-2.645;-22.165;2.123;-0.261;1.006
2339681.167;-17.546;-9.686;-24.773;-4.284;-23.730;4.694;2.980;2.086
2339681.175;-13.523;-6.631;-20.675;-0.633;-20.191;6.221;5.215;3.241
2339681.183;-12.964;-5.625;-19.297;-1.043;-17.323;1.974;3.353;0.224
2339681.132;-13.821;-4.992;-20.862;-0.894;-17.993;0.782;4.172;-1.304
2339681.140;-12.815;-3.278;-20.377;1.676;-16.764;1.155;5.700;-1.155
2339681.148;-11.846;-0.857;-19.781;3.651;-16.503;0.298;4.433;-2.682
2339681.156;-9.723;-0.410;-17.770;2.906;-14.678;1.416;3.539;-1.565
2339681.164;-14.827;-6.892;-24.438;-5.700;-22.277;2.235;0.931;0.596
2339681.172;-7.600;1.341;-17.509;2.831;-16.540;2.235;-0.671;1.006
2339681.180;14.231;20.713;5.774;19.744;3.316;2.719;0.335;2.794
2339681.188;26.152;32.000;17.509;29.169;12.442;8.382;7.860;8.121
2339681.196;35.502;39.786;27.008;35.726;19.483;11.325;12.405;9.239
2339681.204;38.110;42.170;28.536;38.669;21.979;12.107;14.342;9.499
2339681.212;26.450;32.075;17.621;31.255;11.064;7.153;8.680;4.917
2339681.220;21.532;26.152;12.964;25.034;6.072;5.141;7.227;3.465
2339681.228;23.171;28.424;14.082;27.381;8.680;5.737;10.282;2.831
2339681.236;23.879;29.206;13.039;29.095;8.903;7.562;13.523;4.545
2339681.244;23.022;29.057;9.201;28.349;6.109;10.207;13.039;9.350
2339681.252;19.409;25.965;6.370;24.810;3.502;9.350;8.009;9.425
2339681.260;15.832;22.836;3.576;21.607;2.049;13.076;11.623;10.841
2339681.268;14.268;21.756;2.943;18.664;2.123;18.552;18.589;16.168
2339681.276;6.482;13.560;-3.390;8.680;-1.304;16.242;16.764;12.554
2339681.284;-3.241;3.017;-12.927;-3.055;-10.952;11.846;13.746;6.109
2339681.292;1.378;7.488;-8.680;1.825;-7.413;17.770;22.352;9.574
2339681.300;-0.484;6.333;-9.611;2.421;-6.780;15.832;21.458;6.072
2339681.308;2.347;9.313;-5.886;5.290;-1.378;17.323;22.836;9.090
2339681.316;-2.421;5.178;-10.394;0.708;-7.674;12.703;16.950;6.743
2339681.328;-1.788;5.737;-10.096;1.490;-7.823;8.270;12.256;5.662
2339681.336;5.476;12.890;-2.049;9.872;0.000;11.139;15.162;8.643
2339681.344;4.917;12.629;-1.751;8.568;-1.043;10.729;12.293;7.004
2339681.352;3.427;12.554;-1.751;9.686;1.416;12.033;14.119;8.084
2339681.360;5.625;15.721;0.894;13.672;4.135;14.193;17.136;8.754
2339681.368;8.307;17.472;2.198;15.125;4.657;18.179;19.483;13.076
2339681.376;11.288;18.962;4.098;17.583;7.339;21.309;21.234;15.460
2339681.384;8.456;15.609;2.570;14.156;6.445;18.030;19.781;11.250
2339681.392;6.706;15.646;1.565;15.385;5.662;18.142;20.377;9.909
2339681.400;0.484;8.233;-4.359;9.313;-0.820;17.695;20.154;9.686
2339681.408;-7.339;0.522;-11.399;2.719;-7.525;14.603;17.285;8.829
2339681.416;-1.825;5.923;-5.811;9.164;-0.112;18.924;21.271;15.050
2339681.424;-8.270;0.596;-13.672;7.115;-9.388;12.442;14.752;9.537
2339681.432;-15.795;-6.706;-20.824;1.751;-14.566;4.098;6.966;3.055
2339681.440;-11.958;-3.241;-15.832;3.800;-7.413;3.278;6.445;1.043
2339681.448;-4.992;3.353;-8.419;9.909;-0.894;3.800;6.966;3.241
2339681.456;-5.662;1.900;-8.270;7.860;-1.676;2.384;5.104;1.602
2339681.464;-6.035;1.602;-8.196;6.631;-2.272;6.929;9.537;4.806
2339681.472;-9.649;-1.863;-10.617;3.763;-5.849;5.849;8.196;2.012
2339681.480;-10.729;-3.092;-11.474;3.055;-5.402;3.390;5.886;-0.261
2339681.488;-14.901;-6.221;-16.242;-0.857;-9.835;-3.055;-0.559;-5.700
2339681.496;-9.090;-0.782;-10.356;1.825;-4.508;-2.347;0.261;-2.459
2339681.504;-5.886;0.559;-7.078;3.092;-1.304;-1.714;1.937;-0.298
2339681.512;-4.694;1.825;-5.215;4.657;0.708;-3.576;-0.857;0.037
2339681.506;-3.986;4.135;-4.806;8.941;-0.149;-5.551;-3.055;-3.353
2339681.514;1.639;10.245;0.224;14.193;6.557;0.484;3.614;1.490
2339681.522;-0.112;7.451;-0.745;9.499;6.519;0.559;3.055;0.149
2339681.530;-0.373;5.960;0.410;5.700;7.972;0.820;3.427;1.118
2339681.538;-0.671;5.439;-0.112;5.625;7.115;0.857;3.688;0.745
2339681.546;-3.278;3.204;-2.347;4.731;4.172;-0.596;1.974;-0.857
2339681.554;-5.923;0.522;-3.539;1.267;2.049;-3.763;0.298;-5.253
2339681.562;-5.849;0.261;-3.316;1.639;1.788;-2.794;1.267;-6.109
2339681.570;-3.017;3.241;-1.527;6.147;3.725;0.298;2.161;-3.129
2339681.578;-0.633;5.253;0.522;9.984;5.476;2.794;4.470;-0.894
2339681.586;-2.384;4.210;-0.857;9.909;3.651;1.341;3.874;-2.533
2339681.594;0.969;7.674;2.980;13.299;9.276;3.986;8.233;0.075
2339681.602;0.931;8.270;2.272;13.299;9.201;2.831;7.488;-2.161
2339681.610;0.000;8.829;0.484;15.832;5.700;1.714;6.780;-3.465
2339681.618;0.149;8.456;-0.037;16.317;4.694;2.012;7.264;-2.906
2339681.626;2.794;9.909;1.378;16.056;5.849;0.000;5.960;-4.545
2339681.634;4.880;11.809;3.204;16.205;6.258;1.192;6.929;-3.390
2339681.642;10.431;17.881;9.798;22.538;15.199;6.594;11.474;3.465
2339681.650;18.366;26.487;17.956;31.516;24.438;13.299;18.626;8.494
2339681.658;20.601;28.722;21.346;33.788;26.412;13.672;19.297;8.456
2339681.666;26.301;34.496;28.051;38.594;30.883;12.890;17.397;9.164
2339681.674;36.843;43.958;38.445;46.715;39.339;10.543;14.640;7.041
2339681.682;48.466;55.321;49.882;57.817;48.317;7.786;12.890;3.278
2339681.690;55.805;63.479;58.077;67.018;53.309;4.694;10.654;0.931
2339681.688;60.610;69.067;63.144;72.531;54.128;-1.527;4.433;-3.539
2339681.696;72.792;81.398;74.916;84.750;62.361;0.186;6.445;-2.198
2339681.704;97.975;108.965;100.583;113.696;82.143;5.029;11.586;2.235
2339681.712;120.997;132.397;125.021;136.904;101.887;7.339;12.927;2.682
2339681.720;138.693;150.651;144.280;153.929;117.458;11.474;16.280;4.880
2339681.728;154.786;166.893;164.248;169.240;135.079;11.362;16.205;6.817
2339681.736;160.001;171.177;171.289;170.991;141.151;10.803;14.268;9.760
2339681.744;156.388;167.936;168.793;167.005;139.922;8.270;12.219;8.680
2339681.752;147.857;158.176;162.758;155.829;135.154;1.267;5.849;0.671
2339681.760;140.965;148.676;157.095;144.355;133.105;1.863;4.955;1.490
2339681.768;125.393;130.385;142.753;121.482;123.642;-3.837;-0.596;-2.310
2339681.776;108.592;113.063;126.623;101.738;113.025;-10.431;-6.594;-8.382
2339681.784;93.170;97.267;110.455;84.192;100.397;-10.878;-6.668;-8.903
2339681.792;78.417;81.174;94.138;68.061;87.507;-11.623;-7.786;-8.419
2339681.800;61.654;62.920;75.065;50.813;70.743;-14.827;-12.182;-12.107
2339681.808;52.862;54.911;66.496;42.617;63.367;-9.537;-5.551;-6.072
2339681.816;38.818;41.611;51.074;30.585;49.509;-11.995;-8.754;-8.345
2339681.824;33.528;36.731;44.219;25.667;46.641;-11.884;-8.382;-8.270
2339681.832;31.069;34.384;41.015;24.326;44.890;-7.749;-3.055;-4.247
2339681.840;24.065;27.120;32.187;19.521;37.402;-8.531;-2.868;-6.855
2339681.848;22.240;25.071;30.175;17.360;36.694;-2.943;3.129;-2.310
2339681.856;15.199;20.005;23.916;12.815;30.734;-2.161;4.768;-3.986
2339681.864;13.597;18.291;22.314;10.617;29.355;-2.272;3.427;-3.278
2339681.872;15.050;17.658;23.171;8.456;31.926;0.782;3.651;0.596
2339681.868;6.109;8.419;13.523;-0.671;23.358;-3.539;-2.198;-2.235
2339681.876;1.080;3.949;8.419;-5.625;17.993;-3.427;-2.384;-1.639
2339681.884;-2.906;-0.410;3.502;-10.692;14.864;-5.886;-6.035;-4.508
2339681.892;-8.456;-6.370;-1.006;-17.136;11.735;-11.511;-12.107;-8.978
2339681.900;-15.199;-14.156;-6.855;-24.363;6.892;-18.887;-19.595;-15.609
2339681.908;-13.597;-13.150;-5.253;-24.103;8.792;-18.887;-17.956;-13.821
2339681.916;-14.007;-11.288;-6.147;-22.575;8.084;-14.640;-13.225;-9.015
2339681.924;-16.354;-14.007;-9.015;-25.108;6.407;-14.193;-12.480;-9.798
2339681.932;-14.827;-13.150;-9.015;-24.550;6.407;-15.609;-13.001;-13.895
2339681.940;-14.342;-12.778;-9.574;-23.395;5.886;-13.635;-11.027;-13.895
2339681.948;-17.062;-15.907;-12.666;-26.152;2.049;-15.460;-14.827;-14.827
2339681.956;-18.366;-17.546;-13.560;-28.424;1.937;-12.778;-12.740;-9.723
2339681.964;-22.203;-22.538;-16.876;-30.361;0.037;-12.778;-12.368;-8.270
2339681.972;-25.406;-26.040;-19.632;-33.230;-2.347;-11.586;-12.331;-6.557
2339681.980;-29.765;-29.206;-24.103;-36.247;-7.004;-11.697;-13.970;-6.817
2339681.988;-28.610;-28.051;-21.942;-33.565;-4.619;-13.039;-14.976;-7.935
2339681.996;-26.263;-25.295;-19.185;-29.020;-3.241;-12.070;-13.933;-7.115
2339682.004;-28.126;-27.195;-21.309;-30.063;-6.296;-12.517;-13.262;-9.649
2339682.012;-27.083;-25.928;-19.558;-27.791;-5.886;-13.113;-12.964;-12.219
2339682.020;-26.263;-24.997;-19.111;-25.257;-5.215;-15.311;-14.268;-15.944
2339682.028;-27.157;-26.897;-19.595;-26.487;-5.104;-14.454;-12.517;-14.156
2339682.036;-32.149;-31.479;-24.103;-31.516;-9.611;-13.299;-12.740;-11.250
2339682.044;-28.647;-27.493;-20.899;-26.859;-4.619;-8.531;-9.201;-6.184
2339682.052;-26.152;-24.065;-19.036;-23.134;-1.788;-7.041;-8.568;-4.768
2339682.091;-25.816;-23.954;-18.440;-23.544;-1.937;-6.445;-8.643;-4.657
2339682.099;-25.295;-23.320;-18.254;-20.415;-1.527;-9.909;-10.580;-8.494
2339682.107;-21.905;-18.924;-14.789;-15.348;2.384;-8.941;-8.941;-5.104
2339682.115;-23.916;-20.936;-15.534;-17.770;0.782;-14.640;-14.491;-8.121
2339682.123;-28.051;-27.344;-20.415;-25.630;-3.390;-20.191;-20.154;-11.474
2339682.131;-29.244;-30.026;-22.426;-27.604;-6.407;-21.905;-22.128;-12.033
2339682.139;-23.991;-25.369;-17.211;-23.209;-0.112;-14.752;-15.460;-6.184
2339682.147;-27.083;-27.120;-21.867;-24.959;-6.780;-11.772;-10.952;-7.078
2339682.155;-27.977;-26.636;-22.501;-24.885;-6.407;-7.600;-6.296;-4.955
2339682.163;-28.908;-27.567;-23.022;-25.854;-4.843;-3.427;-3.055;-1.043
2339682.171;-36.694;-35.912;-32.224;-32.894;-12.182;-7.302;-7.264;-4.582
2339682.179;-36.359;-36.284;-31.441;-33.006;-9.425;-10.319;-10.170;-7.078
2339682.187;-34.273;-32.634;-28.685;-31.292;-9.276;-12.778;-11.995;-9.760
2339682.195;-34.273;-31.814;-29.355;-30.026;-13.113;-15.385;-14.417;-12.219
2339682.203;-39.265;-36.210;-32.671;-34.459;-15.385;-16.838;-15.683;-10.580
2339682.211;-44.070;-42.282;-35.614;-39.227;-18.328;-18.775;-16.876;-13.113
2339682.219;-42.729;-41.649;-35.167;-38.184;-17.770;-19.558;-16.131;-14.715
2339682.227;-39.265;-37.365;-31.069;-32.857;-13.448;-15.870;-12.033;-10.431
2339682.235;-37.253;-37.365;-27.940;-32.522;-10.282;-15.534;-12.331;-9.835
2339682.243;-34.757;-34.869;-25.630;-29.318;-8.680;-11.064;-9.425;-4.880
2339682.251;-38.631;-39.153;-28.871;-37.365;-10.394;-7.786;-7.674;-4.172
2339682.259;-34.310;-34.459;-25.481;-31.330;-7.749;-5.141;-5.849;-1.527
2339682.267;-19.409;-18.254;-12.740;-13.337;-0.969;-8.866;-11.772;-2.049
2339682.275;-16.019;-15.981;-9.313;-10.990;0.857;-11.101;-12.890;-4.843
2339682.287;-17.248;-17.695;-10.803;-12.033;-0.596;-14.491;-13.188;-10.021
2339682.295;-18.068;-18.328;-11.921;-11.548;-1.192;-12.144;-9.686;-10.468
2339682.303;-21.830;-21.942;-14.156;-14.715;-2.943;-11.623;-8.605;-9.462
2339682.311;-26.412;-25.630;-18.217;-18.813;-6.594;-15.348;-12.890;-11.884
2339682.319;-27.381;-25.593;-21.085;-18.179;-10.468;-15.981;-13.970;-11.399
2339682.327;-27.828;-26.263;-22.054;-18.217;-12.964;-18.589;-15.832;-11.548
2339682.335;-22.687;-21.122;-16.317;-13.411;-7.525;-13.411;-13.076;-6.333
2339682.343;-22.128;-20.489;-15.721;-13.709;-5.402;-9.947;-10.580;-2.980
2339682.351;-21.830;-20.675;-16.615;-13.895;-4.880;-7.637;-7.674;0.931
2339682.359;-24.512;-23.507;-20.042;-16.056;-7.339;-7.935;-5.551;-1.155
2339682.367;-31.181;-31.143;-27.642;-25.816;-16.764;-13.299;-10.692;-7.115
2339682.375;-35.241;-34.571;-30.994;-29.132;-20.377;-20.638;-18.403;-13.933
2339682.383;-30.398;-29.504;-24.214;-24.103;-12.964;-21.942;-19.185;-13.895
2339682.391;-26.934;-26.785;-21.309;-21.830;-10.580;-22.501;-19.521;-14.417
2339682.399;-29.504;-29.579;-23.544;-24.661;-13.709;-22.464;-19.670;-14.529
2339682.407;-34.980;-34.012;-28.312;-28.722;-18.850;-22.165;-20.340;-12.815
2339682.415;-30.063;-28.424;-24.214;-23.283;-14.491;-13.337;-14.007;-4.433
2339682.423;-24.103;-23.805;-18.589;-17.993;-9.462;-8.643;-10.654;-1.937
2339682.431;-27.791;-28.200;-21.383;-22.836;-11.586;-7.860;-9.872;-1.900
2339682.439;-27.306;-27.604;-20.638;-22.873;-14.082;-5.849;-8.792;0.112
2339682.447;-22.426;-22.426;-17.099;-15.385;-10.245;-3.651;-5.551;0.894
2339682.455;-20.303;-20.787;-15.683;-13.448;-10.692;-5.141;-4.917;-1.118
2339682.463;-20.675;-21.569;-14.976;-17.807;-10.021;-12.442;-10.319;-8.941
2339682.471;-19.334;-20.787;-12.703;-16.950;-6.594;-11.735;-9.872;-5.141
2339682.498;-26.599;-27.232;-19.185;-21.458;-12.144;-14.342;-11.958;-7.302
2339682.506;-39.153;-39.451;-31.814;-33.341;-23.730;-13.374;-12.033;-6.109
2339682.514;-41.090;-39.041;-34.980;-31.963;-27.008;-11.623;-10.245;-3.986
2339682.522;-17.062;-15.050;-12.144;-8.568;-8.345;-11.362;-8.270;-3.427
2339682.530;1.267;3.092;6.072;8.009;5.364;-6.966;-3.055;1.043
2339682.538;16.131;17.174;20.340;21.011;13.374;-2.459;0.931;4.284
2339682.546;14.901;15.646;18.515;19.446;9.798;-4.992;-4.172;1.639
2339682.554;14.715;15.497;18.068;19.595;12.293;-6.407;-6.035;0.708
2339682.562;12.033;12.964;14.678;17.621;9.909;-8.419;-7.041;0.782
2339682.570;10.766;11.660;12.368;15.460;7.004;-8.792;-6.966;-1.825
2339682.578;9.425;8.568;10.654;11.586;7.376;-8.345;-5.215;-1.192
2339682.586;11.139;10.505;11.288;10.841;8.866;-10.096;-4.694;-3.353
2339682.594;9.611;10.505;8.531;11.474;3.912;-7.637;-1.676;-3.055
2339682.602;8.270;9.574;6.557;12.293;3.688;-3.986;0.522;0.447
2339682.610;8.494;11.958;6.221;12.368;3.427;4.172;7.525;5.998
2339682.618;3.949;8.009;2.831;8.382;0.000;7.637;11.846;7.004
2339682.626;1.527;5.551;1.788;5.923;-0.447;8.680;13.486;5.364
2339682.634;6.258;8.084;6.557;6.333;3.949;7.562;14.268;1.639
2339682.642;8.009;10.021;8.456;8.196;6.035;5.625;13.374;1.192
2339682.650;5.253;8.233;7.041;7.302;3.502;6.780;13.784;4.508
2339682.658;2.906;5.029;4.359;4.433;0.671;7.711;13.560;7.749
2339682.666;-2.049;-0.484;-0.373;0.224;-2.608;4.321;8.568;6.184
2339682.674;1.788;3.465;2.980;4.768;2.198;5.364;7.264;8.047
2339682.682;2.645;5.290;3.278;6.072;2.719;1.341;3.949;3.725
2339682.782;5.513;8.233;6.258;10.803;6.296;5.327;8.084;7.227
2339682.790;6.631;9.388;6.109;13.113;4.284;7.674;10.356;9.909
2339682.798;3.539;6.258;3.427;11.809;2.682;0.298;3.427;2.347
2339682.806;7.115;9.723;8.084;16.727;6.743;0.484;3.465;1.565
2339682.814;12.442;15.572;14.454;23.022;13.076;3.688;8.009;4.657
2339682.822;8.009;11.660;12.144;18.403;10.356;1.416;6.482;3.465
2339682.830;-2.347;1.453;2.570;7.935;-0.820;-6.072;-1.341;-5.737
2339682.838;-0.894;2.012;2.831;10.431;0.447;-3.763;-0.447;-1.937
2339682.846;2.421;5.178;6.072;14.827;1.714;-3.614;-1.565;-1.192
2339682.854;3.353;5.402;8.307;14.305;4.470;-3.763;-1.378;-0.373
2339682.862;5.811;7.339;9.537;14.827;5.849;-1.639;0.931;1.378
2339682.870;6.333;8.196;9.276;14.193;4.433;-5.662;-1.974;-2.794
2339682.878;13.448;15.460;16.578;23.581;11.101;-8.009;-2.384;-7.637
2339682.886;9.239;10.803;13.039;18.962;8.754;-9.462;-2.943;-8.903
2339682.894;6.482;8.158;11.176;15.944;8.047;-9.611;-4.359;-6.035
2339682.902;11.548;13.299;16.540;20.042;15.348;-5.662;-1.453;0.186
2339682.910;6.780;9.164;11.288;15.236;8.829;-12.740;-6.482;-5.141
2339682.918;3.651;6.519;8.158;11.697;4.694;-18.664;-11.101;-11.362
2339682.926;1.937;3.763;7.302;10.617;3.986;-18.924;-10.654;-13.411
2339682.934;-1.863;-0.447;2.533;5.513;2.980;-22.389;-11.884;-15.609
2339682.942;-0.633;0.969;3.241;4.694;3.017;-20.526;-10.468;-12.144
2339682.950;-1.974;-1.118;1.900;3.129;-0.075;-20.601;-12.517;-10.505
2339682.958;-6.258;-4.992;-1.751;0.782;-2.459;-21.346;-15.460;-12.033
2339682.966;-8.382;-7.153;-4.172;-2.608;-4.992;-20.191;-13.672;-13.597
2339683.008;-9.686;-9.052;-4.806;-2.645;-6.557;-17.919;-10.394;-14.715
2339683.016;-3.316;-1.863;1.453;5.141;-0.522;-6.817;0.708;-6.892
2339683.024;0.484;0.894;5.774;6.184;2.943;0.820;5.662;0.149
2339683.032;0.261;1.006;4.768;6.668;0.186;-0.857;2.161;0.298
2339683.040;1.080;1.229;6.035;7.190;3.427;-2.943;1.043;-0.373
2339683.048;6.258;6.407;10.617;11.362;7.749;-4.843;0.484;-1.527
2339683.056;7.786;8.903;11.101;12.331;6.855;-8.307;-2.049;-4.284
2339683.064;7.302;7.972;9.798;12.442;7.041;-9.499;-2.943;-4.955
2339683.072;7.786;8.121;11.548;12.778;9.127;-7.190;-0.857;-3.427
2339683.080;8.605;8.047;12.964;12.182;8.792;-3.576;3.949;-1.341
2339683.088;5.104;4.284;10.207;8.754;7.376;-7.451;-0.149;-4.992
2339683.096;4.284;3.874;8.978;9.313;4.694;-10.058;-2.719;-5.811
2339683.104;1.341;1.043;5.998;5.215;2.421;-16.019;-7.041;-10.915
2339683.112;0.708;1.378;5.662;7.339;1.565;-14.789;-5.960;-9.090
2339683.120;0.112;0.186;4.880;4.508;2.757;-9.611;-2.906;-4.768
2339683.128;3.763;4.247;6.817;9.537;4.023;-4.284;1.676;-0.633
2339683.136;7.786;9.127;10.803;15.311;5.215;-2.794;3.353;0.112
2339683.144;2.496;3.539;7.749;10.617;3.874;-9.425;-2.943;-7.041
2339683.152;3.688;5.662;10.803;13.225;7.860;-10.952;-3.278;-7.078
2339683.160;6.407;10.468;13.374;18.030;5.811;-9.239;-0.671;-6.407
2339683.168;19.260;25.146;25.108;32.522;12.480;-4.023;3.949;-2.868
2339683.176;37.141;44.256;43.958;53.495;29.542;-2.980;5.625;-2.272
2339683.184;56.140;64.820;62.920;76.219;44.517;-0.745;8.792;1.937
2339683.192;69.700;78.678;77.225;89.258;57.183;-4.955;4.619;-0.447
2339683.248;92.834;104.457;101.849;116.378;77.114;-7.711;1.453;-0.671
2339683.256;114.068;126.287;125.431;138.097;94.734;-4.619;3.651;2.608
2339683.264;130.720;144.243;142.120;155.792;107.214;-2.384;4.917;4.061
2339683.272;140.890;155.419;151.470;165.366;114.441;0.969;7.413;5.141
2339683.280;146.218;159.778;160.001;167.675;120.774;2.794;8.419;7.749
2339683.288;144.280;156.201;160.076;161.454;119.619;-1.900;4.210;2.645
2339683.296;153.556;165.030;169.203;169.724;130.385;0.857;9.462;2.496
2339683.304;154.451;165.105;169.724;169.612;132.062;-0.037;10.207;2.198
2339683.312;147.820;158.288;163.540;162.646;126.809;-3.725;5.402;-1.341
2339683.320;136.159;146.106;153.929;148.639;119.060;-1.974;5.886;0.820
2339683.328;126.101;134.930;144.728;134.893;110.865;-1.229;3.725;3.725
2339683.336;107.884;114.776;125.207;113.882;95.554;-5.625;-1.602;0.298
2339683.344;99.242;103.749;118.613;99.353;94.771;-6.370;-1.490;1.118
2339683.352;82.627;85.868;101.812;80.317;82.627;-9.052;-2.347;-2.272
2339683.360;68.545;70.408;86.799;66.236;71.824;-7.264;-0.224;-2.459
2339683.368;57.556;59.940;74.543;56.215;61.393;-3.986;1.676;-1.229
2339683.376;52.117;55.097;66.906;51.484;55.097;-3.986;2.272;-2.049
2339683.384;44.927;46.939;57.593;42.617;48.801;-1.825;4.582;1.192
2339683.392;36.508;37.327;48.541;32.596;40.382;-5.476;1.043;-4.247
2339683.400;30.175;29.095;41.388;24.363;33.528;-7.711;-2.049;-4.694
2339683.408;27.791;25.034;37.178;19.222;31.814;-6.147;0.335;-2.831
2339683.416;28.089;25.705;35.018;21.271;31.143;-2.682;3.129;-0.484
2339683.424;20.340;17.807;27.940;12.740;27.120;-4.508;0.261;-4.545
2339683.432;8.643;5.886;16.280;0.298;17.248;-8.047;-5.476;-6.370
2339683.500;2.310;0.000;10.207;-6.892;13.635;-7.339;-5.923;-2.868
2339683.508;-4.470;-6.929;4.135;-15.832;10.282;-9.984;-8.531;-6.147
2339683.516;-7.674;-10.133;1.155;-19.781;6.631;-7.488;-4.992;-6.221
2339683.524;-8.792;-11.660;-0.671;-21.532;7.041;-5.215;-2.049;-6.594
2339683.532;-11.772;-14.901;-4.768;-22.911;3.837;-3.725;-0.820;-6.296
2339683.540;-19.372;-21.867;-11.958;-29.132;-3.465;-3.166;-1.863;-3.725
2339683.548;-23.581;-25.257;-17.099;-32.037;-9.462;-1.006;0.112;-1.043
2339683.556;-25.220;-27.344;-18.813;-32.745;-9.872;-2.235;-1.490;-0.633
2339683.564;-30.696;-33.341;-24.177;-39.376;-14.119;-4.955;-4.284;-4.135
2339683.572;-42.766;-44.890;-35.986;-51.036;-23.879;-7.302;-6.333;-5.625
2339683.580;-46.939;-48.392;-38.147;-52.229;-24.922;-9.499;-8.568;-6.668
2339683.588;-44.890;-46.268;-35.278;-48.950;-21.793;-8.382;-6.668;-5.811
2339683.596;-37.365;-40.382;-29.244;-42.021;-16.131;-4.247;-1.825;-2.272
2339683.604;-29.951;-33.304;-21.756;-34.794;-7.786;-0.894;3.241;1.304
2339683.612;-28.759;-32.857;-19.297;-35.278;-6.445;-2.086;1.416;1.527
2339683.620;-35.390;-40.717;-24.773;-43.437;-12.629;-7.339;-5.290;-4.731
2339683.628;-34.869;-40.680;-23.805;-42.953;-11.399;-3.800;-2.831;-2.272
2339683.636;-37.737;-42.804;-27.493;-44.145;-15.162;-3.353;-3.055;-3.427
2339683.644;-37.216;-43.102;-27.493;-44.778;-14.789;-2.608;-2.049;-2.645
2339683.652;-38.370;-43.772;-28.908;-45.113;-15.981;-5.998;-3.800;-4.359
2339683.660;-36.843;-42.953;-28.759;-43.400;-16.242;-7.190;-5.625;-3.576
2339683.668;-39.339;-44.703;-33.192;-44.219;-21.867;-12.107;-12.182;-7.711
2339683.676;-35.390;-40.457;-29.504;-42.692;-17.807;-10.319;-11.437;-5.625
2339683.684;-30.249;-34.943;-25.369;-37.625;-11.921;-7.339;-7.935;-3.576
2339683.640;-26.189;-31.106;-21.346;-33.751;-7.227;-2.198;-1.863;1.043
2339683.648;-36.471;-41.239;-30.845;-43.027;-19.073;-7.711;-6.035;-5.811
2339683.656;-42.543;-46.007;-35.465;-47.050;-23.432;-10.021;-7.451;-7.711
2339683.664;-40.345;-44.405;-33.230;-45.374;-21.309;-5.737;-3.353;-2.533
2339683.672;-41.239;-44.964;-33.192;-47.386;-20.973;-2.198;-0.261;1.267
2339683.680;-47.572;-50.962;-38.557;-51.595;-25.406;-8.084;-6.184;-3.949
2339683.688;-49.472;-51.297;-40.978;-51.074;-29.504;-8.196;-6.706;-5.141
2339683.696;-49.509;-50.962;-41.574;-51.893;-29.542;-9.201;-7.488;-6.892
2339683.704;-47.348;-48.615;-39.712;-50.142;-28.759;-9.276;-5.029;-6.035
2339683.712;-50.068;-50.515;-41.351;-50.217;-29.616;-11.474;-6.221;-8.345
2339683.720;-49.844;-50.291;-41.500;-49.509;-29.728;-11.213;-6.966;-8.829
2339683.728;-54.911;-55.656;-46.566;-55.544;-35.465;-14.715;-12.219;-12.517
2339683.736;-52.378;-53.681;-43.102;-52.936;-31.926;-12.964;-12.554;-11.548
2339683.744;-49.621;-50.589;-39.674;-49.621;-28.834;-13.150;-13.597;-10.952
2339683.752;-49.397;-49.546;-40.382;-48.913;-30.138;-13.299;-13.299;-10.580
2339683.760;-52.787;-54.166;-46.231;-53.048;-38.482;-16.689;-16.131;-13.895
2339683.768;-54.836;-57.146;-47.684;-56.326;-40.084;-16.503;-15.050;-13.821
2339683.776;-59.307;-61.430;-51.633;-60.722;-44.033;-17.807;-15.199;-15.385
2339683.784;-55.917;-58.487;-48.131;-57.258;-40.159;-18.477;-16.093;-13.635
2339683.792;-52.601;-54.501;-44.890;-52.750;-37.178;-21.607;-19.297;-13.858
2339683.800;-54.538;-55.693;-46.454;-53.123;-39.935;-23.171;-20.675;-14.715
2339683.808;-55.879;-57.593;-45.672;-55.172;-39.265;-22.762;-21.011;-15.423
2339683.816;-56.289;-57.071;-47.125;-54.762;-42.431;-24.587;-22.724;-17.434
2339683.824;-54.985;-54.054;-47.870;-51.036;-44.331;-25.406;-21.383;-18.030
2339683.848;-52.005;-49.248;-46.566;-45.784;-43.921;-21.197;-16.689;-15.795
2339683.856;-46.939;-44.890;-41.164;-41.835;-39.190;-12.629;-7.749;-9.239
2339683.864;-46.231;-45.039;-40.643;-42.878;-38.221;-6.557;-3.353;-3.390
2339683.872;-47.870;-46.529;-40.941;-44.964;-37.923;-8.792;-6.482;-4.433
2339683.880;-41.015;-39.525;-34.459;-37.402;-31.255;-6.296;-4.359;-2.012
2339683.888;-34.459;-32.634;-27.306;-29.616;-24.587;-5.700;-3.316;-2.347
2339683.896;-33.528;-32.447;-26.673;-29.691;-24.214;-10.766;-7.525;-6.743
2339683.904;-35.129;-34.161;-29.691;-31.218;-27.120;-13.933;-10.580;-10.543
2339683.912;-39.041;-39.116;-34.831;-36.806;-31.106;-17.770;-14.007;-13.039
2339683.920;-42.841;-43.288;-39.823;-40.904;-35.651;-20.303;-15.013;-14.231
2339683.928;-42.357;-41.574;-37.812;-39.414;-34.794;-18.030;-13.374;-11.697
2339683.936;-39.116;-37.849;-33.081;-35.912;-29.840;-10.394;-7.637;-3.651
2339683.944;-42.170;-39.674;-37.998;-38.594;-36.955;-12.144;-9.015;-5.625
2339683.952;-45.635;-42.431;-41.239;-40.717;-38.669;-14.491;-11.250;-7.935
2339683.960;-44.517;-41.202;-41.910;-37.551;-40.941;-9.462;-6.594;-5.364
2339683.968;-48.131;-45.896;-46.156;-42.096;-44.405;-4.284;-1.825;-3.688
2339683.976;-33.453;-32.410;-28.014;-32.559;-26.785;-0.522;1.229;0.484
2339683.984;-26.599;-25.369;-21.309;-26.785;-23.134;4.023;4.359;5.141
2339683.992;-27.940;-26.524;-22.464;-29.393;-24.661;1.378;1.118;4.359
2339684.000;-29.951;-29.355;-24.326;-30.994;-26.301;3.092;1.267;6.706
2339684.008;-32.149;-32.485;-26.561;-33.565;-25.779;4.992;4.508;7.674
2339684.016;-34.086;-35.204;-27.344;-36.731;-25.518;4.172;4.955;5.700
2339684.024;-35.539;-36.135;-28.573;-38.259;-27.493;-0.857;0.559;1.453
2339684.032;-39.302;-39.488;-32.261;-40.978;-32.298;-10.282;-7.525;-5.141
2339684.013;-41.053;-41.686;-34.645;-42.915;-35.428;-15.758;-11.884;-9.388
2339684.021;-37.067;-37.178;-31.292;-39.339;-32.075;-16.131;-10.543;-8.382
2339684.029;-37.923;-38.147;-33.639;-41.313;-33.714;-17.360;-10.990;-9.350
2339684.037;-36.769;-36.024;-34.198;-38.743;-35.949;-16.131;-9.835;-8.605
2339684.045;-32.634;-31.963;-29.877;-34.384;-29.467;-13.374;-6.668;-8.196
2339684.053;-34.161;-35.092;-30.063;-38.296;-29.840;-14.678;-9.984;-10.021
2339684.061;-35.875;-37.402;-31.851;-41.090;-31.739;-15.721;-12.703;-10.915
2339684.069;-32.857;-33.379;-29.728;-37.476;-29.542;-18.217;-15.497;-11.958
2339684.077;-31.330;-29.579;-28.871;-34.533;-28.387;-15.348;-11.623;-9.909
2339684.085;-37.141;-32.969;-34.943;-39.004;-35.278;-14.827;-9.872;-11.139
2339684.093;-37.514;-34.533;-36.620;-42.282;-37.476;-12.629;-7.562;-8.978
2339684.101;-35.018;-32.522;-33.155;-41.202;-33.900;-8.419;-4.657;-5.066
2339684.109;-28.610;-26.785;-26.524;-35.129;-25.593;-1.267;1.118;1.490
2339684.117;-25.928;-24.177;-23.842;-31.926;-25.369;0.931;1.974;2.459
2339684.125;-22.389;-21.942;-19.222;-30.436;-20.936;0.633;2.272;1.192
2339684.133;-17.211;-17.025;-13.337;-25.071;-15.087;4.582;6.817;3.502
2339684.141;-12.703;-12.591;-8.717;-21.011;-11.623;7.935;9.723;2.235
2339684.149;-13.448;-13.188;-8.978;-22.650;-11.139;5.513;8.270;0.633
2339684.157;-23.991;-24.736;-19.781;-33.043;-19.819;-4.545;-1.304;-6.594
2339684.165;-33.602;-34.347;-27.232;-41.686;-25.667;-11.101;-8.680;-10.505
2339684.173;-39.674;-38.743;-34.235;-44.815;-33.639;-15.832;-13.895;-14.789
2339684.181;-33.379;-32.261;-28.275;-37.588;-27.195;-11.548;-10.021;-10.915
2339684.189;-28.796;-27.828;-23.842;-31.628;-22.575;-10.133;-7.376;-8.196
2339684.197;-31.814;-30.957;-26.897;-33.826;-26.114;-16.317;-13.076;-13.225
2339684.146;-31.404;-30.771;-26.487;-32.634;-26.748;-17.844;-15.572;-13.001
2339684.154;-32.336;-31.479;-28.498;-32.522;-31.330;-21.085;-18.291;-14.864
2339684.162;-31.255;-30.026;-25.742;-30.696;-28.387;-21.346;-17.732;-16.429
2339684.170;-31.888;-31.628;-26.375;-31.218;-29.691;-19.632;-15.423;-16.913
2339684.178;-35.688;-34.422;-28.908;-33.230;-30.920;-19.521;-16.354;-16.876
2339684.186;-39.600;-38.408;-32.224;-39.153;-33.341;-21.271;-20.601;-17.211
2339684.194;-39.749;-38.669;-31.926;-39.302;-33.155;-22.985;-22.687;-17.658
2339684.202;-40.643;-40.308;-33.192;-40.308;-37.141;-25.369;-24.959;-19.297
2339684.210;-38.333;-39.637;-31.590;-40.494;-36.620;-23.209;-21.793;-15.870
2339684.218;-41.835;-43.586;-36.955;-45.672;-41.276;-26.971;-26.934;-18.999
2339684.226;-41.388;-41.798;-37.216;-44.256;-39.972;-25.630;-25.965;-18.179
2339684.234;-44.480;-43.623;-39.004;-46.641;-42.878;-26.338;-24.848;-19.073
2339684.242;-44.592;-43.772;-36.992;-46.045;-41.053;-25.369;-21.420;-18.515
2339684.250;-44.927;-43.623;-37.998;-45.449;-42.655;-22.426;-15.795;-17.509
2339684.258;-50.366;-47.870;-44.182;-50.925;-47.870;-24.550;-17.807;-21.271
2339684.266;-49.360;-46.603;-43.511;-49.658;-47.497;-21.122;-15.683;-18.291
2339684.274;-43.027;-41.649;-37.290;-44.964;-40.829;-17.956;-12.890;-14.417
2339684.282;-42.431;-40.866;-37.737;-42.692;-41.090;-20.042;-16.317;-15.981
2339684.290;-39.376;-38.520;-34.943;-40.308;-38.780;-20.787;-16.689;-15.385
2339684.298;-37.998;-37.737;-33.267;-39.972;-37.476;-19.781;-17.360;-14.380
2339684.306;-42.729;-42.431;-39.116;-45.113;-42.319;-22.501;-18.962;-19.446
2339684.314;-45.374;-43.511;-42.990;-44.368;-46.864;-22.501;-17.956;-18.962
2339684.322;-43.623;-41.090;-40.643;-41.090;-43.549;-21.905;-14.864;-17.695
2339684.330;-37.700;-35.428;-35.353;-34.794;-37.216;-17.025;-8.196;-14.305
2339684.296;-44.368;-42.282;-42.766;-41.053;-46.007;-24.587;-15.870;-22.277
2339684.304;-46.790;-46.566;-43.847;-45.933;-45.747;-27.642;-21.756;-24.289
2339684.312;-51.819;-52.415;-47.535;-52.191;-49.323;-32.447;-28.051;-26.152
2339684.320;-54.762;-55.470;-49.099;-54.948;-50.105;-36.545;-32.894;-30.547
2339684.328;-49.286;-50.701;-44.890;-48.801;-45.225;-33.453;-30.622;-27.940
2339684.336;-42.617;-43.213;-38.892;-42.841;-40.270;-27.232;-24.028;-23.171
2339684.344;-44.741;-45.672;-39.823;-43.958;-40.568;-26.375;-23.022;-24.177
2339684.352;-48.764;-49.397;-44.443;-46.939;-45.970;-26.301;-25.034;-25.146
2339684.360;-45.486;-45.113;-40.866;-42.617;-42.543;-26.189;-24.922;-26.710
2339684.368;-38.370;-38.408;-34.124;-36.992;-38.706;-23.805;-20.526;-25.854
2339684.376;-36.918;-36.955;-32.149;-36.061;-36.322;-24.550;-21.346;-27.344
2339684.384;-35.763;-34.198;-32.820;-33.863;-36.806;-24.699;-21.085;-27.046
2339684.392;-38.631;-37.551;-37.029;-37.439;-40.680;-24.363;-21.532;-24.401
2339684.400;-43.400;-42.766;-39.935;-45.337;-41.984;-26.859;-24.438;-23.432
2339684.408;-46.641;-47.050;-44.554;-49.621;-47.088;-30.175;-27.232;-25.742
2339684.416;-48.876;-49.546;-47.237;-48.801;-50.813;-32.447;-30.138;-27.679
2339684.424;-49.621;-50.738;-47.386;-48.913;-51.856;-32.857;-31.181;-28.983
2339684.432;-46.976;-48.056;-44.219;-47.572;-48.690;-29.989;-27.418;-27.046
2339684.440;-47.237;-48.801;-43.958;-50.589;-48.578;-33.230;-30.547;-31.181
2339684.448;-43.213;-45.374;-40.308;-48.280;-43.549;-29.542;-28.126;-26.822
2339684.456;-41.649;-42.655;-38.333;-44.405;-42.319;-28.461;-27.008;-26.114
2339684.464;-43.847;-44.517;-39.227;-44.778;-43.586;-30.920;-28.722;-29.057
2339684.472;-40.717;-41.351;-37.067;-43.213;-42.059;-29.393;-26.152;-28.536
2339684.480;-38.296;-39.227;-34.049;-41.537;-38.706;-26.710;-23.432;-25.779
2339684.417;-38.259;-39.004;-32.671;-41.574;-38.669;-25.071;-22.799;-22.836
2339684.425;-36.843;-37.625;-30.361;-40.159;-36.508;-28.685;-26.226;-25.518
2339684.433;-30.734;-31.628;-24.028;-33.379;-31.739;-27.828;-25.034;-23.618
2339684.441;-33.341;-34.533;-26.636;-35.912;-33.379;-31.218;-27.753;-24.661
2339684.449;-30.361;-31.404;-22.613;-32.522;-28.573;-29.542;-25.071;-22.948
2339684.457;-25.071;-26.077;-17.807;-26.785;-25.667;-28.759;-23.618;-23.544
2339684.465;-20.154;-21.569;-12.368;-20.973;-20.452;-27.157;-20.713;-23.954
2339684.473;-15.497;-16.913;-8.009;-16.578;-18.962;-27.232;-20.750;-26.412
2339684.481;-7.600;-8.456;-0.559;-9.537;-14.380;-29.989;-23.320;-29.728
2339684.489;7.972;8.233;16.913;6.296;0.857;-29.951;-23.171;-27.195
2339684.497;24.624;26.301;36.433;23.022;18.291;-30.324;-24.624;-27.306
2339684.505;41.947;44.666;54.948;39.749;32.410;-29.840;-26.263;-27.083
2339684.513;59.046;61.728;74.133;54.613;47.386;-27.083;-24.326;-24.140
2339684.521;73.016;74.059;91.270;64.261;61.132;-25.518;-22.911;-22.203
2339684.529;75.474;77.747;94.473;66.385;63.144;-30.436;-27.195;-26.934
2339684.537;86.129;87.656;106.283;77.821;72.941;-26.785;-22.501;-23.469
2339684.545;92.685;93.803;112.318;84.937;77.710;-25.779;-19.819;-23.991
2339684.553;92.648;95.144;109.710;85.160;76.778;-24.661;-18.328;-26.487
2339684.561;87.619;90.450;102.781;80.243;70.632;-21.905;-17.099;-24.214
2339684.569;77.523;80.541;92.387;72.271;61.281;-23.320;-19.856;-24.885
2339684.577;68.545;69.998;83.297;61.020;54.762;-20.564;-17.285;-20.489
2339684.585;55.730;56.289;69.663;46.045;44.480;-18.962;-16.242;-17.434
2339684.593;45.486;44.964;58.636;35.055;37.327;-18.179;-16.205;-16.429
2339684.601;35.837;33.975;46.752;26.338;26.003;-15.497;-14.603;-14.603
2339684.659;27.902;27.232;36.806;22.426;19.521;-12.293;-11.623;-11.921
2339684.667;19.036;18.179;25.928;14.305;12.517;-13.933;-11.586;-14.715
2339684.675;9.462;7.339;15.348;3.539;5.029;-16.950;-16.466;-18.477
2339684.683;1.900;0.447;7.339;-2.608;-0.335;-18.589;-18.291;-17.546
2339684.691;-3.241;-6.184;0.931;-8.158;-7.302;-22.538;-21.644;-19.222
2339684.699;-11.288;-14.529;-7.637;-16.354;-13.448;-27.455;-28.163;-23.134
2339684.707;-13.374;-16.838;-9.388;-17.248;-14.529;-26.040;-28.051;-22.277
2339684.715;-8.531;-11.362;-6.519;-10.729;-13.970;-19.968;-21.309;-19.483
2339684.723;-5.551;-8.009;-4.284;-6.743;-9.798;-12.293;-13.039;-14.603
2339684.731;-9.611;-12.405;-7.488;-10.915;-11.064;-9.350;-10.692;-12.703
2339684.739;-15.385;-16.615;-14.007;-15.832;-17.881;-7.413;-9.574;-12.033
2339684.747;-16.317;-17.993;-14.193;-16.913;-17.472;-3.316;-6.780;-5.998
2339684.755;-23.879;-26.263;-20.266;-24.140;-22.464;-8.866;-12.107;-11.884
2339684.763;-28.163;-30.659;-23.842;-28.908;-25.854;-13.299;-15.795;-14.976
2339684.771;-31.404;-34.235;-28.796;-33.006;-30.398;-19.372;-22.128;-18.738
2339684.779;-31.181;-35.278;-28.647;-35.577;-29.840;-21.644;-26.003;-19.521
2339684.787;-27.493;-33.081;-24.289;-34.161;-25.369;-20.713;-25.369;-17.881
2339684.795;-25.555;-31.330;-21.607;-34.235;-21.271;-19.968;-23.022;-17.360
2339684.803;-21.234;-26.114;-16.429;-29.504;-15.907;-13.895;-15.274;-13.746
2339684.811;-19.893;-23.805;-14.342;-27.418;-12.405;-10.617;-10.245;-11.995
2339684.819;-21.346;-25.444;-16.652;-29.579;-15.087;-14.827;-12.778;-15.981
2339684.827;-23.246;-27.008;-19.111;-30.920;-17.770;-15.013;-13.076;-16.987
2339684.835;-26.375;-29.244;-23.283;-35.465;-22.762;-17.248;-16.987;-18.664
2339684.843;-26.748;-31.032;-23.395;-37.886;-23.246;-18.328;-18.962;-19.148
2339684.822;-23.507;-27.642;-21.085;-33.900;-21.644;-16.317;-15.721;-16.764
2339684.830;-16.056;-19.222;-14.976;-24.885;-15.534;-12.517;-10.282;-14.640
2339684.838;-18.142;-21.495;-16.913;-26.673;-16.913;-13.635;-11.250;-16.391
2339684.846;-25.481;-28.685;-23.469;-32.559;-22.575;-20.377;-18.626;-21.346
2339684.854;-25.257;-28.349;-23.134;-33.528;-21.346;-19.856;-20.415;-19.558
2339684.862;-20.899;-24.214;-18.701;-29.616;-17.099;-14.789;-16.764;-12.629
2339684.870;-23.954;-26.263;-22.501;-29.802;-22.575;-18.775;-19.372;-13.821
2339684.878;-31.292;-34.794;-29.989;-39.004;-29.281;-22.575;-21.607;-19.446
2339684.886;-28.946;-33.528;-28.536;-36.508;-26.673;-16.727;-15.944;-13.821
2339684.894;-26.263;-30.473;-26.748;-33.192;-26.710;-15.646;-14.976;-12.852
2339684.902;-29.616;-33.155;-31.963;-35.167;-32.783;-16.764;-16.429;-14.119
2339684.910;-33.453;-35.204;-36.061;-36.918;-35.018;-15.423;-16.689;-13.374
2339684.918;-35.055;-36.694;-35.726;-37.216;-34.906;-14.938;-14.752;-13.337
2339684.926;-32.671;-34.682;-31.702;-34.422;-31.218;-15.385;-15.274;-14.715
2339684.934;-31.292;-32.857;-30.771;-31.814;-28.312;-14.268;-14.827;-15.609
2339684.942;-30.585;-31.292;-30.994;-29.393;-28.834;-13.001;-11.772;-15.348
2339684.950;-30.920;-31.516;-30.249;-32.485;-27.865;-12.890;-10.617;-12.442
2339684.958;-37.439;-38.370;-36.061;-39.600;-31.926;-16.838;-16.913;-17.285
2339684.966;-42.766;-44.443;-40.792;-45.970;-34.124;-19.521;-20.824;-20.303
2339684.974;-39.898;-42.841;-38.892;-43.660;-33.565;-17.658;-19.632;-17.583
2339684.982;-35.018;-38.669;-34.310;-39.041;-29.989;-16.838;-17.732;-16.205
2339684.990;-30.026;-32.932;-29.504;-32.485;-24.699;-15.087;-16.727;-15.497
2339684.998;-30.808;-33.826;-29.989;-33.826;-23.097;-13.560;-15.311;-13.970
2339685.006;-33.751;-36.582;-32.522;-37.961;-25.295;-13.150;-14.342;-13.337
2339685.004;-35.167;-37.402;-33.788;-38.035;-27.977;-14.529;-15.907;-14.938
2339685.012;-37.961;-41.537;-36.098;-43.064;-29.989;-18.962;-20.377;-18.962
2339685.020;-37.625;-40.010;-35.726;-42.580;-29.765;-20.191;-21.346;-19.632
2339685.028;-35.837;-38.520;-34.049;-41.798;-27.865;-23.060;-23.879;-19.930
2339685.036;-38.221;-41.611;-36.396;-45.188;-29.169;-23.693;-25.220;-19.819
2339685.044;-40.159;-43.549;-39.563;-47.609;-32.261;-23.358;-25.593;-21.197
2339685.052;-41.351;-44.852;-42.133;-47.572;-35.465;-19.111;-21.905;-19.744
2339685.060;-36.843;-40.233;-38.259;-42.692;-31.851;-16.317;-17.174;-17.099
2339685.068;-30.138;-33.826;-32.857;-35.278;-27.008;-15.758;-14.193;-17.099
2339685.076;-27.344;-30.622;-31.032;-31.963;-22.650;-14.417;-10.766;-16.503
2339685.084;-30.957;-32.745;-35.726;-34.869;-29.206;-13.672;-10.841;-16.578
2339685.092;-23.320;-25.742;-27.269;-29.393;-21.830;-11.846;-8.680;-13.858
2339685.100;-29.132;-31.963;-32.410;-36.247;-25.854;-13.448;-9.723;-15.125
2339685.108;-38.408;-42.655;-42.059;-48.988;-32.596;-14.752;-11.586;-16.876
2339685.116;-43.325;-46.603;-46.492;-54.277;-37.774;-15.907;-13.225;-18.738
2339685.124;-47.199;-49.621;-50.254;-57.593;-42.357;-20.117;-18.142;-22.575
2339685.132;-41.388;-43.698;-44.405;-52.787;-36.322;-16.689;-15.795;-20.191
2339685.140;-36.992;-40.382;-39.339;-51.111;-31.963;-12.554;-11.399;-17.844
2339685.148;-29.653;-33.416;-31.963;-45.970;-23.991;-8.792;-6.706;-14.156
2339685.156;-26.301;-29.467;-29.393;-42.357;-23.134;-6.184;-3.539;-12.517
2339685.164;-24.065;-25.779;-27.679;-36.843;-22.240;-1.825;-0.335;-10.990
2339685.172;-21.532;-24.438;-23.879;-34.943;-18.477;0.671;0.037;-8.754
2339685.180;-23.060;-27.008;-23.916;-36.322;-16.205;0.671;-0.149;-6.519
2339685.188;-29.057;-33.155;-29.393;-43.660;-21.420;-2.980;-4.470;-8.643
2339685.181;-31.963;-36.210;-32.373;-46.939;-21.756;-5.774;-7.153;-8.978
2339685.189;-30.771;-34.273;-31.292;-43.996;-21.458;-3.241;-5.588;-6.258
2339685.197;-34.943;-37.737;-35.614;-46.492;-24.959;-6.519;-10.319;-8.121
2339685.205;-40.457;-41.537;-40.457;-49.956;-29.691;-8.829;-12.219;-10.617
2339685.213;-44.703;-45.560;-42.766;-51.931;-31.218;-10.841;-13.523;-14.976
2339685.221;-45.933;-47.088;-43.660;-52.042;-33.155;-11.437;-13.039;-16.131
2339685.229;-40.494;-43.176;-37.663;-47.646;-26.114;-8.978;-10.394;-13.225
2339685.237;-36.992;-39.563;-34.384;-43.958;-21.681;-9.798;-10.952;-12.442
2339685.245;-37.327;-37.923;-35.688;-41.090;-24.028;-11.586;-12.591;-14.193
2339685.253;-30.734;-32.037;-27.940;-36.545;-15.423;-7.600;-8.270;-12.256
2339685.261;-27.902;-28.871;-25.369;-31.926;-14.640;-2.868;-3.166;-8.270
2339685.269;-30.771;-32.149;-29.020;-35.800;-17.919;-2.198;-2.161;-7.153
2339685.277;-34.049;-36.471;-33.304;-39.414;-21.383;-1.602;-2.012;-7.786
2339685.285;-36.135;-39.004;-35.390;-41.202;-23.767;-0.410;-1.788;-6.929
2339685.293;-40.829;-43.027;-39.749;-45.076;-28.759;-2.496;-3.949;-7.413
2339685.301;-45.337;-47.572;-44.778;-48.615;-34.459;-7.302;-7.786;-10.841
2339685.309;-42.282;-44.480;-42.282;-45.672;-31.069;-5.662;-7.935;-8.717
2339685.317;-41.239;-43.623;-42.953;-45.225;-32.969;-4.359;-8.158;-7.749
2339685.325;-40.047;-42.394;-40.233;-42.021;-31.143;-4.582;-9.611;-5.923
2339685.333;-39.898;-41.910;-38.147;-41.388;-28.908;-4.396;-9.686;-5.700
2339685.341;-36.582;-38.780;-35.092;-37.812;-25.630;-0.894;-4.992;-3.837
2339685.349;-36.173;-39.376;-35.018;-39.637;-23.767;0.335;-1.751;-3.800
2339685.357;-40.792;-43.288;-39.935;-43.511;-28.573;0.186;-1.118;-5.290
2339685.365;-39.898;-43.660;-37.439;-44.629;-26.040;3.651;2.496;-2.645
2339685.333;-39.339;-44.182;-37.365;-45.076;-26.338;3.241;0.931;-0.931
2339685.341;-36.620;-42.506;-33.267;-42.841;-23.134;4.023;-0.298;-0.671
2339685.349;-36.620;-43.064;-32.634;-44.741;-22.240;3.129;-1.155;-1.714
2339685.357;-33.341;-39.153;-31.032;-42.245;-21.085;4.582;2.310;-0.633
2339685.365;-32.336;-36.582;-32.336;-38.072;-23.171;4.955;4.508;-0.782
2339685.373;-35.949;-39.861;-36.173;-39.116;-26.748;3.166;2.608;-3.539
2339685.381;-40.717;-43.400;-42.468;-39.525;-36.284;-4.433;-5.513;-10.505
2339685.389;-44.219;-46.417;-46.194;-42.133;-38.072;-7.972;-9.462;-13.411
2339685.397;-45.188;-47.348;-46.827;-44.294;-36.471;-9.201;-12.666;-13.635
2339685.405;-45.300;-47.423;-46.305;-44.107;-35.577;-7.339;-12.256;-9.574
2339685.413;-49.025;-50.701;-49.472;-45.411;-38.594;-10.170;-15.385;-11.772
2339685.421;-42.841;-42.878;-45.002;-37.439;-35.763;-6.407;-11.139;-9.388
2339685.429;-32.522;-33.043;-36.620;-28.871;-27.940;3.278;-1.602;-2.682
2339685.437;-32.708;-34.757;-38.594;-31.516;-29.467;0.559;-3.912;-6.035
2339685.445;-35.912;-37.104;-41.910;-34.571;-33.043;2.347;-0.671;-5.513
2339685.453;-35.018;-35.577;-39.823;-32.932;-30.026;2.608;0.000;-4.210
2339685.461;-27.120;-28.424;-32.261;-25.891;-22.985;0.782;-1.751;-2.943
2339685.469;-19.483;-21.756;-24.922;-20.079;-15.944;1.825;-0.596;-1.416
2339685.477;-24.624;-26.748;-29.020;-25.108;-20.415;-0.894;-3.986;-5.066
2339685.485;-29.616;-31.926;-33.714;-30.845;-25.965;-7.004;-9.276;-9.872
2339685.493;-31.367;-34.086;-34.720;-32.596;-26.040;-10.878;-13.374;-10.282
2339685.501;-28.051;-30.510;-30.100;-28.014;-21.532;-12.070;-15.534;-9.611
2339685.509;-20.750;-23.134;-22.426;-22.873;-14.342;-10.915;-15.572;-9.015
2339685.517;-20.824;-22.314;-22.464;-21.420;-14.529;-9.686;-15.087;-8.978
2339685.543;-24.028;-26.189;-25.071;-24.922;-15.534;-5.439;-11.027;-6.594
2339685.551;-25.555;-29.542;-28.238;-28.685;-18.626;-3.427;-8.158;-7.376
2339685.559;-26.077;-30.734;-28.089;-29.467;-18.403;-5.625;-9.574;-8.866
2339685.567;-28.610;-33.900;-29.802;-31.069;-19.670;-5.066;-8.866;-7.823
2339685.575;-33.155;-37.365;-34.571;-35.428;-25.257;-8.605;-12.033;-10.878
2339685.583;-30.398;-32.857;-33.155;-30.920;-22.948;-7.451;-8.456;-10.207
2339685.591;-29.057;-30.920;-32.969;-27.716;-22.873;-6.966;-7.749;-10.058
2339685.599;-29.653;-32.969;-30.696;-29.467;-21.048;-10.468;-9.984;-13.001
2339685.607;-26.636;-30.212;-26.599;-27.642;-18.179;-9.537;-7.935;-13.448
2339685.615;-22.165;-24.177;-25.257;-20.787;-17.323;-4.880;-4.061;-9.649
2339685.623;-18.850;-19.781;-22.575;-15.721;-15.795;-4.955;-5.141;-9.201
2339685.631;-20.862;-22.352;-24.550;-17.062;-17.397;-6.407;-8.270;-9.090
2339685.639;-24.140;-26.599;-28.126;-21.271;-18.626;-8.717;-10.468;-9.276
2339685.647;-25.295;-28.163;-29.318;-23.544;-19.632;-8.717;-9.574;-8.941
2339685.655;-22.873;-25.146;-26.189;-21.942;-16.727;-4.433;-4.806;-4.619
2339685.663;-24.475;-25.854;-28.573;-23.954;-18.328;-5.439;-2.533;-6.445
2339685.671;-24.885;-25.369;-30.436;-23.358;-19.968;-5.551;-0.447;-6.668
2339685.679;-21.905;-23.209;-26.636;-23.618;-15.646;-5.066;0.447;-5.960
2339685.687;-18.775;-21.644;-22.650;-23.544;-11.362;-6.035;-1.341;-6.109
2339685.695;-17.732;-21.867;-21.122;-23.842;-10.543;-10.021;-5.849;-9.313
2339685.703;-13.597;-16.950;-16.466;-21.681;-4.806;-9.649;-8.009;-9.574
2339685.711;-7.078;-9.574;-10.431;-14.156;0.261;-5.253;-5.662;-7.115
2339685.719;-3.986;-6.407;-6.892;-10.841;3.502;-2.459;-3.949;-4.247
2339685.727;-2.719;-5.625;-4.880;-10.580;5.215;-0.633;-1.155;-2.943
2339685.752;-7.004;-8.978;-7.153;-13.523;1.304;-3.763;-3.837;-5.923
2339685.760;-13.933;-17.211;-11.995;-21.569;-2.831;-6.557;-7.451;-6.817
2339685.768;-22.277;-27.008;-18.887;-31.106;-9.127;-10.170;-12.368;-7.935
2339685.776;-24.959;-28.238;-22.352;-30.883;-12.517;-12.182;-15.832;-7.413
2339685.784;-23.730;-27.604;-21.234;-28.573;-11.139;-8.680;-14.342;-4.768
2339685.792;-26.301;-31.143;-23.581;-30.920;-11.846;-7.972;-13.374;-5.625
2339685.800;-24.140;-28.983;-23.730;-27.642;-11.213;-1.974;-4.433;-3.204
2339685.808;-25.183;-28.834;-29.206;-27.865;-15.870;3.092;1.341;-2.943
2339685.816;-26.003;-28.089;-28.238;-24.922;-15.385;1.714;0.410;-5.774
2339685.824;-23.618;-25.406;-24.661;-20.675;-10.170;2.608;1.900;-4.359
2339685.832;-18.030;-21.085;-19.744;-16.913;-6.407;-0.112;-1.974;-4.880
2339685.840;-14.529;-18.440;-16.391;-15.497;-3.539;-3.986;-5.625;-7.823
2339685.848;-8.307;-13.076;-9.537;-9.537;3.725;-1.565;-2.608;-5.737
2339685.856;-9.686;-14.342;-11.437;-8.680;2.086;-1.341;-2.496;-3.874
2339685.864;-13.001;-17.211;-15.870;-10.356;-2.272;-0.261;-1.825;-2.906
2339685.872;-14.268;-17.360;-18.105;-11.809;-5.700;0.782;-0.410;-4.172
2339685.880;-13.374;-16.578;-17.248;-9.462;-4.023;1.602;-0.484;-4.247
2339685.888;-15.013;-19.222;-18.477;-12.405;-4.210;-2.384;-4.545;-6.780
2339685.896;-14.827;-18.217;-18.962;-11.288;-4.247;-2.086;-5.178;-4.433
2339685.904;-14.007;-17.062;-18.924;-9.164;-4.992;0.410;-1.751;-1.825
2339685.912;-13.635;-18.105;-17.434;-10.058;-4.284;1.527;0.112;-1.937
2339685.920;-13.337;-17.881;-16.689;-10.468;-3.874;5.364;2.682;0.000
2339685.928;-16.242;-19.595;-18.217;-12.740;-3.986;6.407;1.304;1.974
2339685.936;-17.285;-20.675;-19.260;-13.672;-5.737;2.645;-3.017;-0.037
2339685.903;-17.919;-21.644;-19.148;-13.821;-6.035;1.937;-3.092;0.112
2339685.911;-17.956;-21.569;-21.458;-13.448;-9.425;1.416;-1.900;-1.788
2339685.919;-17.099;-20.377;-21.011;-13.635;-9.537;4.917;1.527;0.335
2339685.927;-17.509;-20.675;-21.905;-14.044;-11.772;1.863;-1.863;-3.725
2339685.935;-9.462;-12.219;-14.827;-5.588;-6.147;6.706;3.390;-0.447
2339685.943;-3.055;-6.557;-7.637;-0.447;1.825;8.382;4.582;0.745
2339685.951;-3.316;-8.084;-8.158;-2.459;0.596;3.316;-1.937;-1.639
2339685.959;-9.090;-13.299;-14.454;-6.855;-5.774;-1.714;-8.270;-4.321
2339685.967;-9.164;-12.405;-14.044;-4.731;-2.682;0.075;-6.184;-2.459
2339685.975;-9.313;-12.778;-14.678;-5.029;-3.353;3.278;-2.272;-0.522
2339685.983;-10.543;-14.417;-14.380;-6.706;-3.017;6.519;1.416;1.602
2339685.991;-12.256;-17.248;-15.385;-10.468;-4.619;11.176;4.061;4.917
2339685.999;-11.213;-16.056;-14.342;-9.052;-4.396;16.429;6.333;8.792
2339686.007;-15.646;-21.942;-18.254;-16.205;-7.562;11.586;-0.298;1.937
2339686.015;-12.144;-17.695;-13.113;-11.176;-2.421;16.391;2.496;6.482
2339686.023;-11.027;-15.348;-11.958;-7.898;-1.937;17.546;3.241;8.084
2339686.031;-11.288;-14.640;-11.809;-5.662;-2.049;11.139;-3.539;3.316
2339686.039;-3.949;-7.600;-4.433;1.118;5.178;9.462;-7.190;2.719
2339686.047;4.172;-0.186;3.576;7.339;10.505;11.548;-6.109;4.284
2339686.055;5.327;0.894;4.061;9.052;7.562;11.213;-5.402;2.570
2339686.063;6.370;2.906;2.980;11.697;7.898;11.399;-2.384;1.714
2339686.071;8.121;4.135;4.545;12.740;9.947;13.113;0.745;2.570
2339686.079;11.176;6.333;9.052;14.454;11.958;14.193;3.539;2.161
2339686.087;13.970;10.468;10.803;17.285;12.554;17.956;7.898;6.296
2339686.022;7.078;4.917;2.123;12.815;2.719;16.615;6.035;5.327
2339686.030;3.129;-0.484;-2.570;6.966;0.671;13.821;3.055;2.645
2339686.038;2.310;-3.390;-3.874;2.980;-1.192;8.866;-1.602;-0.671
2339686.046;-1.267;-5.998;-5.737;0.745;-3.092;4.582;-6.706;-3.166
2339686.054;0.820;-2.533;-4.135;3.204;-0.745;8.903;-3.614;2.161
2339686.062;-2.868;-5.588;-7.637;1.118;-3.949;8.978;-2.980;2.235
2339686.070;-7.413;-9.984;-10.207;-2.123;-7.562;11.064;-0.782;3.912
2339686.078;-10.282;-13.821;-11.064;-6.333;-8.419;11.139;-2.123;4.023
2339686.086;-7.115;-10.356;-7.637;-5.923;-6.184;12.703;-0.373;3.316
2339686.094;0.596;-2.123;-0.149;1.080;0.224;14.827;2.533;4.023
2339686.102;8.829;4.396;7.562;8.494;7.041;15.832;5.178;4.433
2339686.110;8.233;3.055;8.196;5.998;8.605;14.752;5.700;4.284
2339686.118;0.633;-4.768;1.229;-2.347;2.719;12.591;4.284;4.508
2339686.126;-3.092;-8.754;-5.625;-4.880;-5.625;9.909;2.049;2.310
2339686.134;-5.476;-11.288;-7.078;-7.413;-6.668;6.892;-2.161;0.335
2339686.142;-7.749;-12.927;-8.717;-10.133;-10.952;2.570;-6.855;-2.943
2339686.150;-6.370;-12.591;-7.600;-12.703;-10.580;2.719;-6.743;-2.906
2339686.158;-13.895;-18.924;-16.019;-17.919;-20.154;-0.931;-8.494;-7.190
2339686.166;-16.131;-20.154;-18.477;-18.179;-24.810;-2.682;-8.345;-9.984
2339686.174;-8.866;-14.044;-12.740;-11.958;-20.862;2.794;-2.719;-5.625
2339686.182;-5.923;-10.729;-10.878;-9.164;-18.924;6.482;1.006;-2.384
2339686.190;-4.619;-6.929;-9.127;-5.215;-18.552;11.995;6.407;2.347
2339686.198;-8.084;-10.617;-13.635;-10.133;-23.171;10.915;3.204;1.006
2339686.206;-6.519;-9.611;-11.995;-9.164;-22.538;13.299;6.221;3.837
2339686.172;-4.098;-6.482;-8.903;-7.823;-20.228;19.148;11.660;11.437
2339686.180;-8.233;-11.995;-12.070;-16.242;-23.097;16.019;6.668;9.499
2339686.188;-12.070;-18.254;-14.082;-23.767;-25.854;12.219;2.868;6.296
2339686.196;-12.740;-18.738;-14.640;-26.748;-26.263;8.158;0.559;2.868
2339686.204;-15.274;-21.383;-17.434;-31.106;-28.610;6.817;0.000;1.155
2339686.212;-12.442;-17.360;-14.864;-27.306;-27.083;7.153;0.261;1.602
2339686.220;-10.319;-13.486;-12.405;-22.724;-24.512;1.751;-4.582;-0.894
2339686.228;-8.754;-11.325;-10.505;-20.713;-23.022;-0.484;-6.258;-3.763
2339686.236;-7.786;-9.872;-9.872;-19.073;-21.085;-3.241;-8.792;-7.600
2339686.244;-7.004;-7.972;-10.170;-14.752;-22.389;-2.831;-9.127;-7.227
2339686.252;-7.935;-9.127;-10.692;-15.832;-22.650;-4.396;-9.127;-8.084
2339686.260;-4.657;-5.960;-8.643;-11.027;-21.346;-2.384;-6.855;-6.147
2339686.268;-0.447;-0.782;-4.917;-5.849;-17.509;4.396;0.335;-0.261
2339686.276;1.192;0.522;-3.576;-3.316;-17.993;7.041;3.427;0.857
2339686.284;6.221;5.402;2.272;3.241;-14.380;14.454;9.984;8.941
2339686.292;3.576;3.241;0.112;2.347;-15.534;12.591;8.047;7.190
2339686.300;-3.278;-4.396;-7.413;-4.582;-24.773;7.302;2.272;1.602
2339686.308;-8.345;-10.207;-14.193;-9.127;-34.347;7.004;1.155;1.453
2339686.316;-11.250;-13.560;-16.727;-10.543;-36.955;8.196;1.788;3.017
2339686.324;-9.798;-11.697;-17.770;-9.276;-38.333;8.196;1.080;5.327
2339686.332;-8.158;-10.468;-16.578;-8.903;-38.482;9.164;2.235;6.743
2339686.340;-9.090;-11.288;-18.030;-8.494;-41.462;10.990;4.545;7.451
2339686.348;-3.800;-6.743;-11.623;-4.172;-33.863;15.721;9.276;12.293
2339686.356;-6.855;-11.735;-15.348;-7.637;-38.669;12.815;6.109;7.413
2339686.366;-6.407;-10.878;-16.354;-6.594;-41.723;13.709;7.004;9.388
2339686.374;-12.778;-16.540;-23.581;-11.921;-48.727;9.052;2.347;4.992
2339686.382;-15.199;-18.366;-26.040;-12.368;-52.378;3.912;-1.639;0.149
2339686.390;-15.683;-17.695;-27.157;-8.605;-57.258;4.470;0.782;0.149
2339686.398;-13.486;-14.938;-25.593;-4.694;-59.716;0.969;-2.831;-2.123
2339686.406;-9.015;-12.331;-19.595;-2.459;-56.997;-2.235;-5.700;-4.768
2339686.414;-11.399;-15.125;-19.632;-6.817;-55.097;-2.347;-6.519;-3.800
2339686.422;-7.898;-12.480;-16.876;-3.241;-54.985;2.347;-2.906;0.037
2339686.430;-6.407;-11.958;-15.274;-2.533;-53.048;2.682;-2.645;-0.447
2339686.438;-4.955;-10.580;-13.486;-1.639;-52.080;-1.788;-7.711;-5.998
2339686.446;-3.316;-8.047;-12.070;-0.037;-50.329;-3.427;-8.196;-7.972
2339686.454;-5.029;-9.127;-15.609;-2.682;-54.315;-2.496;-8.792;-7.637
2339686.462;-10.766;-14.901;-21.085;-8.009;-58.934;-6.109;-12.927;-9.090
2339686.470;-13.411;-18.105;-24.177;-10.841;-61.095;-9.947;-15.944;-11.437
2339686.478;-15.497;-19.893;-27.791;-12.107;-63.069;-7.562;-14.976;-7.674
2339686.486;-12.293;-16.689;-24.959;-9.015;-59.567;-1.527;-8.978;-0.782
2339686.494;-13.560;-19.260;-26.859;-11.474;-62.697;-1.937;-8.382;-2.831
2339686.502;-13.746;-20.079;-26.971;-13.299;-62.510;0.484;-6.184;0.894
2339686.510;-19.372;-25.406;-31.516;-17.546;-67.167;1.006;-4.880;0.857
2339686.518;-16.913;-23.097;-28.163;-13.486;-62.808;6.892;2.980;6.258
2339686.526;-16.876;-23.320;-25.891;-12.405;-60.610;9.350;5.439;7.376
2339686.534;-17.770;-24.363;-27.046;-13.784;-60.983;6.817;3.465;3.874
2339686.542;-11.325;-18.217;-22.799;-8.158;-57.369;7.451;5.551;3.874
2339686.550;-10.580;-17.658;-20.936;-7.823;-56.513;4.768;4.619;0.373
2339686.592;-8.419;-16.950;-18.887;-7.749;-55.172;7.935;8.792;3.874
2339686.600;-6.966;-13.895;-20.191;-5.700;-60.126;10.133;10.580;6.445
2339686.608;-9.164;-15.981;-21.718;-8.494;-60.648;8.382;5.737;4.582
2339686.616;-8.531;-15.795;-20.489;-8.456;-58.673;8.605;5.215;6.668
2339686.624;-9.462;-18.775;-21.681;-12.740;-59.158;7.972;4.582;7.525
2339686.632;-13.337;-24.848;-23.842;-20.042;-58.822;5.439;1.639;8.047
2339686.640;-16.615;-28.573;-27.642;-23.730;-64.299;1.229;-3.688;4.619
2339686.648;-16.205;-26.599;-27.344;-21.756;-63.181;0.931;-3.763;3.837
2339686.656;-17.807;-26.934;-29.840;-21.271;-65.975;-2.049;-6.519;0.335
2339686.664;-20.228;-28.573;-34.459;-24.401;-70.892;-3.129;-6.706;-1.788
2339686.672;-24.736;-32.336;-37.402;-27.008;-73.388;-3.465;-7.004;-1.267
2339686.680;-24.140;-32.708;-35.018;-28.238;-72.233;-3.465;-8.233;-0.708
2339686.688;-23.320;-32.708;-35.092;-28.722;-71.898;-6.333;-9.984;-4.657
2339686.696;-22.426;-31.330;-34.198;-27.716;-69.216;-8.382;-11.325;-6.482
2339686.704;-17.993;-25.705;-30.249;-21.309;-65.491;-3.725;-6.743;-2.943
2339686.712;-18.142;-24.065;-31.181;-18.813;-67.502;-5.215;-9.350;-5.402
2339686.720;-15.274;-21.383;-29.020;-17.248;-64.299;-5.923;-13.039;-5.588
2339686.728;-10.841;-18.515;-25.444;-15.944;-60.312;-5.439;-13.597;-4.768
2339686.736;-5.253;-13.821;-19.185;-11.660;-54.240;-4.284;-10.356;-3.614
2339686.744;-2.682;-10.692;-16.913;-8.270;-53.085;-3.800;-7.972;-3.949
2339686.752;1.751;-5.960;-13.411;-2.533;-50.850;0.186;-3.390;-1.490
2339686.760;7.972;2.235;-7.339;7.041;-42.915;6.668;4.694;4.135
2339686.768;6.966;0.894;-8.009;5.476;-43.437;8.717;6.855;6.072
2339686.776;3.316;-2.868;-10.803;0.857;-44.852;8.158;4.508;4.694
2339686.863;6.929;0.075;-7.525;2.198;-40.941;8.419;4.545;5.364
2339686.871;12.591;5.849;-2.943;8.121;-37.104;6.557;2.123;5.439
2339686.879;15.013;7.786;-1.043;9.835;-35.390;3.725;-3.353;4.731
2339686.887;12.852;6.706;-2.719;9.201;-35.092;0.820;-5.029;3.912
2339686.895;11.846;5.886;-2.198;8.605;-33.043;2.049;-1.304;4.582
2339686.903;12.256;5.849;-2.757;8.531;-36.433;2.533;-0.149;2.459
2339686.911;20.564;13.039;6.519;16.615;-27.940;6.258;4.694;4.172
2339686.919;22.650;15.907;9.574;18.515;-26.487;7.674;7.004;5.774
2339686.927;21.532;14.789;9.127;18.105;-25.555;11.399;10.543;9.313
2339686.935;17.025;10.282;3.614;14.044;-33.192;9.164;6.966;7.227
2339686.943;18.291;12.070;6.482;14.789;-28.200;8.829;7.190;7.413
2339686.951;25.071;18.217;12.182;19.781;-21.458;12.591;10.654;12.070
2339686.959;20.154;14.901;7.078;16.578;-26.710;9.574;7.600;7.935
2339686.967;19.819;14.901;7.749;16.764;-25.742;9.798;8.754;8.196
2339686.975;21.085;16.019;8.419;17.211;-25.481;8.717;9.313;5.104
2339686.983;20.973;16.764;8.605;17.732;-26.897;9.201;10.394;5.290
2339686.991;20.303;16.503;7.972;16.950;-24.997;9.127;10.543;6.668
2339686.999;16.540;13.039;3.725;15.236;-29.393;5.066;5.923;4.545
2339687.007;11.623;7.376;-2.049;7.972;-34.161;2.719;2.794;3.353
2339687.015;7.227;1.490;-6.631;1.118;-38.706;0.298;-0.224;0.596
2339687.023;8.717;2.272;-4.135;2.198;-35.092;2.347;0.708;1.192
2339687.031;5.104;-0.820;-8.494;-1.229;-39.525;-2.272;-4.917;-3.502
2339687.039;3.204;-3.278;-10.096;-5.551;-40.121;-3.092;-6.780;-4.098
2339687.047;2.459;-3.576;-10.356;-6.296;-42.655;0.522;-1.900;-1.937
2339687.042;-1.937;-8.233;-14.417;-12.368;-46.417;-2.570;-2.310;-4.359
2339687.050;-3.353;-9.499;-13.784;-14.976;-45.002;-0.969;-0.298;-3.502
2339687.058;-0.633;-5.811;-10.766;-10.468;-40.084;4.023;4.806;-0.708
2339687.066;-1.043;-5.625;-10.915;-10.841;-38.557;4.731;4.657;-2.272
2339687.074;4.396;-2.645;-4.508;-10.543;-32.783;9.909;7.376;3.465
2339687.082;5.253;-1.714;-1.527;-10.207;-31.106;12.070;8.494;6.221
2339687.090;1.565;-4.210;-4.917;-10.505;-36.322;9.537;4.619;4.321
2339687.098;0.931;-5.215;-5.104;-10.245;-36.843;3.651;-2.012;1.229
2339687.106;4.470;-1.863;-0.522;-6.929;-30.585;6.035;-0.373;5.066
2339687.114;-0.112;-7.153;-5.178;-12.442;-34.906;6.072;-0.894;5.811
2339687.122;-8.307;-15.162;-13.374;-18.738;-42.133;1.155;-4.545;0.522
2339687.130;-7.749;-13.784;-12.591;-18.254;-42.655;-2.682;-5.290;-4.135
2339687.138;-6.221;-11.101;-13.299;-14.007;-43.772;-0.969;-1.043;-4.582
2339687.146;-4.545;-9.239;-11.362;-10.170;-42.133;4.582;3.614;-1.639
2339687.154;-4.433;-9.947;-10.058;-10.058;-41.574;8.568;6.147;1.118
2339687.162;-7.339;-12.890;-12.368;-11.735;-43.213;5.774;1.378;-0.224
2339687.170;-4.545;-10.692;-9.052;-9.499;-39.861;2.533;-3.427;0.075
2339687.178;-4.247;-10.431;-10.021;-11.586;-41.164;-0.931;-6.407;-3.912
2339687.186;-1.043;-6.109;-7.004;-6.817;-37.402;2.608;-3.465;-1.900
2339687.194;3.725;-0.484;-1.341;1.825;-30.287;5.960;0.373;1.304
2339687.202;7.488;5.215;1.900;9.350;-28.796;5.960;1.602;0.745
2339687.210;9.723;6.929;5.364;12.815;-24.922;2.533;-2.310;-1.006
2339687.218;14.938;11.213;9.350;15.497;-18.738;1.751;-2.384;-1.490
2339687.226;13.709;10.021;7.115;13.523;-21.681;2.235;-1.602;-1.900
2339687.269;10.431;7.264;5.513;10.207;-21.718;-0.820;-4.284;-4.284
2339687.277;1.006;-2.421;-1.565;0.261;-28.536;-6.594;-9.350;-9.201
2339687.285;0.261;-4.321;-2.272;-3.502;-28.014;-1.751;-4.545;-2.980
2339687.293;1.378;-3.390;-0.149;-2.123;-25.406;0.186;-1.341;-1.155
2339687.301;5.551;-0.410;5.029;2.794;-20.005;0.037;-2.570;-0.782
2339687.309;2.272;-4.470;0.298;-0.745;-25.705;-5.141;-8.009;-7.004
2339687.317;5.588;-0.782;3.166;2.794;-22.054;-0.708;-5.141;-2.831
2339687.325;5.253;-0.894;2.757;3.204;-20.489;1.341;-4.433;-1.118
2339687.333;2.570;-3.651;0.633;2.384;-22.016;-1.825;-7.451;-5.327
2339687.341;5.327;0.000;4.135;6.519;-18.440;-2.980;-8.084;-6.109
2339687.349;8.792;4.321;6.855;11.213;-16.578;-1.304;-6.035;-3.837
2339687.357;10.394;5.811;7.413;11.846;-14.864;1.714;-3.465;-1.006
2339687.365;13.001;8.829;8.233;13.039;-14.789;6.109;1.192;1.453
2339687.373;12.890;9.350;7.749;13.448;-15.795;7.302;4.321;1.080
2339687.381;13.560;10.058;8.680;15.497;-13.299;6.109;2.980;0.000
2339687.389;13.597;8.978;9.052;14.678;-12.256;3.688;1.229;-2.794
2339687.397;10.431;5.998;7.153;9.835;-12.666;1.974;0.335;-4.768
2339687.405;5.998;2.608;3.614;6.743;-16.242;0.522;-1.378;-5.513
2339687.413;2.459;-1.080;0.186;3.316;-19.446;-0.224;-2.868;-5.215
2339687.421;-2.235;-6.221;-4.992;-1.453;-23.432;2.608;-1.341;-3.278
2339687.429;-6.817;-10.990;-8.419;-6.221;-25.555;5.811;0.782;-0.857
2339687.437;-3.986;-8.307;-5.886;-2.943;-22.873;7.115;1.900;3.092
2339687.445;-1.341;-5.923;-4.917;0.000;-20.377;6.929;1.490;3.316
2339687.453;-5.253;-10.692;-8.419;-4.545;-22.538;2.161;-2.719;-2.868
2339687.491;-5.364;-10.356;-10.058;-3.986;-26.412;0.782;-2.570;-2.906
2339687.499;-2.943;-8.605;-7.935;-1.490;-22.836;2.608;-0.708;-1.341
2339687.507;1.602;-4.210;-3.539;1.825;-19.521;6.370;3.614;1.304
2339687.515;5.290;-0.522;-1.080;5.849;-17.956;9.052;6.855;3.539
2339687.523;7.190;0.484;0.596;7.264;-16.838;8.903;6.817;2.421
2339687.531;15.348;9.574;7.562;16.131;-9.686;14.044;11.884;8.568
2339687.539;14.566;9.350;7.078;15.013;-8.233;12.442;10.580;6.445
2339687.547;11.697;6.258;4.359;11.437;-9.947;11.288;8.866;4.843
2339687.555;11.697;6.445;3.912;12.629;-10.058;12.740;9.239;6.631
2339687.563;10.580;5.253;4.098;11.362;-7.190;10.729;6.743;6.221
2339687.571;13.784;8.121;6.482;13.560;-6.743;12.591;8.568;7.898
2339687.579;16.466;11.362;9.499;15.050;-2.831;16.950;12.256;9.835
2339687.587;12.815;8.866;6.370;13.188;-3.502;11.250;7.339;4.619
2339687.595;7.115;4.582;1.155;8.829;-10.692;4.545;2.272;-2.757
2339687.603;3.837;1.639;-2.347;4.657;-13.597;1.527;-0.037;-3.912
2339687.611;5.439;2.682;-0.857;6.109;-11.437;-0.335;-2.310;-3.688
2339687.619;7.823;4.955;2.347;8.307;-8.903;0.261;-1.192;-1.341
2339687.627;5.104;2.086;-1.229;5.588;-12.852;-2.682;-4.396;-3.241
2339687.635;4.619;1.304;-2.496;4.321;-13.858;0.298;-2.347;0.112
2339687.643;7.153;3.166;0.075;5.215;-10.319;3.725;1.490;4.806
2339687.651;9.499;5.923;3.204;7.637;-7.004;5.253;3.316;5.662
2339687.659;13.188;8.754;6.668;10.170;-4.098;4.172;2.459;2.198
2339687.667;12.480;6.706;7.190;6.855;-2.272;0.075;-2.198;-0.745
2339687.675;16.429;9.872;10.803;9.537;1.900;0.373;-1.490;0.447
2339687.688;20.750;15.125;14.715;14.082;5.625;1.527;1.155;1.192
2339687.696;21.420;16.056;17.695;14.640;8.568;4.359;3.129;4.359
2339687.704;17.472;11.101;14.119;9.574;5.923;7.823;5.439;6.482
2339687.712;13.672;6.557;8.419;4.694;-0.373;4.433;2.645;4.098
2339687.720;11.027;3.949;5.029;2.943;-3.465;-2.086;-1.900;-3.017
2339687.728;17.323;10.170;10.431;8.307;2.533;0.857;1.863;-1.714
2339687.736;17.732;11.437;10.207;9.574;1.825;2.980;3.837;-0.373
2339687.744;15.795;9.313;8.643;8.084;0.484;3.874;5.476;0.298
2339687.752;20.601;14.976;12.629;14.566;5.141;6.258;8.978;2.906
2339687.760;23.171;18.217;14.901;17.546;8.643;9.798;12.256;6.557
2339687.768;22.873;18.626;15.013;17.621;8.680;9.611;11.027;5.141
2339687.776;27.381;23.358;18.999;23.209;11.995;14.305;16.354;8.382
2339687.784;27.828;22.538;20.079;21.718;12.182;13.337;16.727;6.072
2339687.792;22.501;17.136;14.789;16.578;8.307;9.127;13.337;3.502
2339687.800;24.512;20.638;17.025;20.191;11.623;11.362;15.907;8.084
2339687.808;22.277;18.850;14.752;19.595;8.903;8.307;10.617;9.052
2339687.816;16.987;12.368;10.654;12.033;5.662;0.931;1.378;4.433
2339687.824;20.638;14.454;15.497;11.958;9.947;5.923;5.290;6.557
2339687.832;24.587;18.068;19.036;14.491;12.964;13.039;12.033;10.580
2339687.840;24.252;17.248;18.552;12.368;14.752;15.460;14.268;9.350
2339687.848;22.054;16.019;15.236;9.127;12.256;14.603;11.735;8.717
2339687.856;21.644;16.093;15.236;6.296;14.193;13.299;9.090;8.270
2339687.864;20.787;14.640;14.380;3.316;13.039;12.890;7.302;8.009
2339687.872;18.068;12.070;12.331;0.708;10.245;10.990;4.917;5.066
2339687.898;21.458;16.056;17.509;2.347;15.683;14.715;9.201;7.413
2339687.906;26.375;22.091;22.687;8.270;20.042;15.795;10.766;6.631
2339687.914;33.118;29.765;30.510;16.317;29.020;18.924;14.119;12.070
2339687.922;30.026;26.859;27.977;14.268;25.444;14.640;10.170;6.147
2339687.930;32.112;28.834;30.547;15.162;25.444;11.511;6.519;4.880
2339687.938;39.525;37.476;39.302;25.183;31.516;5.588;1.825;1.080
2339687.946;48.056;45.151;49.695;34.198;38.370;1.080;0.671;-4.210
2339687.954;57.332;56.401;60.461;47.721;48.056;1.825;1.676;-5.066
2339687.962;71.861;71.339;76.517;63.926;60.052;9.499;8.233;-0.969
2339687.970;82.999;80.802;88.885;70.967;69.663;13.709;12.442;1.937
2339687.978;101.067;98.348;109.449;89.481;86.278;15.944;13.746;6.557
2339687.986;120.141;117.682;131.056;109.449;104.308;16.578;14.156;10.692
2339687.994;129.081;126.958;143.237;118.837;115.409;11.995;9.723;7.004
2339688.002;147.112;144.616;163.727;136.010;133.589;14.342;13.933;9.835
2339688.010;157.580;156.313;174.716;148.453;143.647;13.784;15.981;8.978
2339688.018;163.577;162.311;181.012;155.717;148.639;16.540;17.956;10.915
2339688.026;168.271;166.297;186.265;160.933;151.359;21.346;23.097;13.821
2339688.034;163.801;161.715;183.024;156.462;149.533;20.489;20.824;12.815
2339688.042;160.262;158.511;178.367;153.817;145.435;17.546;16.466;10.766
2339688.050;164.919;162.795;182.241;156.723;150.055;15.385;14.864;7.413
2339688.058;161.007;158.921;177.398;152.923;148.937;16.689;14.827;9.127
2339688.066;148.863;147.782;164.136;140.481;139.028;17.621;15.125;11.958
2339688.074;132.360;130.981;146.367;123.531;124.425;15.609;13.039;11.250
2339688.082;111.833;109.412;124.425;100.657;105.239;13.225;8.903;11.437
2339688.048;99.540;97.454;110.716;88.103;95.218;6.035;2.831;6.296
2339688.056;90.748;88.438;99.577;79.907;86.762;7.600;4.955;6.631
2339688.064;86.240;83.968;93.207;75.735;82.068;13.076;10.803;9.947
2339688.072;75.549;73.686;81.658;66.347;72.755;12.405;10.394;5.998
2339688.080;71.079;69.439;76.704;62.883;68.843;12.666;11.586;4.843
2339688.088;58.413;57.034;63.665;50.999;57.966;3.800;5.774;-3.204
2339688.096;53.421;52.452;57.481;47.088;55.172;2.347;6.258;-3.912
2339688.104;49.695;48.205;53.234;42.543;52.489;7.525;9.052;0.708
2339688.112;46.268;43.809;49.621;37.365;50.180;10.431;9.015;4.172
2339688.120;42.431;40.643;45.113;35.129;46.454;11.511;7.823;7.674
2339688.128;32.298;31.032;34.757;25.705;38.818;10.058;4.172;9.313
2339688.136;24.997;23.134;27.381;17.621;33.341;12.442;5.253;11.511
2339688.144;20.303;18.254;21.979;13.933;29.989;16.242;8.494;12.517
2339688.152;13.597;10.841;14.193;7.227;23.916;17.583;9.015;13.821
2339688.160;6.370;2.943;6.668;0.261;18.030;13.597;7.674;9.388
2339688.168;1.006;-2.049;1.490;-3.763;13.858;10.394;5.439;4.247
2339688.176;-2.645;-6.258;-1.900;-8.196;11.623;4.843;0.969;-1.937
2339688.184;-0.708;-4.843;-0.894;-6.557;12.927;2.980;-0.261;-2.980
2339688.192;0.894;-4.731;0.559;-7.749;13.709;3.427;0.298;-1.900
2339688.200;3.316;-1.118;1.527;-4.135;14.566;5.700;2.980;2.645
2339688.208;5.141;1.006;3.390;-1.304;15.870;10.952;8.233;7.451
2339688.216;12.964;8.345;10.952;5.513;24.997;16.764;14.231;13.076
2339688.224;15.125;10.133;11.735;6.706;24.512;16.727;14.789;10.170
2339688.232;18.626;14.082;15.348;10.319;27.642;19.334;18.254;11.809
2339688.212;15.236;10.617;11.362;7.972;24.550;14.380;14.454;9.090
2339688.220;8.307;4.508;3.651;2.943;16.913;8.717;10.207;5.364
2339688.228;1.229;-0.671;-2.496;-2.421;11.958;1.304;5.215;-1.714
2339688.236;2.272;1.006;-1.378;0.671;13.150;-1.565;1.676;-3.316
2339688.244;1.378;-0.298;-0.782;-0.559;15.348;-3.614;-1.863;-4.396
2339688.252;-2.831;-4.359;-4.955;-4.694;12.405;-1.192;-1.639;-2.533
2339688.260;-5.737;-6.706;-6.631;-7.190;10.394;0.075;-1.341;-0.671
2339688.268;-8.643;-9.499;-9.611;-9.686;6.668;-2.235;-3.614;-3.465
2339688.276;-7.451;-9.015;-9.574;-8.382;6.706;-1.676;-1.602;-1.751
2339688.284;-4.359;-6.407;-7.749;-7.264;8.494;0.931;0.335;-0.075
2339688.292;0.112;-2.272;-3.874;-3.465;11.697;0.969;0.969;-0.745
2339688.300;9.909;8.121;5.253;6.296;19.819;4.321;6.184;2.645
2339688.308;13.337;10.170;8.196;7.302;23.693;5.290;5.588;3.166
2339688.316;9.052;4.768;5.476;2.645;22.054;4.135;2.757;1.416
2339688.324;5.886;2.198;2.235;0.447;19.372;5.551;2.496;3.055
2339688.332;9.015;4.843;5.588;1.378;23.805;7.451;3.092;5.998
2339688.340;5.998;1.937;2.235;-2.012;20.042;3.837;-0.335;5.476
2339688.348;4.061;0.596;-0.708;-4.359;17.174;6.147;0.633;9.574
2339688.356;0.857;-1.900;-4.955;-6.147;13.337;6.929;2.049;8.754
2339688.364;-4.210;-7.823;-9.723;-10.319;9.425;6.072;1.751;7.711
2339688.372;-5.029;-10.543;-9.201;-12.778;8.903;7.711;4.023;8.531
2339688.380;-0.931;-5.811;-4.917;-9.760;14.044;12.368;10.729;11.176
2339688.388;1.714;-1.825;-2.049;-5.849;18.217;12.927;11.623;10.394
2339688.396;2.980;-0.447;-1.080;-3.390;19.073;11.064;10.096;7.153
2339688.437;-0.522;-3.576;-4.284;-5.700;14.640;7.525;7.413;2.570
2339688.445;-5.700;-9.499;-8.121;-12.033;11.288;6.594;7.264;1.937
2339688.453;-11.995;-15.572;-15.385;-19.148;4.470;4.955;6.109;-0.596
2339688.461;-11.660;-14.044;-15.572;-18.179;5.066;7.488;8.680;3.427
2339688.469;-15.013;-18.366;-19.073;-21.979;0.708;4.955;6.594;2.608
2339688.477;-13.858;-16.913;-19.856;-19.409;0.373;0.745;4.023;-0.112
2339688.485;-15.348;-17.434;-20.079;-18.217;0.261;-3.353;-0.931;-1.900
2339688.493;-16.540;-17.658;-20.191;-18.924;-0.596;-7.786;-5.923;-5.960
2339688.501;-13.709;-14.938;-18.477;-17.993;1.267;-4.768;-4.284;-4.917
2339688.509;-15.087;-16.503;-20.415;-20.266;1.602;-3.204;-4.023;-2.682
2339688.517;-16.987;-18.999;-22.687;-20.899;-0.969;-1.714;-3.316;-2.123
2339688.525;-13.411;-15.162;-19.073;-16.652;2.310;2.868;0.075;0.671
2339688.533;-10.617;-11.474;-15.460;-12.629;5.774;8.307;6.258;3.502
2339688.541;-3.539;-4.433;-8.196;-7.562;13.672;14.119;13.597;7.041
2339688.549;0.931;-0.447;-3.837;-3.092;17.956;12.890;13.076;4.657
2339688.557;1.676;1.118;-3.502;-2.757;18.217;8.568;9.723;0.708
2339688.565;2.794;1.304;-3.651;-3.278;18.887;5.364;7.786;-1.043
2339688.573;3.837;2.012;-3.837;-3.800;19.670;4.359;6.966;-0.559
2339688.581;1.453;-0.335;-7.339;-7.637;16.615;1.043;2.086;-1.527
2339688.589;-2.757;-3.837;-9.686;-12.517;14.044;-2.421;-1.714;-4.731
2339688.597;-5.886;-5.402;-11.474;-14.640;11.809;-1.714;-0.857;-4.284
2339688.605;-10.096;-10.096;-15.572;-18.999;8.717;-2.049;-0.373;-5.029
2339688.613;-9.425;-10.394;-14.715;-19.185;9.537;0.969;2.049;-3.353
2339688.621;-9.537;-9.723;-13.970;-18.924;9.984;1.043;1.788;-4.210
2339688.632;-8.196;-7.004;-11.511;-15.944;14.417;1.825;2.272;-3.912
2339688.640;-3.800;-2.347;-7.078;-9.611;19.819;5.439;5.178;-2.421
2339688.648;-3.092;-3.502;-7.339;-9.462;19.073;5.588;6.147;-1.863
2339688.656;-7.227;-8.084;-11.027;-15.013;15.497;1.416;1.192;-5.476
2339688.664;-3.912;-4.210;-5.662;-11.027;21.905;2.198;1.714;-4.470
2339688.672;-4.843;-5.029;-5.998;-11.250;21.234;0.149;-1.863;-5.737
2339688.680;-7.786;-8.531;-8.531;-14.231;18.217;-0.857;-4.098;-6.482
2339688.688;-2.980;-4.247;-3.166;-9.164;25.071;3.576;0.335;-1.900
2339688.696;-0.522;-0.969;-1.229;-4.321;27.195;4.433;2.310;1.676
2339688.704;2.980;2.868;2.235;1.080;30.063;7.302;6.370;3.725
2339688.712;6.407;6.594;5.700;6.445;33.155;11.213;11.846;7.264
2339688.720;5.364;5.998;3.316;5.513;30.920;8.605;10.766;2.906
2339688.728;3.166;4.433;1.527;2.719;29.244;7.302;10.282;0.373
2339688.736;-0.671;0.857;-1.937;-0.224;23.842;4.135;7.041;-0.484
2339688.744;-3.837;-2.012;-6.557;-2.421;20.526;-1.304;1.863;-4.210
2339688.752;-0.037;1.602;-2.719;1.155;24.475;1.341;4.582;-3.241
2339688.760;7.190;7.600;3.986;6.817;30.585;4.582;7.562;-2.012
2339688.768;8.009;7.525;5.439;6.855;32.149;5.998;8.643;-2.049
2339688.776;9.574;8.605;8.382;7.749;35.800;10.207;12.517;3.278
2339688.784;7.264;6.855;6.817;6.445;35.875;10.766;11.213;2.943
2339688.792;10.952;9.909;10.096;9.984;38.743;11.958;11.772;5.066
2339688.800;8.680;6.929;7.562;7.637;35.316;7.823;6.780;3.837
2339688.808;0.149;0.373;-1.229;0.522;26.822;0.224;-0.894;-0.633
2339688.816;-9.947;-9.388;-11.995;-9.388;16.764;-4.657;-4.843;-2.943
2339688.797;-14.901;-15.050;-17.248;-16.056;13.039;-3.688;-3.725;-1.453
2339688.805;-24.922;-24.512;-28.536;-24.252;2.943;-1.602;-2.049;-0.931
2339688.813;-16.354;-13.933;-19.856;-13.150;10.580;1.378;2.235;2.198
2339688.821;-7.674;-5.066;-11.921;-3.614;17.248;0.149;2.608;-1.788
2339688.829;-12.554;-9.537;-17.695;-7.041;11.250;-1.267;0.820;-5.178
2339688.837;-16.354;-13.374;-19.893;-11.958;9.686;-4.619;-3.427;-7.786
2339688.845;-18.850;-15.907;-21.085;-15.087;7.860;-7.376;-6.855;-9.239
2339688.853;-16.689;-13.337;-18.701;-12.144;10.841;-3.017;-3.651;-5.215
2339688.861;-14.827;-11.846;-17.136;-8.866;11.921;-0.596;-3.278;-4.210
2339688.869;-5.662;-2.533;-9.425;1.676;17.248;3.614;0.224;-0.931
2339688.877;-1.453;3.651;-5.774;5.662;19.744;8.270;4.955;3.204
2339688.885;2.943;7.264;-2.980;8.345;23.320;12.740;8.829;9.052
2339688.893;-1.043;2.272;-6.966;3.055;20.377;6.743;2.757;1.565
2339688.901;-3.129;-0.224;-7.711;2.570;19.334;5.700;3.055;2.049
2339688.909;-8.903;-7.600;-12.815;-4.694;15.050;1.900;-0.447;-0.745
2339688.917;-9.723;-7.860;-13.933;-3.651;16.280;2.794;2.012;-1.937
2339688.925;-12.331;-9.723;-17.472;-4.619;13.374;1.192;2.310;-5.700
2339688.933;-16.578;-13.001;-21.607;-6.594;7.525;1.788;5.141;-5.104
2339688.941;-20.154;-16.913;-24.065;-9.499;6.296;2.570;6.370;-2.384
2339688.949;-18.701;-15.981;-23.171;-11.064;8.456;3.427;4.843;2.496
2339688.957;-20.266;-18.142;-24.587;-12.740;7.562;-2.384;-1.751;-2.570
2339688.965;-20.564;-18.775;-25.183;-12.442;5.513;-4.135;-4.321;-4.582
2339688.973;-13.597;-11.250;-17.881;-4.508;12.480;-0.037;-0.708;-1.490
2339688.981;-5.476;-2.123;-9.388;3.576;20.862;4.396;3.986;2.161
2339688.932;-1.900;0.633;-6.631;5.960;22.054;7.227;8.270;3.725
2339688.940;-3.166;-0.298;-7.749;5.923;20.601;9.947;11.437;4.470
2339688.948;-0.782;1.453;-5.551;7.302;23.879;11.772;13.597;5.215
2339688.956;1.676;3.725;-4.359;9.984;24.810;14.044;17.174;7.302
2339688.964;1.229;-6.519;-5.290;9.909;22.464;15.199;18.887;6.109
2339688.972;-3.539;-45.002;-8.009;5.029;19.968;15.385;17.509;6.929
2339688.980;-15.534;-67.279;-19.446;-9.425;9.090;11.772;12.517;5.029
2339688.988;-20.266;-71.377;-24.661;-14.007;3.651;11.697;12.293;6.668
2339688.996;-16.950;-66.832;-21.495;-11.176;7.488;11.027;10.468;7.860
2339689.004;-14.305;-63.404;-20.303;-8.009;8.605;8.345;6.743;6.035
2339689.012;-11.809;-60.275;-19.036;-5.029;8.196;8.270;7.600;4.135
2339689.020;-7.525;-55.693;-15.236;-1.788;13.895;11.884;13.262;7.302
2339689.028;-5.551;-54.613;-12.442;-2.235;18.105;10.468;13.150;5.476
2339689.036;-8.270;-56.997;-16.019;-4.843;14.231;4.508;8.158;0.075
2339689.044;-6.035;-53.197;-13.784;-0.931;16.205;4.247;5.402;3.912
2339689.052;-3.390;-51.036;-9.090;1.639;23.581;4.619;4.359;7.674
2339689.060;-5.215;-53.197;-9.499;-1.341;23.991;2.012;1.974;5.476
2339689.068;-5.774;-53.495;-10.096;-2.943;23.842;2.161;3.651;4.806
2339689.076;-7.823;-55.768;-13.150;-5.923;20.862;-0.037;1.714;1.192
2339689.084;-4.731;-52.042;-9.760;-2.682;22.836;4.806;6.706;3.576
2339689.092;-2.310;-47.088;-8.270;0.782;24.848;7.637;8.121;6.333
2339689.100;-1.714;-46.566;-8.345;1.825;25.108;4.992;6.407;2.868
2339689.108;1.378;-44.219;-5.066;3.763;29.616;4.210;7.488;0.708
2339689.116;2.235;-41.947;-3.576;3.502;30.659;4.470;9.574;-2.012
2339689.157;4.172;-39.451;-0.931;4.955;34.720;5.737;10.617;0.149
2339689.165;-3.614;-47.013;-9.127;-4.172;25.555;-4.210;-0.820;-4.470
2339689.173;-3.539;-46.119;-9.015;-4.321;25.257;-3.465;-2.086;-1.155
2339689.181;-0.484;-42.059;-5.662;-0.522;29.989;2.198;1.490;6.333
2339689.189;0.522;-40.904;-4.023;-0.037;31.255;6.743;4.098;12.293
2339689.197;0.037;-41.053;-5.476;-0.671;29.802;7.860;5.104;10.170
2339689.205;0.373;-40.866;-5.700;-2.012;29.802;5.364;5.104;6.147
2339689.213;1.080;-39.004;-5.513;-0.596;30.436;3.539;6.817;1.490
2339689.221;0.671;-38.370;-6.668;0.224;28.610;3.390;7.525;0.708
2339689.229;1.229;-37.551;-8.307;-1.974;28.312;2.868;7.823;-0.149
2339689.237;2.570;-36.582;-6.780;-2.719;30.510;2.943;8.643;-0.782
2339689.245;-1.304;-40.047;-9.015;-6.482;27.604;3.316;9.127;-1.490
2339689.253;-2.906;-40.904;-9.574;-8.307;27.679;5.402;9.611;1.714
2339689.261;-5.625;-42.021;-11.548;-10.841;25.965;2.272;4.806;0.261
2339689.269;-7.376;-41.500;-12.927;-12.554;24.997;-0.596;0.298;-0.373
2339689.277;-5.960;-40.382;-9.537;-12.964;27.977;0.186;-0.931;2.719
2339689.285;-2.198;-38.110;-4.135;-11.921;33.639;0.931;-2.012;3.465
2339689.293;-0.820;-34.608;-3.465;-7.562;32.187;2.645;-1.527;3.129
2339689.301;0.447;-32.075;-3.390;-5.849;32.708;5.141;1.267;3.353
2339689.309;3.763;-28.834;-0.708;-1.565;35.502;11.176;9.872;9.052
2339689.317;2.421;-31.330;-0.633;-4.992;34.757;13.635;15.125;10.766
2339689.325;-0.447;-32.969;-1.825;-6.892;34.757;9.872;12.890;6.929
2339689.333;3.129;-25.965;1.043;1.639;36.098;7.376;8.903;5.737
2339689.341;5.849;-23.358;3.278;4.359;38.929;4.061;4.098;4.247
2339689.383;8.419;-19.968;6.258;7.525;40.494;3.353;3.800;3.837
2339689.391;14.305;-14.231;11.846;13.895;43.735;4.917;7.525;4.433
2339689.399;19.744;-8.158;16.242;20.489;47.795;8.866;11.995;6.817
2339689.407;28.647;3.017;24.699;32.261;56.364;16.913;17.770;15.423
2339689.415;28.908;3.316;24.699;32.745;52.452;10.878;10.319;9.574
2339689.423;34.384;8.680;29.914;38.669;53.644;8.196;9.276;5.141
2339689.431;40.643;15.944;38.706;47.013;61.393;9.015;10.170;6.817
2339689.439;43.884;20.675;42.394;51.595;63.889;7.786;8.903;6.184
2339689.447;51.595;30.398;49.993;61.952;69.812;10.319;10.692;8.605
2339689.455;61.058;42.282;60.163;76.704;78.715;6.892;6.147;6.706
2339689.463;73.053;54.203;73.537;86.501;88.438;2.719;1.863;4.955
2339689.471;92.462;75.251;93.691;106.618;103.414;7.451;7.264;11.623
2339689.479;105.985;89.929;109.151;122.152;116.639;6.594;9.462;8.941
2339689.487;110.157;95.218;116.043;127.219;123.009;7.302;10.170;8.680
2339689.495;116.862;101.738;124.089;133.775;129.342;12.517;13.635;15.274
2339689.503;115.521;99.950;124.164;130.832;127.144;11.101;11.399;13.970
2339689.511;113.249;97.901;122.078;127.517;125.132;10.952;10.952;12.219
2339689.519;112.019;96.932;119.768;124.052;123.419;9.649;10.021;9.425
2339689.527;110.678;95.405;117.794;120.699;121.556;7.190;10.617;6.296
2339689.535;102.744;87.842;108.704;112.616;115.074;7.413;11.325;7.153
2339689.543;91.530;76.070;97.938;98.608;106.953;6.147;9.313;4.992
2339689.551;83.111;67.092;88.550;87.880;99.167;11.288;12.852;9.015
2339689.559;67.949;51.334;71.414;71.786;84.750;6.631;7.525;5.253
2339689.567;55.172;38.408;56.960;58.822;72.867;2.608;2.757;2.608
2339689.532;46.827;29.020;48.541;48.578;66.869;1.080;0.224;2.757
2339689.540;37.253;20.340;39.078;39.004;58.971;1.229;1.900;3.539
2339689.548;30.957;13.635;32.559;32.708;53.570;3.129;6.109;3.949
2339689.556;30.175;12.852;30.920;32.820;52.378;8.605;12.480;8.754
2339689.564;26.226;9.127;26.599;29.318;48.801;8.717;12.331;6.892
2339689.572;24.550;6.296;23.767;26.189;46.305;6.519;9.723;4.768
2339689.580;18.440;0.596;16.876;19.707;38.929;-1.080;1.825;-1.118
2339689.588;12.740;-4.359;10.617;14.678;33.192;-3.912;-2.794;-4.470
2339689.596;12.554;-4.247;9.276;14.715;31.479;1.080;0.931;-0.149
2339689.604;12.703;-3.390;7.711;16.093;31.702;6.221;5.998;4.619
2339689.612;12.368;-3.763;7.562;16.168;31.702;7.041;7.227;4.992
2339689.620;8.196;-8.121;4.284;11.325;27.381;3.912;4.172;2.384
2339689.628;3.017;-13.262;-0.596;6.333;22.799;3.725;3.763;2.012
2339689.636;0.633;-14.342;-2.757;5.178;21.718;4.210;4.359;2.384
2339689.644;1.192;-11.548;-2.310;8.084;21.681;3.353;3.763;1.565
2339689.652;1.416;-11.362;-2.123;8.494;21.793;-0.373;1.602;-1.080
2339689.660;1.118;-13.337;-2.608;3.912;21.160;-3.614;-2.235;-0.484
2339689.668;2.049;-14.789;-1.378;1.378;22.314;-2.049;-1.788;3.614
2339689.676;-0.075;-17.062;-4.508;-1.788;18.030;-2.421;-2.794;2.645
2339689.684;-3.539;-18.850;-7.935;-3.688;15.199;-1.714;-3.204;0.633
2339689.692;-2.347;-16.652;-7.600;-4.470;14.640;7.376;6.221;4.880
2339689.700;1.304;-12.070;-5.066;-0.745;18.626;15.832;14.082;11.362
2339689.708;1.863;-11.101;-5.439;1.863;19.148;19.819;17.397;14.193
2339689.716;-1.378;-14.789;-9.611;-2.161;14.156;13.895;11.548;9.127
2339689.683;2.682;-11.511;-5.960;-1.378;19.148;11.958;9.425;10.245
2339689.691;9.499;-5.662;2.049;4.061;28.871;14.566;13.821;13.486
2339689.699;2.608;-11.288;-5.662;-0.857;19.632;11.474;11.772;11.101
2339689.707;-2.980;-15.870;-12.368;-4.470;12.405;6.706;9.425;7.376
2339689.715;6.631;-5.998;-3.651;5.700;18.552;3.874;8.233;5.998
2339689.723;7.376;-4.582;-2.496;6.743;20.862;5.439;8.494;7.227
2339689.731;4.098;-6.929;-6.519;4.433;17.248;6.780;9.201;7.264
2339689.739;1.043;-9.686;-10.803;0.559;12.740;4.321;8.829;1.900
2339689.747;-0.186;-12.331;-10.319;-2.459;14.380;6.445;10.543;3.688
2339689.755;-1.974;-14.231;-11.139;-4.768;13.672;6.296;9.537;5.253
2339689.763;0.633;-10.729;-9.798;-2.086;14.156;9.239;13.188;7.078
2339689.771;-0.224;-10.580;-11.697;-1.267;12.666;12.629;16.615;9.723
2339689.779;-3.688;-14.454;-14.678;-4.396;9.723;11.027;15.683;8.419
2339689.787;-9.164;-21.011;-18.328;-13.076;7.041;6.147;11.995;4.210
2339689.795;-11.139;-22.985;-20.489;-14.603;4.768;2.719;9.313;1.751
2339689.803;-4.582;-16.838;-15.125;-7.637;10.245;4.806;10.282;3.949
2339689.811;2.384;-10.021;-8.643;0.596;14.901;10.990;15.460;10.841
2339689.819;0.671;-12.629;-10.058;-2.049;13.486;12.368;17.397;10.692
2339689.827;-2.980;-16.354;-13.076;-6.109;12.815;11.362;18.142;9.984
2339689.835;-3.576;-15.274;-15.125;-5.476;10.021;8.345;13.970;9.052
2339689.843;-0.224;-10.729;-11.325;-0.522;14.193;8.792;12.331;10.207
2339689.851;2.682;-6.706;-9.276;1.378;17.546;7.749;12.033;8.494
2339689.859;0.969;-8.345;-12.368;-0.931;15.311;5.849;12.070;7.562
2339689.867;-1.639;-17.583;-16.019;-4.768;11.735;4.657;11.139;6.743
2339689.788;-8.866;-30.808;-21.793;-12.740;5.104;-0.820;6.184;1.974
2339689.796;-8.680;-29.989;-20.675;-13.411;5.662;-2.831;4.508;-0.335
2339689.804;-3.092;-24.326;-14.938;-10.468;10.766;-0.186;6.445;0.447
2339689.812;0.894;-18.515;-11.176;-7.264;12.778;2.906;10.133;0.708
2339689.820;-1.006;-19.111;-12.107;-10.505;12.070;4.098;10.505;0.782
2339689.828;-7.972;-25.593;-18.738;-17.770;5.364;1.527;7.041;-1.714
2339689.836;-9.872;-26.226;-19.930;-18.738;3.725;1.453;6.817;0.298
2339689.844;-7.115;-22.091;-17.360;-16.764;4.806;2.235;8.196;2.533
2339689.852;-7.339;-21.383;-17.807;-14.976;4.955;-0.559;3.986;-0.969
2339689.860;-3.949;-16.727;-14.156;-10.654;9.164;2.980;5.253;2.831
2339689.868;-6.668;-19.819;-15.609;-13.299;7.823;-1.118;-0.522;1.006
2339689.876;-4.470;-16.019;-12.517;-9.090;10.058;-0.931;-1.080;3.166
2339689.884;-0.149;-10.692;-8.158;-3.390;15.534;0.633;1.937;4.843
2339689.892;0.857;-8.903;-7.749;-1.788;16.503;1.937;4.768;3.651
2339689.900;2.459;-8.009;-6.519;-1.453;18.328;6.109;8.978;5.551
2339689.908;5.215;-5.215;-3.651;2.123;20.489;11.846;15.050;9.760
2339689.916;8.717;-1.118;-0.447;6.929;22.613;16.615;18.701;12.927
2339689.924;4.955;-4.657;-3.874;3.651;18.477;16.801;16.652;14.305
2339689.932;1.192;-7.041;-6.258;0.969;16.727;11.995;10.468;10.207
2339689.940;0.559;-6.966;-5.364;1.751;17.397;8.196;8.196;7.525
2339689.948;1.751;-5.811;-4.843;2.310;18.999;6.706;8.009;7.860
2339689.956;-1.043;-7.451;-9.462;1.304;15.683;8.829;9.872;10.505
2339689.964;-1.118;-5.923;-10.878;5.923;13.001;13.858;14.715;13.486
2339689.972;0.075;-3.576;-9.947;8.345;13.411;13.337;15.236;11.548
2339689.937;1.900;-1.676;-7.562;8.494;15.497;10.505;13.784;8.009
2339689.945;0.857;-3.278;-7.898;7.711;13.523;7.637;10.841;5.402
2339689.953;-0.894;-3.986;-9.015;6.594;11.548;11.772;12.666;9.015
2339689.961;-4.321;-7.786;-10.952;1.527;12.070;12.331;11.958;10.580
2339689.969;-4.135;-7.860;-11.660;0.671;11.772;14.380;13.001;14.491
2339689.977;-1.155;-4.433;-9.350;4.731;12.778;13.821;12.480;12.703
2339689.985;-1.974;-5.811;-8.717;3.614;13.299;8.121;7.562;7.562
2339689.993;1.937;-2.533;-3.763;6.407;16.131;11.548;11.660;11.399
2339690.001;4.731;1.341;1.863;10.617;15.274;17.248;17.881;15.050
2339690.009;2.533;-0.373;0.447;10.282;13.597;18.291;18.105;15.907
2339690.017;1.304;-1.565;-0.931;8.121;14.156;20.117;19.968;18.738
2339690.025;-3.353;-5.588;-5.364;3.502;9.239;16.317;14.603;18.254
2339690.033;-2.533;-4.247;-4.061;3.017;10.766;14.156;11.288;15.870
2339690.041;-3.316;-4.992;-5.066;1.527;10.617;12.852;10.058;14.491
2339690.049;-3.353;-5.625;-6.594;1.043;7.823;14.342;12.256;14.827
2339690.057;-1.080;-4.172;-3.874;2.496;9.499;17.509;15.050;18.179
2339690.065;-0.820;-2.943;-3.539;4.061;8.792;17.695;14.417;19.893
2339690.073;-2.012;-4.806;-3.465;1.974;10.654;19.893;15.125;22.948
2339690.081;-1.043;-4.061;-2.868;2.570;10.766;23.767;19.781;24.661
2339690.089;-2.831;-5.290;-4.433;1.043;9.872;20.042;19.260;18.626
2339690.097;0.559;-2.533;-1.043;4.061;13.597;20.601;19.372;18.366
2339690.105;3.763;0.261;1.714;6.296;16.056;20.713;19.483;20.191
2339690.113;3.688;-0.522;1.378;4.321;16.540;18.254;17.621;19.968
2339690.121;0.782;-3.651;-1.378;2.310;12.740;13.970;12.629;17.174
2339690.132;-2.235;-5.513;-3.837;-0.261;9.984;9.611;7.935;13.858
2339690.140;-0.857;-3.800;-3.129;1.378;10.952;9.574;6.333;16.466
2339690.148;4.098;1.565;1.080;6.892;16.652;11.958;8.158;21.458
2339690.156;4.396;1.714;-0.596;7.562;14.603;8.531;4.992;16.764
2339690.164;8.345;3.837;3.427;9.947;18.738;8.084;6.109;14.491
2339690.172;9.649;6.072;5.402;11.735;21.122;7.376;7.190;12.107
2339690.180;3.539;1.080;0.484;7.227;16.131;6.109;8.680;9.350
2339690.188;-2.161;-3.949;-5.178;2.608;10.915;5.886;10.394;7.637
2339690.196;-2.943;-3.725;-6.780;2.757;9.723;9.835;15.534;10.990
2339690.204;-5.178;-5.774;-8.494;0.894;7.264;9.611;14.231;10.803
2339690.212;-7.860;-8.494;-11.325;-1.788;2.980;5.513;9.537;6.147
2339690.220;-8.419;-9.350;-12.219;-2.906;3.204;4.210;5.439;6.594
2339690.228;-9.798;-9.611;-13.225;-3.390;4.061;4.880;3.576;9.239
2339690.236;-8.158;-7.451;-10.878;-3.092;5.439;8.978;7.525;13.858
2339690.244;-2.459;-2.123;-4.843;2.161;10.282;15.683;16.205;18.999
2339690.252;-3.502;-2.347;-5.849;1.565;8.941;12.815;15.870;16.354
2339690.260;-4.768;-4.098;-6.668;0.075;7.935;4.806;8.978;7.674
2339690.268;-6.929;-6.557;-9.947;-2.943;3.129;-1.118;2.272;1.155
2339690.276;-5.960;-6.258;-8.345;-3.316;4.135;1.416;3.539;5.402
2339690.284;-3.204;-3.390;-5.402;-1.565;8.196;6.892;8.233;11.139
2339690.292;-2.533;-3.688;-5.141;-3.017;9.537;6.855;7.153;10.692
2339690.300;-2.384;-3.763;-5.364;-3.353;7.972;7.041;8.158;10.915
2339690.308;-2.906;-3.241;-5.849;-3.055;5.513;8.568;10.841;12.182
2339690.316;-1.155;-2.012;-4.731;-3.017;6.519;8.419;10.580;12.815
2339690.358;-1.676;-3.502;-4.843;-3.912;7.190;5.402;9.649;9.835
2339690.366;1.974;0.745;-1.080;1.080;11.288;6.892;12.033;9.313
2339690.374;1.416;0.931;-1.378;2.310;11.213;10.133;16.131;10.543
2339690.382;-1.416;-0.596;-3.725;2.533;9.313;9.499;17.099;11.064
2339690.390;-3.502;-2.868;-4.433;-2.906;6.557;7.190;13.635;10.654
2339690.398;-9.350;-9.313;-10.058;-7.004;0.671;1.304;5.998;4.880
2339690.406;-9.052;-9.835;-8.382;-5.960;2.384;-0.298;3.278;4.284
2339690.414;-3.614;-4.396;-3.465;-0.075;6.966;0.708;3.874;5.998
2339690.422;-7.488;-8.158;-8.605;-4.955;1.714;-5.923;-1.527;-0.708
2339690.430;-7.935;-7.972;-10.803;-7.600;-0.596;-6.370;-2.794;-0.410
2339690.438;-8.680;-9.388;-12.182;-9.835;-2.384;-5.700;-4.843;0.522
2339690.446;-3.949;-3.353;-5.588;-4.955;2.757;-1.118;0.931;2.757
2339690.454;1.714;3.837;0.447;0.633;8.270;3.614;8.717;5.774
2339690.462;-1.714;-0.112;-3.651;-4.172;5.551;2.198;7.972;4.433
2339690.470;-3.465;-2.794;-6.109;-8.829;4.433;2.347;7.860;5.290
2339690.478;1.565;1.565;-1.900;-7.190;10.170;7.525;11.995;11.027
2339690.486;5.960;6.035;2.757;-4.135;14.491;9.947;13.448;14.193
2339690.494;3.949;3.278;2.049;-7.786;14.603;10.021;12.666;13.560
2339690.502;-0.596;-1.825;-0.522;-12.293;12.107;6.445;7.860;12.219
2339690.510;-6.109;-6.445;-5.364;-16.168;5.439;4.806;4.992;11.250
2339690.518;-7.562;-7.600;-6.258;-18.068;5.774;5.513;6.147;11.474
2339690.526;-6.855;-6.370;-5.104;-14.193;7.674;4.023;5.290;9.760
2339690.534;-5.886;-5.029;-4.470;-11.660;7.786;3.166;6.370;8.866
2339690.542;0.633;1.453;3.129;-4.247;15.609;3.353;7.488;9.276
2339690.615;3.092;4.098;6.482;-0.894;17.993;4.433;7.898;10.170
2339690.623;-3.390;-2.421;0.857;-7.786;12.256;-2.719;2.570;2.757
2339690.631;-1.751;-0.522;2.198;-5.588;13.448;2.123;7.488;7.786
2339690.639;-1.490;0.186;1.825;-3.204;14.156;4.582;9.760;8.568
2339690.647;3.465;6.221;6.445;3.725;18.291;4.433;8.605;9.350
2339690.655;5.662;7.451;8.978;5.513;21.420;5.737;7.860;11.548
2339690.663;-1.974;-0.410;0.410;-1.043;11.437;3.465;6.706;7.600
2339690.671;0.373;2.757;4.061;2.645;14.491;10.282;13.486;11.735
2339690.679;-4.061;-0.820;-0.596;-0.410;9.723;7.562;10.431;8.643
2339690.687;-9.015;-4.582;-5.290;-2.831;6.221;4.657;8.643;3.800
2339690.695;-8.531;-2.310;-6.370;0.745;4.806;9.537;12.927;9.947
2339690.703;-6.706;-0.224;-4.806;3.688;6.296;11.250;14.380;12.666
2339690.711;-8.605;-3.278;-7.078;-0.261;2.831;8.605;10.654;11.846
2339690.719;-8.233;-3.092;-8.270;-1.453;0.261;7.153;9.872;8.903
2339690.727;-1.565;4.321;-2.123;6.855;6.743;9.947;14.007;9.686
2339690.735;-2.906;2.384;-3.427;5.923;6.743;7.972;11.846;8.829
2339690.743;-7.190;-2.794;-6.929;0.261;2.980;5.364;9.499;7.525
2339690.751;-9.574;-5.104;-7.302;-1.490;1.602;5.141;10.058;3.353
2339690.759;-8.158;-3.465;-4.135;-0.112;6.370;9.686;14.082;5.588
2339690.767;-7.823;-4.023;-3.874;-2.012;7.451;11.846;15.460;9.239
2339690.775;-9.239;-4.731;-5.476;-4.843;3.688;12.256;16.429;10.468
2339690.783;-12.442;-8.456;-7.451;-8.158;2.719;9.015;11.101;10.021
2339690.791;-10.990;-7.711;-5.364;-6.445;4.657;9.723;9.872;12.033
2339690.799;-11.623;-7.227;-6.147;-6.184;4.433;10.915;11.511;14.007
2339690.823;-10.654;-5.364;-5.960;-3.502;3.204;7.078;9.425;11.474
2339690.831;-8.792;-3.017;-5.476;0.596;2.645;8.456;11.474;12.368
2339690.839;-15.013;-9.537;-12.442;-6.892;-4.172;4.135;7.451;5.886
2339690.847;-9.462;-3.427;-7.264;0.186;2.459;10.543;14.715;10.058
2339690.855;-6.184;-0.037;-4.098;5.178;3.465;13.262;19.744;10.096
2339690.863;-2.682;2.757;-1.602;8.196;6.221;14.752;20.787;11.213
2339690.871;-5.253;0.708;-3.725;5.513;5.364;13.858;17.434;12.740
2339690.879;-6.147;-0.373;-4.359;4.545;5.662;15.013;17.434;16.019
2339690.887;-4.768;-0.298;-2.682;2.906;8.196;15.348;15.907;18.775
2339690.895;-4.657;-0.596;-1.080;2.384;8.568;12.405;12.331;17.956
2339690.903;-4.917;-1.192;-1.490;1.825;8.754;9.127;9.649;13.709
2339690.911;-5.960;-2.012;-3.539;0.224;6.855;5.849;6.780;10.990
2339690.919;-9.984;-6.706;-7.227;-4.321;1.378;1.453;4.135;8.158
2339690.927;-9.313;-7.041;-6.296;-5.737;2.049;-0.671;2.272;7.078
2339690.935;-8.233;-5.774;-6.147;-3.427;3.129;-1.453;1.863;5.253
2339690.943;-7.674;-4.955;-5.141;-2.421;5.253;-0.857;3.204;4.880
2339690.951;-4.843;-1.863;-0.745;1.229;9.350;2.347;5.327;8.419
2339690.959;-7.898;-4.880;-2.496;-2.570;7.041;2.757;5.104;10.468
2339690.967;-14.268;-10.580;-9.499;-8.307;-1.341;-1.267;1.043;6.780
2339690.975;-6.445;-3.427;-2.272;-1.565;5.849;2.235;3.241;11.325
2339690.983;-1.267;1.453;2.496;1.788;8.829;-0.857;-1.043;9.052
2339690.991;2.980;5.327;7.376;4.433;11.660;-2.123;-2.310;7.488
2339690.999;5.215;7.078;9.649;7.674;14.268;-0.522;0.633;8.792
2339691.007;9.723;11.399;13.448;13.225;17.807;5.178;7.376;13.337
2339691.018;10.096;12.107;13.970;14.417;18.701;6.035;8.941;10.729
2339691.026;12.554;13.523;16.615;14.715;21.048;6.221;9.649;11.437
2339691.034;13.337;14.454;17.546;14.603;22.501;6.445;9.499;14.231
2339691.042;8.941;12.442;11.660;13.448;15.199;2.459;6.482;10.133
2339691.050;9.239;15.609;10.319;19.185;12.852;4.135;8.121;12.256
2339691.058;9.909;16.950;10.207;21.271;15.199;5.662;7.972;11.995
2339691.066;4.880;11.437;4.992;13.374;11.586;2.980;3.427;8.456
2339691.074;9.313;14.119;9.760;14.529;18.738;7.413;7.339;13.113
2339691.082;11.250;15.646;11.288;15.758;20.079;5.364;6.892;13.560
2339691.090;9.388;13.746;8.531;14.678;16.540;-1.565;1.080;6.743
2339691.098;10.878;15.274;8.941;16.801;16.913;-4.768;0.075;3.651
2339691.106;7.637;12.629;4.694;14.380;10.692;-9.909;-1.155;-4.582
2339691.114;8.792;14.640;6.147;16.503;11.362;-7.860;2.421;-2.161
2339691.122;8.121;13.672;5.774;14.976;12.256;-5.998;3.837;1.155
2339691.130;3.651;8.345;1.788;9.313;9.574;-3.688;3.204;3.725
2339691.138;-1.453;2.235;-3.241;3.614;3.427;-1.416;4.247;6.109
2339691.146;-7.637;-4.061;-9.239;-2.049;-1.304;-0.671;2.831;7.153
2339691.154;-11.548;-7.004;-11.809;-4.731;-3.949;0.000;3.055;8.717
2339691.162;-6.370;-2.421;-4.806;1.863;4.545;7.190;12.591;15.087
2339691.170;-10.319;-7.711;-9.201;-3.017;-0.112;4.210;11.325;9.052
2339691.178;-10.058;-8.754;-9.574;-5.811;-0.410;5.402;12.815;7.264
2339691.186;-7.115;-4.657;-7.264;-4.619;2.794;7.041;14.715;6.817
2339691.194;-7.711;-4.880;-7.711;-7.860;1.788;4.433;10.654;6.147
2339691.202;-7.600;-6.258;-8.494;-10.207;0.708;4.098;7.860;7.525
2339691.274;-7.786;-6.966;-9.798;-11.139;-2.421;3.614;6.668;9.649
2339691.282;-11.325;-9.947;-14.193;-15.423;-6.445;5.476;6.929;12.927
2339691.290;-16.727;-14.529;-19.670;-20.675;-10.096;4.917;5.625;13.821
2339691.298;-20.266;-18.403;-21.681;-24.699;-10.133;4.023;5.253;9.425
2339691.306;-19.334;-17.993;-19.446;-25.481;-8.307;4.508;6.147;9.350
2339691.314;-21.197;-19.446;-19.968;-29.467;-7.376;2.123;4.508;5.700
2339691.322;-19.222;-17.621;-17.323;-27.977;-5.774;4.694;7.600;4.880
2339691.330;-17.285;-15.125;-15.907;-26.748;-4.433;5.774;8.978;3.949
2339691.338;-16.987;-13.933;-16.652;-24.177;-4.731;8.941;10.207;8.382
2339691.346;-22.613;-19.521;-21.905;-27.791;-9.164;5.960;5.588;8.419
2339691.354;-26.003;-21.495;-23.916;-29.802;-11.772;5.513;3.912;10.692
2339691.362;-26.934;-22.501;-24.401;-29.765;-11.623;4.247;2.086;10.282
2339691.370;-28.200;-22.687;-26.152;-28.536;-14.715;-0.186;-1.937;5.700
2339691.378;-29.132;-25.667;-26.114;-30.734;-14.678;0.745;-1.378;6.147
2339691.386;-31.367;-27.902;-27.455;-31.814;-14.566;0.075;-1.118;6.221
2339691.394;-27.083;-22.314;-23.060;-25.854;-10.729;2.943;2.310;8.158
2339691.402;-24.214;-20.713;-20.862;-23.022;-10.431;3.278;2.496;7.190
2339691.410;-24.140;-20.973;-19.744;-22.575;-8.531;-0.522;-1.192;2.608
2339691.418;-23.991;-20.936;-18.813;-23.581;-7.078;-0.335;-1.788;3.278
2339691.426;-24.252;-21.532;-19.334;-22.985;-7.488;1.080;-1.080;4.321
2339691.434;-26.040;-23.209;-21.942;-23.395;-11.846;-4.023;-6.668;-1.229
2339691.442;-22.464;-18.254;-18.813;-19.819;-8.978;-3.912;-8.084;1.416
2339691.450;-20.824;-15.795;-17.211;-18.626;-6.892;-6.855;-11.101;-0.894
2339691.458;-15.199;-9.611;-10.543;-11.399;-0.373;-4.023;-7.078;1.341
2339691.452;-14.342;-7.972;-10.319;-8.196;-0.522;0.000;-1.080;4.284
2339691.460;-16.317;-10.133;-13.597;-10.021;-4.061;1.341;1.825;5.253
2339691.468;-14.827;-8.531;-13.895;-6.333;-5.737;2.496;5.178;4.135
2339691.476;-14.752;-7.898;-14.156;-5.513;-7.078;-1.341;2.645;-1.416
2339691.484;-20.303;-13.374;-18.552;-12.927;-10.170;-3.912;-0.373;-3.465
2339691.492;-24.252;-18.813;-21.644;-18.105;-11.958;-3.055;-1.155;0.186
2339691.500;-23.730;-18.440;-21.569;-17.397;-12.368;-3.614;-2.459;2.123
2339691.508;-21.271;-15.199;-18.552;-14.603;-9.164;-4.396;-3.763;2.757
2339691.516;-19.819;-13.188;-16.280;-11.511;-5.886;-4.657;-1.825;0.894
2339691.524;-17.509;-10.990;-14.491;-9.239;-4.247;-2.980;2.198;1.378
2339691.532;-18.030;-10.952;-14.938;-10.468;-5.476;-2.459;2.868;1.565
2339691.540;-16.093;-8.121;-12.591;-7.525;-3.055;0.671;5.737;4.582
2339691.548;-16.838;-8.717;-14.231;-7.637;-5.625;-2.384;3.241;0.559
2339691.556;-20.042;-11.250;-18.328;-7.562;-10.617;-10.654;-4.284;-6.966
2339691.564;-17.844;-8.121;-15.385;-5.849;-6.855;-12.182;-5.662;-7.600
2339691.572;-15.981;-5.029;-13.821;-2.608;-6.258;-12.517;-7.153;-6.370
2339691.580;-13.113;-1.676;-11.958;0.000;-4.284;-14.678;-11.697;-5.551
2339691.588;-6.668;4.582;-5.141;6.594;1.639;-12.703;-11.809;-3.465
2339691.596;-5.215;5.774;-3.316;8.717;2.682;-12.591;-9.239;-3.837
2339691.604;-7.749;3.092;-7.004;4.992;-1.974;-13.709;-8.717;-6.296
2339691.612;-12.442;-1.974;-12.964;0.000;-8.009;-16.391;-10.505;-11.362
2339691.620;-13.895;-3.055;-14.380;-1.378;-7.264;-15.609;-8.941;-9.984
2339691.628;-17.248;-5.327;-17.099;-2.868;-9.835;-15.460;-7.786;-10.878
2339691.636;-19.856;-7.972;-19.521;-6.370;-12.629;-15.534;-7.860;-11.995
2339691.542;-24.736;-12.442;-22.948;-12.107;-16.578;-18.142;-12.107;-12.591
2339691.550;-23.507;-11.846;-20.973;-13.784;-14.976;-17.211;-12.554;-9.499
2339691.558;-21.458;-10.394;-19.260;-10.580;-14.193;-17.360;-14.640;-8.196
2339691.566;-20.154;-8.456;-19.260;-7.562;-14.901;-16.876;-15.274;-7.674
2339691.574;-14.231;-1.490;-13.299;-0.373;-8.643;-10.170;-7.823;-4.433
2339691.582;-7.264;4.843;-6.407;5.588;-0.261;-4.433;-0.857;-1.378
2339691.590;-6.296;6.184;-5.551;6.482;1.863;-2.719;-0.149;0.559
2339691.598;-5.588;7.749;-5.253;6.109;1.229;-3.092;-0.894;1.267
2339691.606;-8.941;3.688;-8.643;3.502;-2.757;-5.737;-3.763;-1.900
2339691.614;-10.394;2.757;-10.729;3.241;-5.588;-10.431;-8.568;-5.737
2339691.622;-10.058;3.949;-10.319;4.508;-3.539;-13.039;-11.548;-7.898
2339691.630;-8.792;4.619;-10.282;2.384;-4.210;-9.462;-10.505;-3.166
2339691.638;-11.846;1.565;-13.039;-2.608;-6.519;-10.692;-11.623;-4.172
2339691.646;-13.113;0.931;-13.113;-2.012;-6.668;-8.494;-7.376;-3.316
2339691.654;-10.356;4.321;-9.649;2.272;-3.800;-5.886;-2.198;-0.373
2339691.662;-4.992;9.947;-5.625;7.264;-0.037;-2.570;2.198;0.969
2339691.670;-4.955;8.829;-6.258;5.215;0.522;-3.837;2.943;-2.794
2339691.678;-2.757;10.431;-2.943;6.706;3.986;-1.863;4.917;0.745
2339691.686;-4.023;8.009;-3.129;4.955;4.433;-3.539;1.751;2.012
2339691.694;-3.539;8.605;-1.043;4.098;6.519;-6.407;-2.347;2.235
2339691.702;-8.121;4.284;-5.588;-1.304;0.075;-12.033;-8.345;-3.576
2339691.710;-7.041;4.806;-4.880;-2.980;0.931;-8.941;-7.749;-1.267
2339691.718;-4.582;7.972;-2.570;-0.820;2.049;-3.912;-3.017;3.651
2339691.726;-6.706;4.470;-4.061;-4.731;1.043;-3.986;-1.900;2.347
2339691.679;-6.817;2.086;-3.278;-6.966;1.974;-5.327;-1.378;1.006
2339691.687;-8.903;0.857;-5.513;-7.004;0.000;-6.892;-2.608;-1.043
2339691.695;-11.735;-1.602;-10.394;-10.207;-5.215;-7.339;-3.688;-0.708
2339691.703;-12.740;-2.906;-11.474;-13.039;-6.706;-7.227;-2.906;-3.316
2339691.711;-11.101;-2.161;-8.717;-12.480;-3.949;-4.023;0.484;1.043
2339691.719;-14.044;-5.625;-12.070;-14.640;-7.525;-7.190;-3.763;-0.298
2339691.727;-12.629;-3.129;-11.325;-11.586;-7.413;-8.270;-5.662;-0.931
2339691.735;-8.158;2.682;-7.488;-6.706;-6.929;-4.023;-1.118;2.384
2339691.743;-5.066;6.109;-4.321;-3.986;-5.290;1.676;3.763;7.488
2339691.751;-9.947;0.410;-8.866;-8.643;-8.270;1.527;4.061;6.221
2339691.759;-12.256;-1.341;-10.878;-10.580;-10.505;4.880;7.115;9.686
2339691.767;-10.841;-0.633;-9.760;-9.872;-9.760;5.066;6.966;9.909
2339691.775;-8.717;1.565;-6.668;-8.382;-6.221;2.906;5.662;7.413
2339691.783;-6.817;5.253;-4.917;-5.215;-5.998;3.390;6.035;8.754
2339691.791;-7.860;4.545;-6.109;-6.072;-5.625;3.763;7.600;7.041
2339691.799;-18.030;-5.513;-16.950;-16.093;-17.248;0.559;4.508;2.719
2339691.807;-21.085;-8.680;-19.781;-18.328;-20.564;3.725;6.557;4.917
2339691.815;-21.420;-10.207;-20.154;-18.030;-20.862;3.055;7.600;4.284
2339691.823;-15.944;-4.768;-14.268;-12.927;-14.231;5.141;9.798;6.743
2339691.831;-17.434;-4.582;-17.062;-13.560;-19.521;5.141;9.649;5.849
2339691.839;-22.240;-9.239;-20.862;-19.781;-22.314;0.075;4.135;0.969
2339691.847;-23.060;-10.282;-21.048;-23.469;-20.713;-1.304;2.161;1.974
2339691.855;-22.464;-10.133;-21.160;-23.134;-20.936;-1.676;1.937;1.006
2339691.863;-19.073;-6.035;-17.360;-18.813;-16.801;1.900;4.955;4.582
2339691.827;-15.907;-3.129;-11.139;-17.360;-8.009;6.184;7.525;9.611
2339691.835;-20.228;-7.302;-15.572;-21.681;-13.895;0.931;2.831;2.384
2339691.843;-21.234;-10.133;-15.125;-25.481;-10.207;1.639;2.198;4.098
2339691.851;-21.793;-9.909;-16.615;-25.257;-13.225;2.645;3.502;4.619
2339691.859;-21.048;-7.711;-15.870;-21.048;-13.635;2.943;3.465;4.023
2339691.867;-17.881;-4.843;-11.548;-15.981;-7.451;4.917;5.066;5.811
2339691.875;-15.348;-1.304;-9.164;-9.164;-6.668;2.831;4.470;4.880
2339691.883;-15.050;-0.931;-8.233;-9.090;-7.339;2.943;5.849;3.837
2339691.891;-12.368;1.006;-6.929;-7.451;-6.817;5.066;7.227;5.886
2339691.899;-12.815;-0.857;-5.849;-8.345;-3.874;3.614;3.614;4.880
2339691.907;-15.348;-3.017;-6.966;-9.760;-3.874;0.037;-0.559;2.719
2339691.915;-13.188;-1.118;-5.588;-7.600;-5.290;-0.782;0.186;2.943
2339691.923;-15.609;-3.129;-8.680;-8.941;-8.680;0.298;-0.149;5.364
2339691.931;-20.526;-8.494;-13.523;-15.050;-14.938;-2.012;-1.602;2.123
2339691.939;-16.950;-6.258;-9.164;-14.231;-8.568;-2.645;-0.186;0.149
2339691.947;-15.423;-4.917;-6.780;-12.293;-6.333;-1.118;2.384;0.745
2339691.955;-13.337;-1.714;-6.855;-7.115;-10.356;-2.272;1.788;-2.645
2339691.963;-3.912;7.413;2.682;3.241;4.135;2.794;6.109;2.496
2339691.971;-8.047;5.364;-4.135;1.974;-7.525;2.645;4.731;2.608
2339691.979;-11.288;2.757;-8.121;-0.596;-13.635;2.347;3.465;1.974
2339691.987;-8.978;3.465;-4.210;-1.900;-9.760;3.204;4.433;3.316
2339691.995;-7.562;3.465;-3.688;-2.719;-9.052;3.166;7.488;2.943
2339692.003;-7.972;4.396;-5.737;-0.373;-12.964;2.123;5.923;1.565
2339692.011;-4.321;8.456;-0.298;4.172;-5.364;5.327;8.494;6.594
2339691.993;-4.433;10.356;-2.757;5.215;-11.921;7.302;10.394;9.052
2339692.001;-10.841;3.166;-9.872;-3.055;-15.572;1.714;4.210;2.794
2339692.009;-13.039;-0.224;-13.970;-5.104;-25.295;0.559;2.943;1.676
2339692.017;-12.219;-0.931;-13.895;-6.743;-26.450;4.321;8.047;3.427
2339692.025;-16.056;-4.247;-17.807;-11.660;-30.994;1.825;7.264;1.639
2339692.033;-21.644;-9.537;-24.699;-16.540;-39.376;-3.465;0.559;-1.378
2339692.041;-21.867;-8.717;-23.656;-16.317;-36.582;-2.272;-0.112;0.559
2339692.049;-19.222;-6.519;-23.358;-15.758;-38.594;-2.980;-0.522;-2.012
2339692.057;-16.391;-4.210;-21.532;-12.629;-35.688;-1.714;2.198;-2.235
2339692.065;-22.948;-11.362;-26.785;-19.148;-40.457;-2.384;2.272;-2.794
2339692.073;-21.011;-10.729;-23.991;-21.234;-36.471;-2.123;2.235;-1.043
2339692.081;-13.225;-2.608;-18.887;-12.256;-38.333;0.298;4.880;2.719
2339692.089;-11.288;-0.484;-17.472;-8.196;-37.849;-0.484;2.272;0.298
2339692.097;-14.268;-4.172;-18.887;-11.884;-39.004;1.602;3.316;1.304
2339692.105;-19.670;-10.356;-25.071;-16.838;-48.503;4.135;6.557;2.384
2339692.113;-22.613;-13.337;-29.430;-18.850;-53.458;0.969;1.714;2.570
2339692.121;-23.544;-15.944;-30.957;-22.836;-57.220;-5.327;-3.539;-1.751
2339692.129;-24.438;-18.142;-30.063;-23.730;-55.656;-2.459;-1.937;3.390
2339692.137;-24.661;-18.068;-29.542;-23.730;-58.860;0.186;0.782;4.247
2339692.145;-24.885;-18.924;-31.739;-24.661;-70.184;-0.224;2.235;-1.416
2339692.153;-23.581;-17.434;-31.069;-23.134;-70.445;-1.527;1.229;0.037
2339692.161;-21.495;-13.895;-29.393;-19.036;-70.073;-4.359;-2.347;-0.410
2339692.169;-17.025;-8.680;-27.269;-14.268;-69.402;-3.874;-1.714;-0.484
2339692.177;-12.256;-4.843;-23.842;-9.909;-66.422;-1.118;3.055;0.820
2339692.218;-7.488;-0.335;-19.111;-4.545;-61.840;5.141;11.437;8.307
2339692.226;-10.394;-2.123;-22.762;-4.992;-66.273;4.135;11.697;6.333
2339692.234;-14.044;-5.625;-26.263;-7.823;-67.875;-0.149;8.456;0.894
2339692.242;-17.025;-9.276;-27.195;-14.789;-71.153;-3.204;5.513;-0.484
2339692.250;-15.199;-8.717;-23.581;-18.254;-67.614;-2.757;7.674;-0.373
2339692.258;-13.225;-8.680;-22.464;-16.205;-66.534;-0.894;12.033;1.043
2339692.266;-17.621;-12.927;-27.940;-17.695;-73.276;-3.949;10.878;-2.086
2339692.274;-15.199;-8.568;-25.406;-14.007;-70.818;-3.166;11.399;-1.304
2339692.282;-19.222;-12.964;-32.671;-20.117;-81.100;-2.831;12.964;-0.559
2339692.290;-25.854;-20.377;-39.749;-29.616;-86.688;-3.763;14.417;-0.820
2339692.298;-27.865;-23.879;-39.376;-31.665;-84.192;-2.161;15.162;2.645
2339692.306;-26.822;-22.128;-38.780;-30.026;-85.942;-0.075;17.472;4.470
2339692.314;-22.389;-19.185;-34.012;-33.528;-85.011;1.751;22.128;3.986
2339692.322;-17.434;-12.740;-28.871;-29.132;-78.008;3.837;27.902;5.178
2339692.330;-16.168;-9.313;-27.493;-21.309;-76.517;0.484;28.387;1.639
2339692.338;-20.862;-15.236;-32.075;-29.877;-82.962;-3.688;24.438;-1.490
2339692.346;-23.954;-19.073;-34.831;-39.414;-88.327;-5.029;22.016;-2.794
2339692.354;-24.140;-20.675;-34.273;-46.082;-87.731;-9.462;18.850;-9.201
2339692.362;-18.701;-15.832;-29.132;-42.692;-80.653;-7.302;22.762;-8.009
2339692.370;-16.429;-13.597;-27.344;-40.829;-79.386;-4.508;26.263;-3.427
2339692.378;-18.291;-15.646;-29.691;-43.921;-84.452;-3.390;25.481;-0.447
2339692.386;-21.011;-18.105;-32.857;-48.876;-89.407;-3.576;24.848;0.745
2339692.394;-20.675;-17.583;-30.994;-50.031;-85.756;-5.700;22.687;-1.900
2339692.402;-15.423;-12.182;-25.220;-45.486;-80.653;-6.147;24.773;-1.341
2339692.338;-12.517;-8.084;-22.091;-40.829;-76.257;-7.153;27.791;-4.396
2339692.346;-8.084;-5.625;-19.111;-39.078;-73.947;-9.015;27.977;-6.258
2339692.354;-4.172;-2.086;-15.087;-36.582;-70.296;-4.284;32.336;-1.453
2339692.362;-8.419;-3.502;-22.389;-36.433;-81.994;-3.278;31.143;-3.539
2339692.370;-9.127;-2.235;-24.103;-33.006;-84.527;-4.619;30.510;-8.196
2339692.378;-4.843;3.055;-19.111;-27.195;-80.429;0.112;37.178;-4.247
2339692.386;-1.453;5.849;-15.683;-24.401;-77.225;4.545;43.325;3.166
2339692.394;-0.075;7.711;-14.380;-21.495;-77.225;4.210;42.506;5.923
2339692.402;-7.749;-1.304;-20.862;-32.000;-80.317;-4.880;34.012;-1.974
2339692.410;-16.838;-12.033;-30.585;-43.921;-92.797;-15.572;25.146;-12.778
2339692.418;-7.339;-1.118;-21.756;-32.708;-84.862;-3.576;38.445;-2.980
2339692.426;-5.215;0.335;-17.993;-31.516;-78.119;1.900;45.002;2.123
2339692.434;-6.221;-1.527;-19.111;-33.453;-80.578;-0.410;41.500;1.118
2339692.442;-1.565;2.086;-15.236;-29.802;-77.635;1.043;44.294;0.857
2339692.450;-1.900;2.533;-14.231;-29.951;-74.953;0.186;42.617;1.490
2339692.458;-1.937;4.172;-14.380;-29.802;-76.741;1.304;41.500;1.676
2339692.466;1.937;6.072;-9.947;-28.759;-68.024;6.370;45.039;8.792
2339692.474;2.012;6.482;-6.929;-29.653;-65.006;4.843;42.506;8.866
2339692.482;3.725;9.388;-5.290;-27.604;-68.247;4.917;43.847;6.706
2339692.490;-0.559;6.370;-11.176;-29.132;-75.325;-1.639;38.669;0.000
2339692.498;0.969;6.929;-9.388;-28.647;-71.935;0.969;42.021;2.570
2339692.506;0.671;5.960;-8.382;-33.230;-69.514;4.582;44.741;4.284
2339692.514;-0.894;2.943;-10.394;-38.333;-71.898;8.531;48.392;7.302
2339692.522;-7.860;-4.210;-14.417;-48.131;-74.729;5.811;45.933;3.614
2339692.547;-1.192;0.894;-6.407;-45.970;-66.571;7.898;49.211;5.588
2339692.555;8.717;8.866;4.470;-39.712;-53.868;11.921;53.309;11.772
2339692.563;-0.894;0.410;-6.184;-48.243;-64.820;1.118;41.202;1.714
2339692.571;8.419;9.537;6.519;-40.084;-47.907;10.841;50.291;13.299
2339692.579;-1.304;-1.229;-5.141;-51.074;-64.410;3.129;44.964;1.825
2339692.587;0.186;2.272;-1.490;-48.988;-58.636;8.382;52.974;6.258
2339692.595;-0.484;0.894;-1.788;-53.570;-61.095;6.333;50.291;5.066
2339692.603;-0.298;1.118;-0.671;-53.458;-60.983;10.766;52.862;10.878
2339692.611;5.849;5.439;5.215;-52.154;-53.942;13.374;54.985;15.534
2339692.619;13.262;11.437;9.649;-47.311;-56.438;9.909;52.564;8.978
2339692.627;22.389;19.856;21.607;-40.308;-40.792;4.545;50.552;-0.075
2339692.635;17.695;14.938;16.168;-47.050;-49.323;3.651;48.913;4.098
2339692.643;3.725;1.863;1.676;-60.685;-64.373;-2.533;45.523;-4.433
2339692.651;2.384;2.235;2.459;-63.069;-61.393;-2.608;43.623;-1.788
2339692.659;15.609;14.640;15.497;-54.501;-44.517;7.041;48.876;12.331
2339692.667;14.417;12.442;13.933;-60.871;-46.603;5.402;48.727;10.282
2339692.675;8.717;7.190;11.101;-70.930;-48.503;-0.224;43.325;4.992
2339692.683;20.079;17.770;22.799;-62.510;-37.774;10.915;55.842;17.025
2339692.691;9.164;5.551;10.841;-76.219;-51.185;2.757;49.584;2.123
2339692.699;7.302;4.098;10.431;-79.982;-49.397;5.588;50.478;3.763
2339692.707;14.789;11.772;16.354;-77.225;-45.337;5.700;48.801;5.700
2339692.715;12.554;10.766;11.399;-80.019;-53.942;10.543;54.538;8.233
2339692.723;-4.470;-6.147;-2.012;-98.385;-65.044;4.768;49.621;3.204
2339692.731;-1.304;-4.433;3.017;-102.371;-58.748;2.123;47.944;1.453
2339692.713;7.674;2.645;14.715;-101.291;-45.262;-0.522;42.953;2.868
2339692.721;10.133;6.109;14.268;-100.434;-48.727;6.370;50.627;7.711
2339692.729;10.468;3.837;15.907;-108.704;-43.884;5.327;51.558;5.662
2339692.737;10.207;6.743;13.374;-108.443;-44.964;0.931;47.982;2.049
2339692.745;15.423;11.846;19.446;-105.724;-37.700;8.121;54.464;11.399
2339692.753;1.937;-3.539;6.631;-126.474;-51.931;-4.992;39.823;-1.527
2339692.761;15.572;9.462;19.744;-120.550;-38.557;5.364;50.440;7.562
2339692.769;18.924;12.890;24.661;-123.456;-30.361;14.864;59.977;17.770
2339692.777;15.944;8.382;20.452;-132.993;-35.167;5.737;52.638;7.786
2339692.785;23.395;15.534;29.281;-130.646;-25.257;12.480;59.381;13.858
2339692.793;17.136;9.313;24.736;-140.406;-28.163;7.674;52.378;7.190
2339692.801;23.507;14.976;29.802;-139.438;-21.644;13.784;59.679;10.692
2339692.809;48.466;37.886;55.507;-122.525;5.253;35.167;82.217;31.590
2339692.817;38.780;26.524;47.684;-134.557;-1.006;24.848;70.781;21.532
2339692.825;28.722;14.715;40.568;-148.416;-5.700;11.362;58.152;8.754
2339692.833;20.973;7.115;34.347;-157.692;-7.972;9.239;55.693;7.339
2339692.841;33.192;21.011;47.088;-144.467;7.674;18.403;67.279;16.317
2339692.849;42.766;30.920;56.811;-138.208;19.483;24.550;73.761;22.538
2339692.857;39.823;27.269;56.997;-146.553;21.495;24.401;74.245;23.954
2339692.865;25.891;12.890;43.847;-164.360;8.121;12.442;63.032;10.729
2339692.873;22.165;10.058;39.972;-168.532;5.998;15.348;67.428;11.809
2339692.881;33.304;19.707;51.223;-162.497;19.856;24.065;74.580;21.085
2339692.889;35.651;22.091;56.140;-160.858;27.902;24.661;74.431;23.656
2339692.897;37.663;25.108;59.083;-155.978;30.547;31.479;84.080;31.590
2339692.862;32.820;18.701;54.352;-164.583;27.679;22.985;72.941;23.395
2339692.870;42.543;29.318;63.181;-154.041;38.072;30.249;79.423;29.095
2339692.878;37.439;22.836;60.871;-162.013;37.178;27.306;78.231;26.040
2339692.886;39.712;22.128;65.714;-168.644;43.884;22.464;73.202;22.948
2339692.894;55.581;41.761;80.429;-143.684;59.791;33.677;86.725;34.235
2339692.902;31.404;20.266;58.487;-162.087;42.394;19.521;73.276;21.420
2339692.910;28.089;14.976;56.364;-170.060;41.723;4.880;57.258;6.817
2339692.918;35.763;22.128;64.187;-160.560;52.005;6.966;60.163;8.866
2339692.926;31.628;19.483;61.467;-159.182;50.515;2.943;56.885;6.109
2339692.934;38.110;27.120;65.975;-150.129;54.874;8.494;63.032;11.064
2339692.942;50.999;39.041;80.019;-137.202;70.855;18.515;72.606;21.383
2339692.950;49.882;37.849;79.274;-137.463;72.494;16.727;68.210;21.420
2339692.958;33.751;22.091;62.846;-152.625;57.556;3.688;53.495;8.158
2339692.966;30.994;20.415;60.089;-152.849;53.011;-1.043;48.950;3.092
2339692.974;34.235;24.550;60.685;-144.020;53.160;2.012;52.117;6.706
2339692.982;50.664;42.468;78.119;-125.468;61.505;11.362;62.399;18.217
2339692.990;55.805;46.790;81.956;-120.476;47.088;4.768;58.115;11.064
2339692.998;47.274;37.774;72.978;-126.064;34.831;-3.092;50.776;2.310
2339693.006;57.593;46.156;83.782;-115.708;48.578;6.631;56.550;10.990
2339693.014;57.109;45.560;81.509;-114.478;48.354;8.605;56.624;12.144
2339693.022;46.603;35.949;69.924;-120.364;39.153;6.407;55.432;10.170
2339693.030;49.993;39.488;75.586;-115.670;48.205;10.990;60.126;17.844
2339693.038;49.882;38.221;75.325;-115.745;48.466;6.109;56.736;10.841
2339693.046;62.473;50.738;88.364;-98.087;66.273;14.380;64.000;21.160
2339693.101;53.756;42.096;80.056;-104.457;53.570;6.296;55.060;12.703
2339693.109;46.827;34.943;74.357;-110.939;54.277;-3.912;44.778;2.645
2339693.117;59.158;49.211;80.839;-91.307;58.599;14.156;62.250;17.509
2339693.125;59.120;49.435;78.715;-87.135;52.564;18.068;64.336;22.948
2339693.133;61.728;51.185;80.951;-81.845;55.544;19.521;67.540;20.377
2339693.141;55.060;44.070;72.792;-83.894;48.093;8.419;57.966;7.488
2339693.149;51.819;40.308;66.943;-82.366;42.059;4.508;53.309;4.210
2339693.157;64.261;51.148;77.747;-68.471;53.942;13.821;62.101;18.440
2339693.165;63.367;52.452;76.666;-59.232;52.266;10.319;60.275;13.709
2339693.173;67.949;58.152;79.237;-46.231;49.621;15.162;62.771;19.558
2339693.181;73.984;64.522;83.894;-32.857;51.558;15.199;62.808;17.136
2339693.189;74.990;66.534;85.868;-23.581;52.825;8.866;55.917;6.892
2339693.197;102.371;95.032;116.043;12.890;80.317;13.486;57.854;15.460
2339693.205;131.838;127.777;143.386;55.730;93.803;21.383;66.869;22.613
2339693.213;171.587;168.905;184.253;103.712;127.070;39.265;83.148;41.798
2339693.221;184.141;184.327;197.552;125.878;133.291;23.618;67.949;28.685
2339693.229;197.627;195.764;213.496;140.294;146.553;23.320;68.843;29.728
2339693.237;205.897;204.258;222.363;152.364;157.095;21.607;65.751;28.424
2339693.245;193.864;193.156;208.057;145.435;145.286;16.540;59.754;24.252
2339693.253;182.539;180.863;195.168;135.675;138.953;15.236;56.811;22.836
2339693.261;156.648;152.849;165.552;106.506;114.515;2.310;40.978;8.382
2339693.269;143.982;139.512;148.676;91.493;102.967;7.041;46.119;12.368
2339693.277;134.259;129.454;136.532;79.833;96.112;11.586;50.738;16.913
2339693.285;118.650;112.131;120.923;61.579;86.278;10.133;48.876;16.280
2339693.255;103.451;98.683;105.798;50.627;75.139;9.649;47.870;16.205
2339693.263;95.665;90.525;98.534;46.082;70.408;9.499;49.546;14.417
2339693.271;87.135;79.647;90.078;36.620;66.385;6.296;45.262;11.250
2339693.279;77.263;70.073;79.870;31.590;58.375;2.570;42.692;6.594
2339693.287;78.455;72.345;80.243;38.669;62.697;3.502;43.362;7.451
2339693.295;74.245;69.439;75.102;34.980;62.585;4.098;42.394;7.637
2339693.303;74.282;69.402;74.208;37.625;63.777;8.643;45.709;12.405
2339693.311;77.412;72.271;75.996;45.300;67.204;11.958;48.280;15.721
2339693.319;73.314;67.949;71.786;44.964;64.671;12.219;47.609;17.025
2339693.327;58.413;53.234;58.115;35.129;53.756;8.903;43.735;15.199
2339693.335;48.615;44.778;48.243;32.596;46.156;7.562;42.394;15.162
2339693.343;41.761;39.153;39.972;37.849;40.717;1.527;38.370;7.935
2339693.351;41.798;39.227;41.500;44.145;43.288;-2.757;35.614;3.986
2339693.359;41.425;37.104;41.351;46.045;45.076;-5.737;31.218;0.633
2339693.367;45.039;38.594;44.256;50.105;48.578;-1.974;34.161;4.098
2339693.375;45.188;39.786;45.747;54.426;51.856;0.633;35.688;8.047
2339693.383;47.721;43.660;48.056;62.212;55.097;5.811;41.276;14.044
2339693.391;43.325;39.414;43.400;61.281;52.340;5.253;39.712;14.566
2339693.399;39.712;35.018;40.680;60.350;53.532;3.539;39.004;11.250
2339693.407;39.451;35.055;38.482;64.224;47.125;3.129;38.072;9.201
2339693.415;37.402;33.863;37.365;66.794;46.492;1.788;36.433;7.898
2339693.423;42.096;39.190;42.766;75.363;54.762;5.886;39.004;12.778
2339693.431;44.703;42.282;44.592;78.976;58.189;8.345;40.159;16.503
2339693.439;42.617;40.196;40.978;79.572;53.085;5.476;36.657;11.437
2339693.402;40.233;37.178;39.004;80.951;52.601;1.639;32.447;9.350
2339693.410;36.135;33.230;34.496;79.274;53.160;-2.123;28.461;9.499
2339693.418;45.188;41.090;46.827;91.083;74.357;5.029;33.826;24.736
2339693.426;45.635;44.443;39.525;100.136;49.546;1.341;30.585;14.156
2339693.434;33.751;33.006;25.705;90.003;39.674;-14.156;16.131;-7.786
2339693.442;40.159;38.631;32.485;96.411;50.105;-5.998;24.997;-0.969
2339693.450;45.002;43.958;36.955;104.085;53.644;1.900;34.049;6.631
2339693.458;41.649;40.047;32.969;102.632;48.801;1.602;31.888;8.456
2339693.466;43.847;43.847;33.528;110.902;51.707;6.966;36.024;10.654
2339693.474;47.274;47.497;37.886;115.819;57.630;15.125;43.213;19.595
2339693.482;42.096;42.878;33.043;114.553;53.905;15.385;44.368;22.762
2339693.490;23.805;25.108;11.548;99.055;25.779;-3.576;25.518;2.459
2339693.498;27.530;28.573;16.056;104.420;33.230;-1.192;26.561;4.545
2339693.506;34.682;36.769;23.767;114.776;43.251;4.619;32.671;12.927
2339693.514;30.361;32.224;17.695;112.131;35.428;-1.565;27.120;4.582
2339693.522;31.888;32.224;18.887;115.223;38.370;0.857;31.628;7.190
2339693.530;39.823;39.525;24.922;124.536;44.070;7.786;38.557;14.715
2339693.538;42.059;40.382;27.008;125.580;46.566;0.261;33.155;3.837
2339693.546;35.241;34.384;18.701;120.215;35.465;-9.350;23.134;-6.407
2339693.554;33.043;33.714;13.933;122.674;26.748;-6.780;24.773;-4.396
2339693.562;29.430;29.914;11.548;122.748;26.934;-7.637;23.209;-3.688
2339693.570;37.961;36.806;21.048;130.087;34.720;-9.313;21.085;-4.023
2339693.578;41.723;40.010;25.555;134.520;40.047;-7.562;22.128;0.745
2339693.586;37.141;35.167;19.930;132.099;33.677;-10.021;18.552;-1.900
2339693.552;38.855;37.216;21.532;137.128;39.823;-3.390;23.767;5.662
2339693.560;34.459;34.794;16.727;136.681;32.149;-0.559;27.455;4.210
2339693.568;33.900;34.347;15.534;136.904;31.292;1.192;32.112;2.198
2339693.576;38.333;38.631;19.632;142.418;36.992;5.811;36.731;8.121
2339693.584;34.273;36.024;15.050;143.275;32.261;2.831;33.975;4.694
2339693.592;28.387;30.100;8.829;139.363;27.604;2.123;31.590;5.737
2339693.600;14.603;17.211;-4.843;127.964;16.131;-8.866;20.377;-6.147
2339693.608;14.044;15.609;-3.316;125.654;20.266;-8.792;18.217;-4.992
2339693.616;16.168;17.360;-0.335;128.150;24.848;-4.694;21.458;0.559
2339693.624;14.044;16.764;-2.161;130.422;20.526;-6.929;19.968;-3.166
2339693.632;14.566;18.142;-1.267;134.110;21.607;-6.109;20.862;-4.359
2339693.640;14.752;18.105;-1.192;134.222;22.613;-5.588;19.036;-4.247
2339693.648;9.723;13.597;-4.694;130.460;19.409;-8.829;13.784;-5.960
2339693.656;17.248;21.830;2.980;139.885;25.854;-6.147;16.391;-1.304
2339693.664;22.203;25.965;8.568;143.722;32.000;-7.972;15.087;-3.539
2339693.672;19.595;23.134;7.041;143.163;32.634;-14.827;7.041;-8.419
2339693.680;24.289;29.393;12.368;151.880;36.322;-15.199;6.594;-6.668
2339693.688;25.965;33.192;13.188;155.903;33.341;-23.618;-1.192;-18.775
2339693.696;43.623;50.813;29.504;173.599;48.168;-18.887;3.651;-13.635
2339693.704;60.312;68.843;44.480;192.486;59.567;-16.466;7.711;-11.995
2339693.712;87.693;99.652;74.692;225.976;87.880;-8.158;17.062;-5.886
2339693.720;121.929;136.644;109.896;262.223;116.527;2.086;26.934;3.539
2339693.728;145.324;159.889;137.053;281.110;137.128;5.402;26.636;8.866
2339693.736;152.327;165.850;150.539;284.649;145.361;-5.700;16.876;-2.384
2339693.703;168.569;180.639;178.181;296.310;157.245;-7.115;17.770;-7.749
2339693.711;178.628;189.170;207.685;301.898;170.507;-1.974;17.397;-0.186
2339693.719;177.026;187.457;215.396;298.060;173.599;-3.539;15.981;-3.539
2339693.727;170.060;179.000;214.167;288.114;170.805;-3.017;16.689;-1.490
2339693.735;150.800;158.884;196.248;266.135;148.527;-6.557;13.448;-2.943
2339693.743;130.311;136.942;178.665;240.579;135.489;-11.176;5.364;-5.029
2339693.751;113.659;120.327;162.832;219.569;123.158;-11.623;4.172;-3.465
2339693.759;103.340;110.343;151.657;209.361;110.790;-2.198;15.311;1.937
2339693.767;88.513;94.287;137.873;192.560;95.889;2.570;20.862;3.986
2339693.775;75.959;81.062;125.132;180.192;84.452;-0.596;16.317;1.788
2339693.783;64.634;68.992;113.770;166.558;74.729;-5.737;9.127;-1.676
2339693.791;50.478;54.128;100.844;149.198;61.654;-7.041;8.680;-5.737
2339693.799;38.631;42.580;90.338;138.879;54.576;-7.674;9.239;-5.551
2339693.807;34.720;39.339;85.495;133.589;49.993;-1.155;15.907;1.080
2339693.815;27.120;32.559;79.535;126.883;43.511;1.229;16.019;2.459
2339693.823;11.027;15.795;65.640;109.635;30.212;-9.239;4.992;-6.258
2339693.831;5.066;9.835;61.393;104.345;28.647;-5.662;8.307;-2.794
2339693.839;7.600;13.113;63.144;110.492;26.859;2.794;16.019;4.284
2339693.847;9.015;13.448;65.640;109.673;28.647;1.788;14.938;2.235
2339693.855;5.476;9.313;62.026;103.600;25.481;-1.080;12.405;0.075
2339693.863;-2.421;2.123;53.868;95.330;18.328;-4.731;8.866;-3.688
2339693.871;-6.557;-1.192;50.291;90.674;14.156;-3.502;9.574;-5.662
2339693.879;-6.296;-0.373;50.478;91.791;15.944;-0.224;14.640;-3.465
2339693.887;-10.915;-5.327;45.970;87.880;15.125;-0.373;12.740;-0.447
2339693.897;-20.079;-15.162;37.365;80.764;4.023;-3.725;8.531;-2.570
2339693.905;-19.222;-15.348;38.855;80.317;5.253;-3.725;6.966;-0.633
2339693.913;-22.203;-18.477;37.290;74.692;5.439;-5.811;2.421;-1.043
2339693.921;-19.632;-16.876;40.568;76.778;8.792;-2.161;8.568;2.906
2339693.929;-15.572;-11.697;43.698;83.372;9.015;1.490;14.044;3.725
2339693.937;-16.242;-13.262;44.778;80.355;12.740;5.774;18.142;9.462
2339693.945;-24.773;-22.165;33.751;65.304;-0.373;3.949;14.678;7.041
2339693.953;-24.512;-22.464;34.980;61.579;4.433;2.086;11.921;0.447
2339693.961;-15.609;-12.703;43.809;71.861;7.786;12.182;22.762;6.929
2339693.969;-18.142;-14.715;40.121;71.041;2.757;7.935;18.291;4.992
2339693.977;-19.930;-16.168;37.998;69.663;4.247;0.931;11.772;0.484
2339693.985;-16.578;-12.033;40.866;73.574;6.370;3.614;14.268;4.880
2339693.993;-25.667;-19.334;31.441;66.608;-5.700;-2.868;8.531;-2.757
2339694.001;-25.742;-19.483;34.645;64.373;0.075;0.373;12.442;2.719
2339694.009;-23.134;-17.397;38.631;66.422;7.525;4.135;17.136;6.594
2339694.017;-19.744;-13.411;39.712;71.526;6.929;7.823;21.495;8.158
2339694.025;-16.429;-9.686;39.861;76.704;2.198;9.984;23.544;10.058
2339694.033;-20.713;-14.938;37.514;72.792;3.539;11.250;22.762;13.001
2339694.041;-39.153;-32.596;18.254;54.277;-17.658;-2.384;8.792;-3.055
2339694.049;-37.327;-30.287;21.197;55.395;-14.566;1.453;12.927;0.261
2339694.057;-30.585;-24.959;29.206;59.158;-4.545;8.270;18.515;7.376
2339694.065;-34.161;-29.095;24.103;55.023;-11.213;0.596;9.537;0.894
2339694.073;-38.520;-34.198;18.626;49.733;-17.434;0.782;7.600;2.272
2339694.081;-33.714;-30.100;23.134;54.985;-15.274;-2.608;3.949;-1.006
2339694.048;-29.616;-24.997;26.822;57.593;-11.846;-7.376;1.565;-5.290
2339694.056;-32.820;-28.946;23.618;50.329;-14.938;-7.674;3.539;-6.519
2339694.064;-29.802;-26.822;27.008;50.999;-10.058;-2.272;9.164;-1.527
2339694.072;-22.836;-19.185;32.671;56.699;-5.551;-1.974;9.984;-2.719
2339694.080;-13.970;-10.282;40.680;65.081;1.751;0.447;12.517;-1.639
2339694.088;-16.317;-13.150;39.898;59.791;4.061;1.453;11.921;0.335
2339694.096;-16.093;-13.076;42.021;57.891;8.829;2.086;13.188;0.857
2339694.104;-17.099;-14.715;42.319;53.570;9.388;3.166;14.640;2.086
2339694.112;-22.016;-19.595;37.737;45.821;6.557;-0.224;12.666;-3.092
2339694.120;-21.979;-19.297;39.041;43.474;7.637;-4.321;5.476;-5.923
2339694.128;-27.604;-23.581;32.261;37.849;-1.974;-6.296;1.825;-8.047
2339694.136;-20.452;-16.317;38.855;43.474;7.376;-2.906;5.998;-6.445
2339694.144;-18.813;-14.566;41.574;43.027;9.350;-5.402;2.161;-7.786
2339694.152;-30.100;-25.257;32.708;34.496;3.055;-14.417;-6.929;-17.248
2339694.160;-26.003;-22.426;38.259;37.774;11.697;-8.829;1.676;-14.491
2339694.168;-19.111;-14.752;45.560;41.686;21.383;-5.588;4.917;-10.394
2339694.176;-12.144;-7.413;52.229;51.372;28.014;-2.086;8.121;-5.849
2339694.184;-7.823;-3.651;54.613;53.979;25.891;-3.390;4.135;-3.949
2339694.192;-9.462;-5.327;55.023;50.738;28.275;-8.345;-2.943;-7.823
2339694.200;-12.368;-8.978;51.558;47.572;23.432;-8.009;-4.247;-5.513
2339694.208;-18.217;-14.342;45.970;42.804;17.062;-7.898;-2.645;-3.129
2339694.216;-19.111;-16.689;43.586;38.967;16.391;-11.846;-3.874;-9.649
2339694.224;-14.007;-12.517;49.248;43.176;23.246;-10.766;-0.373;-7.600
2339694.232;-15.274;-13.113;49.882;41.611;21.644;-14.529;-5.662;-12.256
2339694.303;-25.593;-24.028;41.053;31.926;13.597;-20.042;-13.970;-19.334
2339694.311;-17.360;-15.087;49.025;41.425;24.140;-10.543;-5.886;-11.399
2339694.319;-10.431;-6.407;52.452;52.378;23.171;-3.912;0.037;-7.600
2339694.327;-9.872;-5.513;51.968;53.942;21.309;-4.731;-3.353;-7.562
2339694.335;-14.268;-10.803;49.360;49.323;22.054;-5.290;-7.749;-5.327
2339694.343;-18.664;-13.113;46.082;45.300;20.154;-3.241;-5.662;-2.645
2339694.351;-30.585;-24.885;34.124;34.496;7.413;-10.617;-10.803;-11.586
2339694.359;-32.783;-26.263;32.559;34.757;7.190;-12.368;-10.431;-12.815
2339694.367;-24.512;-19.185;41.761;42.617;18.962;-10.841;-8.754;-9.499
2339694.375;-28.200;-23.432;38.184;37.402;13.784;-11.139;-11.362;-9.686
2339694.383;-24.736;-19.968;39.712;40.308;16.578;-12.405;-13.374;-11.213
2339694.391;-23.320;-19.483;41.164;38.818;18.850;-15.050;-17.025;-14.231
2339694.399;-19.930;-18.291;44.331;40.978;20.377;-13.709;-17.807;-12.256
2339694.407;-15.497;-12.890;48.205;49.286;25.071;-11.325;-14.901;-9.276
2339694.415;-23.171;-18.924;38.929;43.511;16.578;-12.852;-16.317;-10.952
