Timestamp,AFz,AF3,AF4,AF7,AF8,Pz,P3,P4,2024-05-08 11:26:46.483,fs=125
4752818.815;-29.802;-33.043;107.400;-65.379;-275.783;-3.502;-16.913;-3.055
4752818.823;-32.187;-35.726;103.861;-66.981;-279.509;-9.164;-21.532;-10.990
4752818.831;-31.106;-32.894;104.867;-64.000;-280.552;-3.278;-12.927;-5.774
4752818.839;-32.783;-33.900;103.228;-65.565;-278.950;-5.253;-13.709;-7.451
4752818.847;-30.696;-32.000;104.457;-62.436;-272.319;-6.631;-13.970;-8.009
4752818.855;-20.675;-21.942;110.939;-49.733;-263.341;1.937;-4.955;1.639
4752818.863;-26.338;-28.424;100.695;-56.438;-269.972;-1.341;-5.290;-8.158
4752818.871;-27.940;-29.095;99.465;-57.817;-265.129;2.310;-0.969;-4.731
4752818.879;-27.604;-29.318;100.508;-57.332;-263.564;9.090;5.960;4.135
4752818.887;-28.871;-29.244;97.901;-56.401;-266.135;12.144;7.972;8.270
4752818.895;-30.175;-30.696;97.416;-59.195;-265.166;11.325;5.960;6.743
4752818.903;-30.324;-31.404;96.448;-59.754;-263.639;10.096;5.141;5.551
4752818.911;-32.559;-34.869;92.499;-62.101;-268.370;6.817;1.118;2.794
4752818.919;-32.485;-36.582;93.468;-64.485;-266.246;7.898;0.000;3.949
4752818.927;-37.253;-40.606;89.705;-68.508;-268.780;8.680;0.261;5.104
4752818.935;-38.929;-41.425;89.146;-69.551;-267.811;7.898;0.373;4.619
4752818.943;-33.788;-36.471;94.138;-64.224;-264.049;8.419;2.272;4.917
4752818.951;-30.771;-32.894;96.671;-60.871;-261.106;9.090;3.092;5.402
4752818.959;-26.524;-27.530;99.763;-53.346;-258.759;14.305;9.313;8.680
4752818.967;-26.785;-27.940;101.216;-54.352;-252.947;13.225;9.239;5.811
4752818.975;-23.991;-24.438;100.322;-51.223;-260.286;18.030;12.703;9.872
4752818.983;-14.864;-16.503;107.586;-44.517;-254.251;24.177;17.621;16.987
4752818.991;-6.519;-10.468;117.868;-39.078;-241.064;24.512;15.981;17.881
4752818.999;-2.459;-5.588;122.674;-33.006;-235.625;21.011;11.474;15.497
4752819.068;-3.874;-5.960;117.421;-33.155;-248.887;13.001;4.582;8.568
4752819.076;-8.345;-9.164;116.080;-36.545;-244.379;10.282;2.272;5.476
4752819.084;-14.603;-15.758;109.524;-42.692;-249.036;7.562;-1.751;2.384
4752819.092;-11.362;-12.182;112.243;-38.818;-245.981;8.605;1.416;4.694
4752819.100;-9.723;-10.729;111.423;-35.986;-251.085;8.792;4.545;5.253
4752819.108;-14.231;-15.236;104.196;-41.053;-259.206;7.004;3.539;2.831
4752819.116;-12.331;-12.666;107.959;-39.823;-252.500;10.729;6.557;5.290
4752819.124;-13.746;-12.554;104.979;-38.259;-254.512;11.809;7.786;5.998
4752819.132;-12.182;-11.064;105.649;-34.980;-254.251;11.139;6.668;6.445
4752819.140;-12.927;-12.107;104.643;-36.173;-251.383;9.686;5.029;5.923
4752819.148;-14.938;-13.635;100.434;-35.912;-253.506;8.345;3.800;4.359
4752819.156;-15.832;-14.305;98.050;-37.812;-254.437;12.219;7.339;6.892
4752819.164;-17.025;-14.976;96.485;-39.786;-253.841;14.566;7.264;11.660
4752819.172;-18.924;-17.136;96.336;-42.543;-253.357;14.417;5.625;14.231
4752819.180;-19.819;-18.738;93.356;-44.852;-258.684;12.927;3.614;13.560
4752819.188;-13.225;-12.740;98.087;-39.749;-254.922;15.348;5.364;14.901
4752819.196;-9.537;-9.537;102.185;-37.663;-249.185;13.895;4.396;12.927
4752819.204;-8.717;-8.605;103.042;-36.359;-249.743;11.921;2.459;10.543
4752819.212;-6.817;-7.302;106.692;-36.620;-245.124;12.890;2.868;13.821
4752819.220;-13.337;-14.864;99.055;-45.113;-253.096;3.017;-8.345;5.774
4752819.228;-19.744;-20.415;88.252;-49.919;-268.146;-2.049;-13.560;0.671
4752819.236;-15.274;-15.087;92.164;-43.176;-258.163;0.075;-7.823;2.049
4752819.244;-10.803;-11.064;95.814;-38.557;-255.071;4.582;-0.559;4.843
4752819.252;-15.460;-15.199;90.003;-42.394;-262.074;3.316;-1.080;2.570
4752819.207;-18.030;-16.019;88.103;-41.984;-259.653;3.241;-3.055;3.912
4752819.215;-16.876;-14.305;87.917;-39.227;-259.951;5.104;-1.565;5.178
4752819.223;-19.446;-17.136;86.240;-42.170;-259.131;6.109;0.112;3.278
4752819.231;-20.042;-20.713;84.713;-46.380;-261.441;4.992;-0.559;1.751
4752819.239;-16.615;-16.429;88.587;-42.841;-255.927;8.829;4.247;5.364
4752819.247;-8.717;-8.605;96.038;-34.459;-248.998;12.293;8.047;8.270
4752819.255;-4.880;-3.725;100.099;-30.287;-244.193;13.821;7.972;9.537
4752819.263;-2.310;-0.484;102.594;-28.685;-241.324;15.609;8.196;12.033
4752819.271;5.178;6.072;111.200;-23.022;-231.601;18.664;9.313;17.323
4752819.279;15.572;16.093;121.780;-14.044;-222.884;20.936;12.293;18.477
4752819.287;25.854;25.071;128.783;-4.210;-213.012;20.713;12.629;14.603
4752819.295;27.791;27.083;130.869;-4.545;-210.255;14.007;4.210;5.886
4752819.303;29.802;28.014;135.116;-5.998;-206.642;11.548;0.857;2.682
4752819.311;35.092;33.006;139.847;0.559;-201.650;12.852;0.671;6.855
4752819.319;45.449;45.709;151.061;14.268;-190.958;16.391;4.508;12.852
4752819.327;49.882;49.807;156.574;18.217;-185.482;12.368;1.788;9.239
4752819.335;55.172;54.352;162.311;22.128;-176.393;13.746;4.731;8.494
4752819.343;67.577;68.694;172.071;38.967;-167.079;22.240;15.423;11.139
4752819.351;71.824;72.792;177.473;41.537;-160.336;27.306;21.160;14.044
4752819.359;73.723;74.245;180.081;41.910;-155.531;34.273;26.710;21.197
4752819.367;65.118;66.496;169.575;32.820;-171.028;31.553;21.644;21.830
4752819.375;55.507;54.128;161.342;17.695;-176.281;23.320;12.591;16.913
4752819.383;54.091;55.283;160.113;24.922;-175.685;20.936;10.245;16.876
4752819.391;51.148;52.154;160.038;23.991;-171.699;17.099;11.772;11.586
4752819.476;48.913;47.162;157.543;17.732;-175.759;14.529;13.746;4.247
4752819.484;48.354;48.280;155.978;20.340;-179.708;16.578;12.219;3.427
4752819.492;50.366;50.031;157.766;16.093;-175.983;17.695;12.405;3.576
4752819.500;49.435;52.489;159.629;19.148;-172.555;17.993;9.872;3.353
4752819.508;50.701;52.080;162.199;26.189;-169.873;18.924;8.792;4.955
4752819.516;55.842;54.762;170.097;33.304;-163.391;23.469;16.987;9.760
4752819.524;63.330;66.049;177.994;43.809;-157.095;21.271;16.950;7.600
4752819.532;78.566;83.372;188.835;57.295;-154.376;10.729;7.041;0.000
4752819.540;100.136;107.400;215.173;86.799;-136.793;8.829;4.806;-0.224
4752819.548;134.930;142.977;246.689;124.685;-120.066;10.990;6.780;3.725
4752819.556;186.712;196.025;288.524;179.447;-91.866;16.242;12.591;11.176
4752819.564;250.153;257.008;349.209;243.783;-41.910;17.323;12.890;14.715
4752819.572;290.647;297.241;388.138;282.302;-13.597;23.916;17.621;20.042
4752819.580;309.870;314.191;406.429;297.390;1.267;28.834;21.048;21.905
4752819.588;322.647;327.043;417.568;312.552;10.803;30.547;23.022;21.011
4752819.596;322.424;328.533;418.536;315.271;15.385;31.590;23.879;20.489
4752819.604;315.644;323.057;411.533;310.317;12.480;30.696;25.481;19.707
4752819.612;301.003;308.007;396.930;292.547;5.774;21.830;19.222;11.921
4752819.620;282.899;287.890;378.117;271.015;-5.066;16.876;16.876;7.078
4752819.628;256.635;255.220;350.922;237.487;-22.426;11.176;9.164;6.743
4752819.636;225.641;225.976;319.742;205.040;-41.239;8.121;0.335;9.090
4752819.644;200.309;203.326;292.435;183.620;-59.307;11.250;1.676;13.262
4752819.652;185.110;185.333;278.130;162.870;-67.092;13.113;4.694;14.603
4752819.660;176.057;176.355;270.195;154.078;-66.422;17.770;11.325;15.795
4752819.632;166.073;164.174;258.386;143.945;-71.153;16.242;12.182;12.070
4752819.640;156.872;156.388;247.136;130.013;-78.008;16.317;12.256;9.425
4752819.648;144.355;143.163;233.315;116.155;-86.166;16.019;12.554;7.376
4752819.656;134.669;131.205;222.325;103.898;-92.648;15.534;11.511;9.164
4752819.664;127.032;122.376;216.737;94.511;-87.284;22.203;14.417;19.036
4752819.672;107.884;104.681;196.099;77.151;-110.343;26.561;13.374;22.091
4752819.680;95.144;91.121;185.445;61.020;-116.713;30.473;13.076;24.028
4752819.688;89.109;82.627;182.241;51.856;-111.721;29.802;12.107;24.699
4752819.696;79.647;71.637;172.891;42.245;-115.372;18.254;3.539;14.044
4752819.704;77.784;72.420;168.309;43.176;-119.954;16.652;4.955;10.543
4752819.712;76.778;72.196;163.801;43.400;-125.319;19.670;10.207;10.245
4752819.720;67.204;62.212;156.462;33.677;-131.279;20.936;13.858;7.749
4752819.728;47.758;42.170;138.357;14.566;-141.971;15.572;11.213;3.278
4752819.736;39.861;32.447;131.577;4.284;-149.235;13.448;8.792;5.662
4752819.744;40.419;31.777;129.268;3.837;-157.654;18.142;12.070;15.683
4752819.752;40.829;30.361;127.926;2.719;-154.711;20.303;13.523;20.750
4752819.760;40.606;30.659;127.070;4.135;-154.749;16.727;8.419;16.727
4752819.768;47.795;38.520;133.552;12.740;-147.969;17.211;8.605;15.944
4752819.776;46.529;38.072;128.150;11.958;-156.313;17.136;9.574;15.050
4752819.784;52.787;43.698;136.904;17.025;-146.143;25.518;18.403;18.887
4752819.792;47.982;40.270;129.826;15.646;-159.815;26.114;22.277;16.429
4752819.800;41.388;34.496;125.952;7.451;-164.546;21.718;19.521;11.511
4752819.808;30.100;24.326;111.796;-1.974;-180.304;16.950;14.678;8.419
4752819.816;26.971;20.079;108.890;-5.439;-183.955;12.070;8.792;8.754
4752819.820;25.146;17.956;106.283;-8.419;-182.614;10.692;3.166;11.884
4752819.828;23.618;15.274;104.085;-9.388;-183.657;8.047;-1.192;9.760
4752819.836;26.822;19.968;107.363;-3.725;-174.046;11.623;0.894;12.219
4752819.844;23.916;18.179;100.769;-4.917;-183.359;12.256;1.043;12.293
4752819.852;23.395;18.328;94.213;-3.800;-190.772;12.554;3.465;10.021
4752819.860;28.647;23.358;100.397;0.931;-180.677;16.950;11.176;10.431
4752819.868;29.281;24.661;101.216;2.719;-172.928;17.099;14.491;9.611
4752819.876;26.971;21.681;98.012;-2.012;-177.883;10.617;5.774;5.439
4752819.884;27.306;21.234;96.969;-2.645;-171.103;6.482;0.931;5.439
4752819.892;25.220;20.117;95.814;-2.310;-171.289;3.874;-4.843;8.903
4752819.900;16.838;13.411;81.360;-8.494;-176.579;-2.459;-11.101;3.502
4752819.908;14.715;9.574;78.119;-10.952;-173.450;-3.874;-13.225;1.863
4752819.916;19.632;14.044;81.696;-7.302;-161.193;2.645;-6.407;6.109
4752819.924;19.148;12.927;80.131;-6.966;-157.543;0.186;-8.307;2.198
4752819.932;20.079;13.821;78.008;-5.588;-154.823;-0.224;-8.121;3.539
4752819.940;24.363;17.509;79.125;-4.843;-139.885;2.831;-3.502;6.221
4752819.948;28.014;21.905;79.758;1.416;-121.817;4.917;-2.272;8.084
4752819.956;27.418;22.724;82.217;3.614;-115.000;7.823;-0.633;10.878
4752819.964;12.554;9.015;60.908;-10.692;-128.411;1.490;-8.084;4.768
4752819.972;10.617;7.041;55.209;-14.231;-111.014;-0.298;-9.723;3.390
4752819.980;15.683;13.486;58.860;-5.141;-99.316;2.049;-5.588;4.359
4752819.988;13.821;12.964;53.868;-4.731;-92.573;2.161;-2.496;3.949
4752819.996;14.193;11.250;57.034;-7.227;-71.004;5.625;2.682;6.855
4752820.004;4.023;2.347;37.849;-14.082;-82.217;2.831;-1.267;4.247
4752820.014;3.986;-0.037;40.196;-19.185;-62.697;-0.820;-7.376;0.559
4752820.022;-0.820;-4.731;27.567;-24.736;-64.112;-6.780;-13.858;-4.992
4752820.030;-0.671;-1.378;27.157;-16.764;-35.428;-7.413;-13.448;-7.153
4752820.038;5.774;4.135;36.769;-10.021;-5.513;-0.857;-7.488;-2.086
4752820.046;10.245;7.860;42.208;-5.998;12.144;6.109;-0.820;5.811
4752820.054;12.405;9.499;44.107;-4.619;31.404;9.909;3.390;9.611
4752820.062;12.964;10.058;42.319;-4.768;35.577;10.766;5.327;7.562
4752820.070;12.331;10.990;28.349;-2.198;23.581;8.829;3.241;5.849
4752820.078;20.675;17.136;41.239;2.086;57.071;7.637;3.166;5.141
4752820.086;19.558;14.938;40.717;0.633;64.559;6.519;2.086;4.135
4752820.094;14.976;9.313;34.943;-4.992;73.723;3.539;-2.570;0.969
4752820.102;12.927;6.743;36.098;-8.233;91.977;1.267;-5.253;-0.857
4752820.110;3.129;0.224;22.128;-12.778;78.939;-6.147;-12.256;-5.513
4752820.118;-1.639;-5.253;15.087;-18.068;74.804;-6.445;-14.938;-3.725
4752820.126;-7.078;-11.027;7.935;-22.054;79.498;-10.617;-17.434;-8.307
4752820.134;-3.353;-6.407;13.486;-18.738;107.586;-9.239;-12.927;-7.264
4752820.142;0.820;-1.602;19.893;-15.907;114.180;-3.502;-7.264;-3.390
4752820.150;6.668;3.166;30.473;-11.139;127.926;0.894;-4.806;0.000
4752820.158;1.118;-0.335;16.242;-14.752;119.507;1.118;-6.594;-0.745
4752820.166;-5.737;-7.898;5.960;-22.165;134.930;4.582;-5.960;3.763
4752820.174;-2.161;-9.686;18.179;-25.481;147.410;3.055;-9.201;6.668
4752820.182;-13.374;-15.348;-6.147;-30.212;147.074;-5.551;-17.323;-0.037
4752820.190;-6.855;-11.362;7.227;-27.344;166.446;-6.743;-16.615;-2.868
4752820.198;-4.210;-8.605;6.109;-25.779;168.532;-0.186;-11.101;2.272
4752820.136;-11.064;-12.815;-7.600;-28.498;167.601;-1.453;-11.958;-0.782
4752820.144;-5.811;-6.966;-0.335;-23.358;183.135;3.241;-6.482;2.347
4752820.152;-3.986;-6.780;0.857;-23.991;190.400;3.017;-5.886;2.459
4752820.160;4.284;-0.186;10.505;-17.360;198.372;6.892;0.149;7.115
4752820.168;1.751;-0.671;5.215;-19.334;213.757;5.029;-1.006;4.731
4752820.176;-5.066;-5.253;-4.023;-22.165;203.922;3.017;-2.831;3.651
4752820.184;-3.949;-5.402;-5.811;-21.420;188.015;2.310;-5.588;4.694
4752820.192;-3.949;-3.837;-3.874;-19.446;203.848;0.633;-7.637;5.066
4752820.200;-3.092;-4.210;-2.943;-18.850;192.858;-1.602;-8.382;3.576
4752820.208;-7.041;-6.706;-12.815;-22.501;196.695;-0.969;-5.290;4.768
4752820.216;-1.639;-2.570;-6.296;-17.807;204.109;-0.969;-1.192;3.092
4752820.224;5.141;3.800;-4.284;-11.027;208.281;1.006;2.459;2.533
4752820.232;5.402;3.614;0.224;-12.554;225.641;-1.267;1.416;-1.118
4752820.240;0.186;0.447;-11.362;-13.784;218.749;-7.302;-3.763;-6.407
4752820.248;-2.533;-2.310;-12.927;-16.503;219.606;-7.562;-7.115;-4.917
4752820.256;-5.886;-6.072;-19.372;-19.148;218.190;-5.737;-9.388;-1.788
4752820.264;6.035;-0.633;-0.149;-15.683;218.414;3.427;-3.353;7.115
4752820.272;-8.680;-10.096;-30.175;-24.252;210.181;-5.290;-13.858;-2.049
4752820.280;-7.264;-9.984;-26.487;-23.469;223.443;-5.700;-14.715;-4.843
4752820.288;-3.986;-7.153;-28.573;-20.191;219.531;5.774;-4.843;3.427
4752820.296;13.895;6.445;-2.794;-6.855;239.871;19.334;9.835;14.156
4752820.304;12.442;5.849;-14.752;-5.178;206.903;21.569;14.231;14.044
4752820.312;-3.278;-6.370;-33.341;-17.807;218.526;11.958;5.327;3.912
4752820.320;-4.396;-11.101;-26.375;-23.507;215.359;9.649;1.043;4.917
4752820.285;-22.948;-26.226;-58.338;-35.912;178.479;-0.186;-10.170;-1.527
4752820.293;-17.025;-23.954;-39.190;-34.273;201.911;-3.614;-13.560;-2.533
4752820.301;-15.609;-22.650;-41.537;-32.708;196.323;-0.931;-11.846;0.708
4752820.309;-18.403;-23.469;-49.397;-31.926;185.482;4.321;-6.743;5.923
4752820.317;-21.905;-25.481;-54.576;-33.826;189.617;3.017;-5.811;2.608
4752820.325;-17.434;-23.171;-43.511;-33.639;212.379;3.465;-4.731;3.353
4752820.333;-10.543;-18.291;-40.494;-28.983;199.527;2.943;-3.949;2.123
4752820.341;-2.980;-11.772;-32.932;-23.134;197.813;6.557;-0.149;7.264
4752820.349;-7.562;-14.827;-44.815;-24.140;194.311;4.955;-3.725;7.749
4752820.357;-11.921;-18.291;-47.311;-26.710;196.248;-0.745;-9.015;3.092
4752820.365;-15.274;-22.762;-49.584;-31.665;185.780;-3.129;-13.895;3.576
4752820.373;-22.277;-30.659;-58.264;-39.078;169.761;-6.482;-19.073;1.714
4752820.381;-17.546;-28.238;-53.570;-36.284;176.691;-2.682;-14.380;1.714
4752820.389;-16.838;-29.169;-56.624;-37.402;169.128;2.310;-7.674;3.278
4752820.397;-17.472;-28.461;-62.026;-36.918;171.214;0.745;-8.047;-1.006
4752820.405;-11.697;-22.613;-54.501;-30.622;178.590;3.837;-5.290;0.522
4752820.413;-4.619;-14.342;-47.050;-20.191;177.398;10.878;2.757;6.855
4752820.421;-4.247;-13.411;-47.721;-18.962;163.838;9.388;2.347;7.041
4752820.429;-7.488;-17.732;-48.950;-24.475;150.762;5.253;-3.912;6.109
4752820.437;-16.838;-27.269;-59.120;-32.596;135.601;1.825;-8.456;3.651
4752820.445;-25.630;-35.390;-67.018;-39.674;110.902;1.304;-8.829;3.390
4752820.453;-24.438;-34.347;-64.075;-38.296;96.746;2.570;-8.494;1.974
4752820.461;-18.626;-28.722;-57.630;-32.224;79.572;7.302;-3.502;4.135
4752820.469;-12.144;-22.724;-50.627;-27.195;58.487;7.376;-1.565;4.806
4752820.465;-8.419;-19.707;-46.305;-19.930;35.018;8.531;1.825;6.221
4752820.473;-2.943;-11.548;-39.153;-12.778;10.245;11.623;7.115;8.568
4752820.481;-4.433;-15.050;-37.923;-17.807;-15.572;4.843;1.043;3.986
4752820.489;-6.594;-18.999;-38.184;-21.085;-48.280;-2.086;-4.396;-3.353
4752820.497;-8.158;-18.217;-36.992;-19.856;-73.686;-3.949;-6.407;-4.433
4752820.505;-8.643;-19.781;-33.751;-21.234;-94.585;-4.098;-8.270;-1.378
4752820.513;-9.649;-22.314;-30.547;-22.426;-108.816;-3.614;-9.798;-3.316
4752820.521;-10.319;-23.805;-26.897;-24.438;-114.627;-4.098;-10.356;-4.284
4752820.529;-9.835;-21.718;-17.956;-24.475;-89.929;-2.719;-6.333;-4.433
4752820.537;-7.711;-17.360;-7.153;-20.601;-67.912;3.874;1.863;0.149
4752820.545;-6.035;-14.305;0.969;-16.764;-56.848;5.849;4.917;2.012
4752820.553;-2.310;-10.692;12.666;-13.597;-42.543;7.488;6.147;4.508
4752820.561;-1.863;-12.144;19.968;-14.752;-28.908;8.866;7.674;4.470
4752820.569;-6.072;-15.646;21.867;-18.775;-22.650;6.743;3.204;2.570
4752820.577;-10.096;-18.813;24.326;-24.326;-18.664;6.109;0.112;2.310
4752820.585;-11.474;-21.867;27.679;-26.263;-18.477;8.270;1.006;4.545
4752820.593;-10.617;-20.824;33.379;-24.252;-14.231;9.276;1.639;9.872
4752820.601;-16.727;-26.226;31.032;-31.404;-20.042;4.508;-1.937;5.402
4752820.609;-17.695;-27.306;30.883;-33.006;-32.857;1.788;-3.204;2.086
4752820.617;-16.652;-26.748;32.634;-33.751;-37.551;0.931;-3.837;2.608
4752820.625;-15.236;-25.816;34.459;-33.826;-39.563;1.490;-3.651;2.533
4752820.633;-3.278;-13.299;45.635;-20.191;-30.547;8.456;3.166;7.935
4752820.641;-1.080;-11.474;47.795;-18.291;-29.691;8.419;5.513;7.153
4752820.649;-4.396;-14.752;43.437;-22.352;-37.476;8.568;6.072;6.929
4752820.706;-2.235;-13.262;47.050;-21.718;-36.024;8.829;1.341;8.196
4752820.714;-2.533;-13.411;47.646;-21.234;-35.241;7.339;0.186;6.482
4752820.722;-0.931;-11.511;51.260;-19.744;-36.582;8.307;0.596;9.574
4752820.730;-4.210;-13.374;43.511;-21.830;-60.573;4.023;-1.602;7.302
4752820.738;-6.966;-15.646;37.886;-25.183;-72.047;2.272;-0.671;4.321
4752820.746;3.502;-5.215;50.142;-12.703;-63.740;10.356;9.388;10.394
4752820.754;8.456;1.714;55.432;-4.694;-59.977;12.927;11.511;12.778
4752820.762;7.302;1.006;53.719;-7.600;-67.540;12.703;10.878;10.394
4752820.770;0.969;-4.768;46.007;-12.554;-82.105;11.548;9.798;9.052
4752820.778;2.086;-3.092;46.305;-10.207;-87.656;13.448;8.829;10.803
4752820.786;6.706;0.298;53.793;-6.221;-79.423;19.707;13.411;17.285
4752820.794;2.459;-3.316;47.125;-11.399;-90.934;17.993;12.480;16.354
4752820.802;0.261;-3.949;39.376;-11.623;-111.088;11.660;8.792;6.333
4752820.810;5.104;-1.639;45.598;-11.958;-104.308;12.368;9.201;7.637
4752820.818;7.823;-0.410;48.354;-10.878;-101.961;12.368;10.245;10.096
4752820.826;6.557;-0.075;46.231;-10.468;-106.506;12.107;6.966;9.835
4752820.834;-0.112;-6.296;35.949;-13.709;-121.668;9.760;4.284;6.407
4752820.842;0.186;-5.998;37.141;-14.044;-123.531;8.680;-0.112;6.668
4752820.850;0.261;-5.513;36.582;-13.337;-130.609;10.021;-0.298;7.898
4752820.858;-2.235;-8.680;29.802;-16.354;-141.338;8.605;-1.043;6.482
4752820.866;-8.829;-15.981;21.681;-23.581;-147.149;5.960;-3.316;3.465
4752820.874;-17.732;-25.891;10.356;-31.553;-159.778;7.749;-0.373;5.290
4752820.882;-15.572;-23.767;11.176;-27.791;-160.970;14.007;8.382;10.431
4752820.890;-10.692;-19.595;15.125;-25.481;-159.368;14.529;8.009;12.144
4752820.902;-8.792;-16.093;16.540;-23.060;-161.715;9.760;2.161;7.413
4752820.910;-15.050;-20.936;7.190;-28.014;-172.593;8.978;0.112;6.519
4752820.918;-31.367;-37.961;-6.780;-44.666;-183.880;0.894;-8.270;-0.671
4752820.926;-40.568;-45.970;-15.311;-52.825;-189.617;-0.261;-8.009;-3.651
4752820.934;-53.681;-60.573;-30.883;-64.373;-205.711;-5.215;-12.815;-10.803
4752820.942;-46.752;-50.925;-22.352;-51.148;-195.056;-7.413;-13.337;-11.586
4752820.950;-47.162;-50.440;-26.599;-50.440;-204.779;-4.172;-10.952;-7.264
4752820.958;-53.868;-56.811;-38.743;-55.321;-219.680;-7.562;-17.770;-9.015
4752820.966;-50.999;-53.011;-34.533;-52.974;-212.304;-11.437;-20.824;-11.735
4752820.974;-50.142;-53.719;-25.667;-53.830;-196.323;-13.411;-22.054;-12.964
4752820.982;-42.580;-45.486;-22.352;-46.343;-207.052;-7.749;-14.640;-7.786
4752820.990;-40.494;-41.202;-25.965;-41.425;-215.583;-5.439;-8.009;-6.184
4752820.998;-41.127;-41.127;-34.012;-40.233;-220.835;-8.047;-7.749;-7.972
4752821.006;-35.129;-36.620;-22.314;-37.327;-202.805;-4.247;-3.427;-5.998
4752821.014;-30.771;-31.181;-21.867;-31.404;-201.203;5.849;1.565;4.172
4752821.022;-39.339;-36.284;-40.866;-34.645;-194.535;1.863;-4.694;-1.006
4752821.030;-32.037;-32.000;-29.244;-31.069;-184.365;7.302;0.708;4.247
4752821.038;-36.731;-37.774;-36.098;-36.210;-160.336;-0.037;-7.264;0.373
4752821.046;-38.706;-40.159;-36.731;-39.265;-145.026;-2.794;-8.494;-2.459
4752821.054;-38.557;-41.164;-40.978;-40.904;-149.496;-2.347;-5.998;-4.098
4752821.062;-44.107;-42.692;-58.077;-41.835;-130.907;-2.645;-4.917;-3.465
4752821.070;-32.298;-33.006;-38.370;-30.994;-92.983;4.247;3.539;3.204
4752821.078;-27.716;-30.398;-37.700;-27.195;-77.859;7.488;7.302;5.253
4752821.086;-35.986;-33.528;-54.501;-29.877;-53.607;5.402;3.241;2.459
4752821.007;-38.221;-36.396;-54.166;-33.863;-33.192;2.496;-2.012;1.825
4752821.015;-32.745;-30.249;-49.360;-29.616;-13.560;5.253;-2.831;5.923
4752821.023;-24.773;-22.389;-43.325;-22.314;8.419;6.333;-4.284;6.370
4752821.031;-26.822;-24.177;-51.148;-25.034;24.997;1.378;-6.445;1.602
4752821.039;-29.504;-26.114;-54.836;-28.685;42.468;-1.341;-6.370;-0.894
4752821.047;-22.538;-24.699;-37.849;-30.138;85.495;2.608;-5.774;5.923
4752821.055;-40.345;-37.253;-65.714;-40.308;99.279;3.874;-4.880;8.941
4752821.063;-49.882;-46.529;-72.569;-48.466;104.159;-0.335;-9.462;3.763
4752821.071;-47.944;-45.449;-68.992;-46.715;128.038;1.378;-5.737;7.488
4752821.079;-46.939;-43.474;-72.084;-44.405;136.979;3.502;-5.141;9.276
4752821.087;-42.282;-41.015;-61.318;-43.027;150.129;7.451;-2.682;11.884
4752821.095;-43.996;-40.047;-70.669;-40.717;158.399;8.829;0.447;10.468
4752821.103;-35.651;-33.565;-58.897;-35.018;190.102;10.468;6.482;8.941
4752821.111;-31.292;-28.908;-59.381;-30.324;196.248;8.754;1.825;10.058
4752821.119;-24.810;-22.911;-52.489;-23.507;194.460;4.061;-3.092;9.313
4752821.127;-14.566;-13.784;-42.990;-15.944;198.297;5.253;-0.298;10.058
4752821.135;-21.420;-16.578;-57.109;-18.366;213.981;4.433;-4.843;8.121
4752821.143;-14.044;-11.399;-43.213;-12.256;220.947;12.256;-0.373;13.933
4752821.151;-20.452;-14.044;-59.903;-12.182;218.488;10.058;-2.608;9.686
4752821.159;-10.803;-5.215;-42.729;-4.694;236.742;13.635;3.763;11.139
4752821.167;-10.841;-6.519;-45.374;-7.041;228.249;11.288;3.316;6.668
4752821.175;-3.576;-0.559;-41.835;-0.894;234.805;13.337;5.476;7.935
4752821.183;3.651;4.657;-34.384;3.353;235.662;12.629;4.470;8.121
4752821.191;0.000;1.192;-44.182;-0.075;234.731;5.253;-1.676;3.017
4752821.216;6.221;6.519;-38.892;4.359;230.148;5.476;-0.224;5.253
4752821.224;3.949;5.253;-40.904;3.688;245.906;5.551;-3.353;7.600
4752821.232;4.992;3.986;-36.955;2.235;238.232;8.680;-0.745;10.580
4752821.240;1.602;0.447;-43.809;-0.820;223.257;10.356;-0.671;11.586
4752821.248;6.855;6.706;-39.488;7.004;221.170;10.952;4.135;11.213
4752821.256;11.884;12.256;-36.433;10.766;228.845;9.984;3.427;7.153
4752821.264;9.947;10.058;-36.880;8.717;217.482;9.872;2.086;4.470
4752821.272;12.070;11.250;-34.124;10.654;216.104;13.709;4.433;7.413
4752821.280;19.483;17.062;-24.587;16.429;205.375;14.938;8.196;8.605
4752821.288;14.678;13.411;-33.937;13.523;186.414;13.039;8.456;7.562
4752821.296;15.274;12.890;-30.734;11.511;178.888;13.970;8.196;8.866
4752821.304;17.174;14.491;-30.436;14.529;161.976;17.285;9.499;10.468
4752821.312;21.756;20.303;-25.257;22.128;174.381;15.385;10.468;6.966
4752821.320;27.344;24.028;-18.142;23.432;159.666;19.222;13.784;11.399
4752821.328;24.959;20.377;-20.266;19.521;144.392;16.056;10.617;10.654
4752821.336;25.444;23.134;-23.544;21.942;142.418;12.591;9.052;7.302
4752821.344;27.232;23.991;-19.968;23.767;126.474;13.113;9.015;8.158
4752821.352;33.453;27.716;-11.101;26.934;126.548;16.764;11.139;10.803
4752821.360;24.363;22.016;-27.530;23.767;97.230;15.870;9.574;8.531
4752821.368;27.902;25.742;-23.209;29.020;92.648;18.254;12.368;10.282
4752821.376;36.918;34.608;-9.611;36.247;99.018;23.693;17.509;14.342
4752821.384;38.929;37.216;-9.798;39.190;94.883;30.845;24.624;19.856
4752821.392;36.135;34.571;-14.119;36.918;80.951;30.771;23.246;20.154
4752821.400;33.677;33.900;-17.099;36.471;74.096;32.410;24.624;20.377
4752821.425;35.167;35.278;-13.299;38.520;63.814;28.051;22.091;18.291
4752821.433;43.102;43.623;-3.129;46.715;75.027;28.759;24.103;17.956
4752821.441;39.786;39.600;-12.182;42.580;57.295;29.355;26.338;19.260
4752821.449;43.288;39.563;-2.794;41.611;62.659;31.255;27.604;21.495
4752821.457;47.348;44.890;0.559;48.131;53.011;33.751;24.922;23.395
4752821.465;49.137;48.913;1.192;52.080;66.571;29.057;23.469;17.472
4752821.473;65.900;63.479;20.228;65.789;71.563;29.393;20.079;19.111
4752821.481;74.357;72.904;29.057;79.013;71.228;27.828;18.887;18.664
4752821.489;75.959;73.425;32.485;81.472;67.353;23.805;16.354;15.609
4752821.497;74.096;76.145;20.266;85.384;62.771;19.260;14.640;11.772
4752821.505;87.507;84.601;44.033;93.244;79.907;11.548;7.413;7.749
4752821.513;99.093;95.218;54.762;102.557;78.864;4.210;-1.341;1.602
4752821.521;125.840;119.954;85.942;127.740;93.505;8.903;3.949;5.104
4752821.529;140.443;135.675;99.801;143.759;101.887;11.362;7.860;5.998
4752821.537;145.659;142.679;97.975;149.049;115.596;4.396;-1.416;-0.037
4752821.545;162.534;157.692;120.997;164.211;127.256;6.519;5.960;1.267
4752821.553;175.275;169.054;144.020;175.685;147.112;6.333;7.488;0.522
4752821.561;176.579;173.636;133.365;182.539;125.878;0.149;-4.247;-1.043
4752821.569;174.008;172.481;127.032;181.533;125.989;-2.086;-9.760;-1.006
4752821.577;173.710;169.687;134.148;175.312;137.910;-4.135;-11.995;-3.725
4752821.585;164.248;163.317;113.621;172.593;106.804;-3.427;-7.860;-3.651
4752821.593;166.297;166.818;119.694;176.840;118.427;0.186;-2.757;-2.049
4752821.601;160.672;158.995;114.962;167.303;124.611;1.267;1.602;-3.055
4752821.609;158.213;157.952;109.337;167.936;116.341;6.594;5.178;0.820
4752821.740;138.655;141.375;85.719;149.757;98.012;4.470;2.235;-0.894
4752821.748;129.417;130.348;82.068;137.128;109.002;5.774;3.316;1.937
4752821.756;123.531;124.313;78.902;130.460;105.053;7.264;6.296;4.806
4752821.764;102.594;103.638;50.291;109.449;75.139;-1.378;-1.118;-4.545
4752821.772;89.034;88.029;40.978;93.915;64.000;-10.245;-13.486;-12.591
4752821.780;74.320;73.947;26.487;80.392;53.309;-9.872;-9.686;-13.709
4752821.788;56.215;54.054;7.227;56.550;48.168;-7.413;-8.605;-9.350
4752821.796;44.107;40.717;-6.221;42.394;26.971;-3.427;-10.468;-3.055
4752821.804;32.075;26.897;-15.348;28.051;29.020;2.384;-7.451;4.359
4752821.812;22.613;19.148;-25.406;20.266;13.188;0.633;-6.221;0.186
4752821.820;13.635;10.952;-40.308;11.511;-1.453;-7.376;-10.654;-9.835
4752821.828;15.274;8.158;-31.218;6.333;9.686;-9.798;-9.611;-14.193
4752821.836;12.629;8.978;-35.129;8.270;13.411;-2.608;-3.017;-10.878
4752821.844;5.625;2.608;-43.362;2.161;3.166;4.955;2.459;-5.439
4752821.852;-9.201;-14.603;-53.197;-17.397;-8.456;2.235;-0.857;-7.339
4752821.860;-13.188;-21.346;-50.105;-24.363;-2.794;2.421;-5.960;-4.210
4752821.868;-29.281;-32.559;-80.839;-32.187;-29.728;1.267;-9.760;-3.912
4752821.876;-37.961;-39.749;-89.966;-38.557;-48.541;0.075;-13.299;-5.104
4752821.884;-39.823;-43.809;-88.438;-43.251;-43.847;1.006;-10.841;-4.396
4752821.892;-38.520;-43.362;-84.341;-43.772;-26.785;1.080;-10.431;-4.992
4752821.900;-32.522;-39.823;-78.678;-41.164;-32.224;7.711;-1.527;0.484
4752821.908;-39.563;-44.703;-91.605;-43.996;-42.059;7.898;2.347;-0.857
4752821.916;-39.190;-46.678;-80.876;-48.876;-32.522;8.494;0.745;2.384
4752821.924;-41.723;-50.850;-84.154;-51.707;-38.110;2.459;-4.359;-2.086
4752821.964;-42.245;-53.346;-82.962;-54.352;-51.968;1.006;-6.855;-2.645
4752821.972;-47.423;-55.246;-92.834;-56.252;-48.913;3.166;-6.817;-0.484
4752821.980;-45.523;-54.687;-89.146;-55.209;-46.752;1.676;-9.611;-0.112
4752821.988;-49.025;-57.034;-93.319;-58.189;-45.896;-0.373;-10.692;-2.310
4752821.996;-57.146;-64.336;-101.514;-63.889;-57.481;-5.141;-14.380;-7.786
4752822.004;-56.326;-64.373;-97.156;-65.565;-58.375;-4.061;-14.305;-6.855
4752822.012;-51.223;-59.232;-92.052;-60.312;-60.536;2.235;-9.090;-0.857
4752822.020;-55.693;-62.957;-98.273;-62.585;-55.321;2.086;-10.356;0.037
4752822.028;-55.991;-64.261;-96.895;-62.883;-55.581;0.298;-9.313;-0.596
4752822.036;-62.026;-71.600;-105.873;-71.228;-67.502;-6.296;-16.503;-5.066
4752822.044;-61.095;-72.755;-102.296;-73.388;-61.579;-10.096;-22.538;-7.339
4752822.052;-56.997;-68.545;-97.826;-68.173;-60.685;-7.600;-20.452;-7.264
4752822.060;-54.948;-66.124;-94.026;-63.926;-56.885;-6.296;-18.179;-5.588
4752822.068;-53.942;-66.757;-90.115;-68.024;-48.093;-8.605;-21.905;-7.786
4752822.076;-59.567;-69.253;-105.798;-68.471;-73.388;-9.872;-22.165;-9.201
4752822.084;-59.009;-68.918;-103.042;-69.179;-66.683;-7.004;-18.477;-6.407
4752822.092;-54.501;-64.038;-98.646;-63.479;-64.559;-3.316;-12.405;-2.943
4752822.100;-54.166;-62.808;-97.491;-60.648;-67.949;-2.570;-10.841;-3.353
4752822.108;-54.725;-64.448;-93.319;-64.075;-62.883;0.708;-9.984;0.484
4752822.116;-62.957;-73.202;-103.377;-72.867;-81.919;-1.676;-9.649;-0.075
4752822.124;-72.569;-81.733;-114.702;-82.143;-92.983;-7.637;-15.981;-5.998
4752822.132;-75.363;-83.223;-119.396;-84.117;-91.456;-9.574;-20.266;-9.462
4752822.140;-70.147;-80.839;-108.778;-82.143;-83.856;-6.892;-17.621;-7.637
4752822.148;-68.434;-76.704;-109.076;-75.847;-88.550;-2.682;-12.778;-3.800
4752822.189;-68.024;-73.835;-110.045;-72.457;-97.528;-4.582;-13.784;-5.364
4752822.197;-64.597;-71.526;-103.153;-72.792;-86.203;-6.780;-14.827;-6.482
4752822.205;-63.293;-70.371;-101.216;-71.861;-92.573;-4.731;-12.517;-4.098
4752822.213;-63.144;-70.110;-103.936;-70.930;-100.099;-9.127;-16.280;-6.706
4752822.221;-62.995;-70.445;-101.551;-71.116;-102.110;-12.442;-17.807;-10.021
4752822.229;-65.938;-71.973;-101.402;-71.749;-105.985;-14.305;-20.005;-11.921
4752822.237;-66.906;-73.388;-103.824;-75.474;-118.352;-11.772;-18.440;-9.090
4752822.245;-69.775;-73.947;-107.139;-74.171;-126.511;-8.643;-13.709;-9.164
4752822.253;-66.273;-71.973;-101.849;-72.345;-135.303;-3.092;-6.333;-5.960
4752822.261;-66.608;-72.345;-100.322;-72.382;-130.758;-6.333;-9.537;-8.047
4752822.269;-66.087;-72.978;-98.497;-73.425;-107.400;-11.176;-16.540;-9.835
4752822.277;-64.634;-70.445;-94.920;-72.792;-86.613;-12.629;-17.285;-11.362
4752822.285;-62.995;-67.502;-91.307;-69.439;-81.845;-10.952;-14.789;-10.543
4752822.293;-66.049;-71.786;-91.232;-74.618;-82.999;-10.021;-16.876;-8.382
4752822.301;-67.577;-72.382;-92.573;-75.810;-94.399;-6.557;-15.572;-4.880
4752822.309;-71.265;-74.618;-95.479;-76.629;-99.801;-7.935;-16.093;-6.929
4752822.317;-70.967;-74.133;-90.785;-75.921;-98.273;-10.878;-15.199;-9.760
4752822.325;-67.092;-69.775;-83.856;-73.649;-98.422;-9.574;-12.703;-8.605
4752822.333;-65.081;-67.540;-78.231;-69.626;-108.294;-12.107;-15.721;-9.499
4752822.341;-65.416;-67.651;-79.647;-68.806;-123.605;-13.635;-16.205;-11.735
4752822.349;-60.536;-63.777;-74.282;-65.453;-130.087;-8.531;-11.474;-7.711
4752822.357;-58.897;-62.771;-71.004;-65.416;-141.561;-6.147;-8.866;-3.688
4752822.365;-61.579;-64.038;-70.371;-66.422;-153.109;-6.109;-7.972;-2.943
4752822.373;-60.014;-65.081;-67.167;-68.806;-157.952;-7.898;-11.884;-3.949
4752822.370;-58.301;-64.112;-62.585;-69.626;-161.119;-5.513;-9.686;-1.751
4752822.378;-62.808;-68.173;-64.671;-72.382;-171.922;-1.155;-3.166;1.080
4752822.386;-65.602;-71.712;-63.218;-77.076;-174.269;-2.049;-7.488;1.229
4752822.394;-67.987;-73.202;-60.759;-78.902;-177.249;-2.719;-7.451;1.565
4752822.402;-69.439;-74.394;-61.542;-79.051;-178.441;-5.402;-7.302;0.447
4752822.410;-69.775;-73.947;-58.375;-78.604;-171.922;-4.359;-5.662;2.384
4752822.418;-72.494;-77.151;-59.828;-83.447;-169.873;-3.017;-4.508;1.900
4752822.426;-67.204;-70.408;-50.366;-76.927;-157.133;-1.118;-3.129;3.129
4752822.434;-66.049;-67.130;-45.374;-74.022;-150.800;-3.353;-7.115;0.820
4752822.442;-61.281;-61.579;-38.370;-68.732;-144.802;-4.731;-7.302;-1.602
4752822.450;-54.687;-57.630;-30.361;-66.534;-142.902;-1.416;-5.253;-0.149
4752822.458;-53.793;-57.146;-27.679;-63.963;-141.747;-0.186;-3.800;-0.931
4752822.466;-55.656;-59.940;-27.828;-66.571;-139.922;-1.565;-4.433;-1.416
4752822.474;-57.183;-62.175;-26.450;-70.706;-138.097;-2.012;-4.582;-0.671
4752822.482;-56.811;-61.840;-24.922;-70.669;-141.338;-1.192;-3.763;0.596
4752822.490;-56.736;-61.467;-20.862;-70.967;-132.993;0.112;-1.825;1.006
4752822.498;-55.954;-62.101;-19.073;-73.165;-132.546;-0.745;-3.427;-0.261
4752822.506;-51.819;-57.481;-15.087;-65.826;-127.889;0.708;-0.559;0.447
4752822.514;-56.103;-59.865;-18.217;-66.645;-133.067;4.247;3.055;2.868
4752822.522;-60.610;-64.112;-21.905;-70.706;-138.395;5.700;4.098;3.427
4752822.530;-66.757;-69.439;-26.375;-76.517;-141.002;8.270;3.912;7.190
4752822.538;-68.322;-72.084;-26.971;-78.306;-140.741;12.144;4.843;11.921
4752822.546;-66.496;-69.551;-24.885;-74.953;-141.300;10.580;3.725;9.127
4752822.554;-64.448;-67.167;-20.750;-73.686;-141.077;6.109;0.447;4.694
4752822.594;-63.479;-66.161;-17.211;-73.612;-136.718;3.688;0.261;3.763
4752822.602;-61.132;-62.697;-15.795;-69.737;-135.973;4.545;3.539;3.129
4752822.610;-59.493;-61.467;-13.672;-66.832;-137.463;5.551;4.172;2.608
4752822.618;-62.250;-64.038;-16.429;-69.849;-141.934;3.316;0.782;0.447
4752822.626;-63.293;-64.112;-16.242;-69.663;-141.710;2.421;1.378;-0.037
4752822.634;-64.559;-65.826;-17.062;-70.557;-146.553;-0.373;-1.900;-2.980
4752822.642;-66.049;-66.832;-18.477;-71.526;-149.980;-2.980;-4.880;-4.657
4752822.650;-71.004;-70.557;-22.538;-75.512;-151.619;-4.619;-8.866;-4.508
4752822.658;-73.910;-71.935;-26.673;-74.580;-158.213;-2.310;-5.104;-2.049
4752822.666;-74.096;-73.388;-27.493;-77.076;-162.721;-2.384;-3.204;-2.757
4752822.674;-69.961;-70.557;-20.936;-75.176;-154.115;-1.267;-3.576;-1.118
4752822.682;-69.737;-69.812;-21.607;-73.761;-156.611;-0.335;-4.619;-0.410
4752822.690;-72.606;-72.755;-26.450;-75.810;-164.732;0.447;-3.614;-0.149
4752822.698;-71.600;-72.978;-24.550;-76.927;-161.752;1.937;-1.676;-0.075
4752822.706;-72.122;-72.084;-23.767;-77.263;-160.411;2.272;-3.166;1.378
4752822.714;-75.772;-74.208;-28.200;-77.114;-162.609;0.298;-4.321;0.112
4752822.722;-77.486;-75.735;-31.292;-78.641;-167.824;2.161;-2.123;1.416
4752822.730;-80.764;-79.796;-33.826;-81.994;-169.389;4.582;-1.676;3.614
4752822.738;-84.378;-82.925;-36.135;-85.309;-172.593;7.823;0.186;6.557
4752822.746;-86.464;-83.856;-38.482;-87.060;-178.851;8.494;-0.633;6.817
4752822.754;-84.341;-83.707;-36.359;-85.123;-178.404;6.631;-3.427;4.843
4752822.762;-77.933;-77.561;-29.095;-80.578;-170.432;7.004;-3.725;4.992
4752822.770;-70.073;-69.179;-21.644;-72.382;-162.758;8.047;0.410;6.594
4752822.778;-66.608;-66.757;-19.558;-70.632;-162.832;7.153;2.123;7.041
4752822.788;-67.540;-69.477;-21.011;-73.723;-160.560;4.545;1.229;4.768
4752822.796;-71.004;-72.457;-25.220;-73.649;-169.985;3.614;0.708;4.061
4752822.804;-73.537;-73.686;-26.785;-76.294;-174.977;0.559;-0.335;1.080
4752822.812;-75.735;-73.351;-28.573;-76.629;-175.983;-4.321;-4.023;-3.502
4752822.820;-72.122;-70.930;-24.326;-73.761;-169.240;-3.390;-5.774;-1.900
4752822.828;-71.377;-70.967;-22.650;-73.798;-168.420;2.347;-1.155;1.639
4752822.836;-79.386;-79.647;-32.485;-81.025;-177.398;1.341;-2.123;0.410
4752822.844;-80.392;-81.994;-34.049;-83.484;-172.891;0.000;-3.017;-1.676
4752822.852;-78.082;-78.492;-33.416;-77.784;-169.314;2.086;-0.820;0.894
4752822.860;-75.810;-74.841;-31.739;-73.090;-167.377;4.619;0.149;4.321
4752822.868;-74.878;-74.618;-31.367;-73.947;-167.117;3.166;-1.118;2.198
4752822.876;-74.729;-75.437;-32.932;-74.506;-170.656;0.037;-6.407;-0.075
4752822.884;-73.463;-72.829;-33.192;-71.861;-169.091;3.092;-5.513;1.490
4752822.892;-68.992;-70.445;-24.959;-68.732;-156.201;5.476;-4.098;3.502
4752822.900;-68.918;-71.265;-23.618;-66.645;-159.629;2.235;-7.190;0.969
4752822.908;-56.103;-55.879;-12.033;-49.844;-155.196;3.390;-3.949;2.161
4752822.916;-34.496;-34.086;7.860;-25.965;-141.859;1.080;-2.421;-2.682
4752822.924;6.184;7.488;48.988;17.062;-114.851;4.284;2.719;-0.410
4752822.932;64.597;67.130;100.322;76.219;-86.688;8.680;9.276;4.247
4752822.940;128.336;134.148;159.442;147.521;-52.117;12.666;16.205;7.860
4752822.948;192.188;202.209;214.986;222.586;-27.455;14.380;17.881;8.754
4752822.956;237.115;243.783;253.506;263.862;-3.539;18.552;21.011;15.199
4752822.964;274.330;278.354;288.077;302.196;23.358;18.626;19.073;17.248
4752822.972;291.914;295.006;304.244;321.195;37.290;17.658;18.179;16.168
4752822.896;292.733;294.894;303.350;321.753;42.319;13.597;14.156;15.087
4752822.904;282.712;285.767;292.324;314.862;34.012;15.125;18.701;17.025
4752822.912;274.815;275.820;287.145;304.505;37.923;15.274;20.675;17.509
4752822.920;266.135;269.525;277.422;299.253;36.396;14.231;20.191;14.380
4752822.928;247.173;252.426;256.263;282.452;23.805;11.846;18.850;9.909
4752822.936;223.815;230.335;232.942;259.578;11.176;10.543;15.497;10.133
4752822.944;195.950;203.252;206.679;230.595;-1.565;9.798;12.182;10.133
4752822.952;168.867;175.200;179.783;199.564;-17.807;7.153;8.717;8.754
4752822.960;150.055;155.345;162.013;175.722;-27.493;8.419;10.692;8.643
4752822.968;127.256;130.907;140.928;145.361;-35.167;4.023;6.706;6.109
4752822.976;105.277;105.053;122.897;116.080;-43.139;0.186;1.565;4.582
4752822.984;83.894;80.764;101.514;89.258;-59.716;-1.192;-1.043;4.023
4752822.992;64.336;61.877;81.435;70.371;-73.016;-0.447;0.708;4.619
4752823.000;48.801;48.950;66.906;56.066;-81.286;6.370;6.855;9.723
4752823.008;39.749;41.090;55.507;49.062;-85.570;10.841;10.692;12.219
4752823.016;31.926;33.006;49.397;39.563;-88.662;9.015;10.133;9.537
4752823.024;23.656;23.507;40.792;28.387;-90.674;3.912;5.700;5.327
4752823.032;9.164;8.009;23.544;13.076;-103.489;-4.098;-4.098;-1.825
4752823.040;-0.410;0.373;13.188;6.594;-111.051;-7.823;-8.419;-3.241
4752823.048;-14.827;-13.001;-1.937;-7.153;-123.978;-13.411;-13.076;-6.333
4752823.056;-23.842;-22.613;-9.574;-17.025;-129.081;-10.915;-9.909;-4.321
4752823.064;-29.989;-27.977;-13.821;-21.905;-125.207;-2.272;-3.316;0.708
4752823.072;-35.949;-35.502;-21.607;-29.542;-133.067;4.880;1.751;4.582
4752823.080;-44.107;-42.804;-29.989;-36.992;-138.022;10.692;1.714;10.580
4752823.060;-53.532;-50.850;-37.141;-43.996;-143.014;10.356;0.857;9.574
4752823.068;-65.751;-62.957;-50.478;-55.358;-158.660;5.439;0.708;4.731
4752823.076;-71.600;-68.471;-57.369;-60.312;-162.423;5.960;7.078;4.545
4752823.084;-77.598;-72.867;-62.659;-63.889;-162.087;2.794;10.282;0.224
4752823.092;-82.478;-77.635;-65.751;-70.855;-165.552;-2.310;5.588;-3.539
4752823.100;-82.105;-79.498;-64.299;-72.755;-160.486;-1.751;3.800;-2.906
4752823.108;-83.633;-82.143;-65.826;-74.506;-159.480;4.582;7.972;2.086
4752823.116;-90.450;-88.811;-74.543;-79.647;-168.122;12.927;14.789;9.872
4752823.124;-96.858;-95.963;-80.653;-85.607;-169.240;12.442;14.305;10.766
4752823.132;-103.563;-103.675;-86.427;-93.579;-171.885;7.041;5.849;7.041
4752823.140;-108.518;-108.518;-92.387;-98.832;-177.845;0.298;-3.837;2.421
4752823.148;-104.271;-103.302;-88.103;-94.734;-173.450;0.745;-5.253;3.241
4752823.156;-99.689;-97.603;-83.335;-89.593;-165.179;1.788;-2.943;5.029
4752823.164;-100.061;-97.714;-84.825;-89.407;-165.440;0.037;-1.490;2.347
4752823.172;-97.379;-93.170;-82.776;-84.862;-168.085;2.868;1.825;3.949
4752823.180;-95.665;-92.983;-80.355;-84.303;-160.746;4.210;1.453;6.221
4752823.188;-93.132;-93.058;-78.417;-83.931;-157.729;5.402;2.235;7.227
4752823.196;-85.831;-86.091;-72.196;-76.815;-155.568;12.442;10.468;12.517
4752823.204;-85.235;-85.682;-71.712;-77.300;-154.749;11.325;10.543;9.872
4752823.212;-85.309;-85.235;-72.494;-77.300;-154.898;12.517;13.039;10.841
4752823.220;-86.054;-85.235;-72.829;-77.114;-154.115;13.448;14.268;10.692
4752823.228;-85.831;-85.235;-72.531;-78.231;-153.482;11.772;11.101;9.537
4752823.236;-90.748;-89.519;-79.013;-82.366;-157.729;7.674;8.233;6.258
4752823.244;-94.026;-93.244;-80.131;-84.713;-156.686;3.912;7.227;2.310
4752823.240;-93.021;-91.493;-78.008;-83.782;-151.508;3.353;6.929;1.714
4752823.248;-95.144;-92.648;-84.676;-83.968;-157.692;0.857;7.786;-0.373
4752823.256;-101.365;-97.938;-95.144;-87.805;-170.395;-1.937;6.743;-2.868
4752823.264;-98.310;-95.107;-91.419;-84.043;-163.317;0.112;9.164;-0.559
4752823.272;-100.210;-98.757;-92.275;-88.252;-162.162;-4.768;1.453;-3.129
4752823.280;-104.271;-102.557;-96.895;-92.648;-162.050;-7.041;-3.427;-3.353
4752823.288;-104.830;-103.526;-97.454;-92.462;-159.219;-5.662;-1.490;-2.049
4752823.296;-101.887;-101.179;-95.107;-90.227;-156.276;-4.768;0.037;-1.229
4752823.304;-95.069;-93.542;-88.997;-83.596;-151.768;-1.602;4.508;2.086
4752823.312;-94.324;-91.791;-88.438;-82.217;-148.080;-0.559;5.774;5.178
4752823.320;-97.044;-93.207;-92.387;-85.086;-150.651;-2.012;3.576;2.459
4752823.328;-93.207;-89.407;-88.960;-80.802;-148.974;-1.602;5.551;2.012
4752823.336;-93.505;-89.593;-87.544;-81.360;-143.796;-4.508;0.373;0.037
4752823.344;-93.319;-89.630;-87.805;-80.951;-136.495;-7.227;-5.364;-2.384
4752823.352;-87.172;-83.856;-84.937;-73.649;-136.979;-4.806;-2.906;-2.161
4752823.360;-77.486;-73.500;-78.082;-64.597;-129.864;-2.645;2.496;-0.969
4752823.368;-75.623;-71.116;-78.380;-62.808;-126.548;-5.737;2.496;-4.470
4752823.376;-73.351;-67.912;-75.735;-59.381;-121.705;-5.625;4.545;-4.210
4752823.384;-73.574;-68.285;-75.661;-59.418;-123.754;-4.061;5.737;-1.080
4752823.392;-72.643;-68.247;-74.767;-60.499;-121.482;-3.427;5.923;0.000
4752823.400;-73.425;-68.396;-75.027;-61.914;-116.341;-5.700;4.843;-2.496
4752823.408;-71.675;-65.863;-73.537;-58.711;-117.682;-6.929;4.508;-4.321
4752823.416;-70.222;-65.677;-72.867;-60.126;-116.527;-9.239;3.166;-6.258
4752823.424;-66.906;-63.330;-70.855;-58.115;-116.304;-11.139;0.335;-7.451
4752823.375;-69.030;-67.167;-71.786;-62.585;-115.447;-14.789;-6.855;-9.239
4752823.383;-69.514;-67.838;-71.414;-63.442;-113.398;-13.448;-7.972;-7.227
4752823.391;-67.912;-65.938;-70.184;-60.797;-112.280;-11.958;-7.078;-6.147
4752823.399;-67.465;-64.634;-70.557;-59.791;-110.865;-11.735;-7.674;-6.445
4752823.407;-63.740;-61.877;-64.857;-57.966;-103.228;-9.127;-5.625;-5.960
4752823.415;-64.895;-63.777;-65.789;-58.822;-102.073;-10.468;-5.588;-8.866
4752823.423;-67.241;-65.863;-68.732;-62.063;-106.320;-12.591;-6.333;-12.368
4752823.431;-63.442;-62.473;-64.410;-59.605;-102.855;-12.331;-5.253;-10.841
4752823.439;-61.616;-59.940;-62.957;-57.891;-99.614;-12.778;-8.307;-8.903
4752823.447;-62.101;-61.728;-63.181;-59.716;-97.677;-11.399;-8.605;-7.637
4752823.455;-62.361;-64.671;-63.777;-61.318;-97.789;-13.821;-8.494;-10.915
4752823.463;-61.430;-63.255;-62.026;-59.754;-94.324;-14.640;-3.465;-11.399
4752823.471;-59.865;-60.461;-61.989;-56.177;-96.820;-15.162;-2.198;-10.729
4752823.479;-61.244;-60.089;-64.746;-54.315;-100.546;-14.044;-4.582;-8.941
4752823.487;-59.605;-58.934;-62.250;-53.756;-95.740;-10.468;-2.123;-7.413
4752823.495;-56.997;-57.220;-60.685;-51.633;-96.187;-10.692;0.075;-9.276
4752823.503;-53.979;-53.756;-57.369;-48.652;-91.791;-9.350;2.310;-8.829
4752823.511;-57.407;-57.779;-61.691;-53.011;-94.250;-11.474;-0.559;-11.437
4752823.519;-55.693;-55.432;-61.281;-50.925;-95.405;-9.537;-0.708;-8.643
4752823.527;-48.801;-48.541;-53.123;-44.741;-87.693;-5.737;4.023;-4.917
4752823.535;-49.956;-50.440;-53.793;-46.343;-86.389;-8.792;4.433;-6.482
4752823.543;-49.025;-49.062;-53.644;-44.517;-84.117;-10.282;2.831;-7.935
4752823.551;-45.300;-45.486;-50.627;-41.276;-80.727;-2.980;6.817;-1.974
4752823.559;-52.564;-53.868;-57.556;-50.925;-90.078;-3.949;3.837;-3.465
4752823.554;-53.085;-53.719;-55.842;-48.429;-88.066;-2.757;2.831;-2.235
4752823.562;-50.291;-51.558;-51.670;-45.970;-81.770;-3.949;1.267;-3.278
4752823.570;-47.199;-49.099;-46.790;-46.901;-73.500;-3.614;1.863;-3.949
4752823.578;-49.174;-49.621;-50.440;-47.572;-79.088;-3.465;1.565;-5.178
4752823.586;-46.864;-47.944;-49.435;-45.449;-76.517;-1.192;4.992;-3.278
4752823.594;-45.300;-46.901;-47.870;-43.660;-73.835;3.129;9.574;0.596
4752823.602;-44.778;-46.380;-47.907;-42.059;-76.965;1.714;6.743;0.820
4752823.610;-45.337;-47.423;-47.646;-43.660;-72.606;2.235;5.662;3.465
4752823.618;-46.268;-48.690;-49.025;-45.188;-74.469;-0.335;2.533;2.272
4752823.626;-48.541;-48.839;-52.489;-45.002;-78.529;-2.496;0.075;-0.224
4752823.634;-47.274;-45.300;-51.633;-40.047;-76.965;-1.080;2.757;-1.863
4752823.642;-43.698;-42.245;-46.827;-36.508;-71.749;-2.310;3.316;-3.278
4752823.650;-41.462;-41.053;-43.698;-37.514;-71.116;-2.347;5.141;-3.055
4752823.658;-43.102;-42.692;-46.417;-39.451;-71.526;-3.390;4.023;-3.353
4752823.666;-43.586;-41.835;-47.907;-36.843;-70.259;-2.831;4.992;-0.373
4752823.674;-43.027;-41.761;-44.927;-36.694;-66.832;-4.135;4.768;-1.118
4752823.682;-45.151;-43.996;-49.286;-39.712;-76.033;-5.253;2.570;-2.682
4752823.690;-45.262;-44.182;-49.770;-40.494;-73.910;-4.061;3.874;-3.055
4752823.698;-47.237;-47.162;-51.558;-42.990;-73.053;-5.029;3.204;-4.321
4752823.706;-50.962;-51.297;-54.762;-46.156;-73.686;-10.058;-3.651;-5.513
4752823.714;-49.025;-47.125;-53.309;-41.462;-72.643;-6.407;-3.092;0.037
4752823.722;-51.446;-49.956;-57.220;-45.374;-75.102;-7.115;-3.614;-0.522
4752823.730;-53.681;-51.521;-58.226;-47.050;-76.219;-4.359;0.447;-0.037
4752823.738;-52.676;-50.403;-55.619;-45.300;-70.930;-0.484;4.619;1.453
4752823.707;-52.676;-50.925;-56.624;-45.821;-71.637;1.192;5.923;1.378
4752823.715;-53.458;-52.787;-56.773;-48.280;-71.749;0.149;5.886;-0.112
4752823.723;-53.644;-53.123;-56.699;-49.286;-70.967;-2.943;4.210;-1.304
4752823.731;-54.762;-53.383;-57.295;-49.919;-70.147;-3.725;2.198;-1.304
4752823.739;-57.481;-58.413;-57.593;-54.315;-68.024;-8.829;-3.763;-4.359
4752823.747;-58.897;-57.593;-61.132;-52.154;-75.251;-10.766;-4.955;-6.184
4752823.755;-51.707;-49.397;-55.060;-44.629;-68.396;-4.433;2.347;-0.782
4752823.763;-48.690;-47.721;-53.756;-43.772;-66.198;-1.565;5.551;-0.745
4752823.771;-49.584;-48.727;-52.936;-45.076;-64.336;-4.098;3.986;-6.333
4752823.779;-46.492;-47.237;-51.148;-42.282;-63.740;-3.763;5.662;-7.935
4752823.787;-43.400;-43.847;-49.323;-38.706;-60.312;-2.980;10.245;-7.488
4752823.795;-46.417;-46.231;-50.403;-40.010;-60.946;-4.359;12.219;-8.419
4752823.803;-54.017;-53.532;-57.705;-47.237;-70.110;-11.250;6.258;-12.666
4752823.811;-52.452;-49.993;-55.954;-43.958;-67.614;-16.056;1.341;-15.683
4752823.819;-53.458;-51.260;-58.673;-44.145;-71.079;-19.856;-6.333;-16.652
4752823.827;-57.556;-55.432;-64.038;-48.541;-78.157;-21.197;-9.052;-14.603
4752823.835;-50.515;-49.882;-56.215;-43.400;-69.365;-13.039;-1.788;-6.445
4752823.843;-52.005;-50.962;-58.189;-44.182;-69.067;-10.394;0.745;-5.290
4752823.851;-54.166;-52.266;-59.418;-45.300;-70.855;-6.296;2.868;-4.843
4752823.859;-55.395;-53.458;-60.238;-46.603;-72.420;-3.725;4.880;-5.104
4752823.867;-55.395;-54.464;-61.616;-48.354;-75.027;-4.284;4.470;-7.153
4752823.875;-56.438;-56.401;-61.244;-50.552;-73.202;-6.296;0.745;-7.190
4752823.883;-60.350;-60.424;-64.895;-54.836;-75.400;-11.325;-6.892;-8.531
4752823.891;-61.244;-60.946;-66.049;-55.730;-75.251;-12.517;-9.760;-6.929
4752823.870;-60.089;-60.126;-65.751;-55.060;-76.108;-11.660;-10.207;-5.402
4752823.878;-59.977;-61.989;-65.789;-58.599;-74.320;-11.958;-11.288;-5.327
4752823.886;-61.058;-64.075;-67.391;-59.567;-79.051;-11.325;-8.903;-5.327
4752823.894;-61.654;-64.820;-66.720;-60.275;-76.145;-12.219;-9.909;-6.445
4752823.902;-57.183;-57.966;-63.516;-52.564;-73.500;-8.382;-5.551;-4.768
4752823.910;-59.269;-60.387;-66.645;-54.426;-73.016;-9.947;-5.737;-7.041
4752823.918;-55.470;-57.518;-61.728;-53.756;-66.608;-7.041;-2.533;-3.204
4752823.926;-53.234;-54.836;-60.722;-50.291;-67.316;-9.015;-5.737;-3.800
4752823.934;-51.111;-53.123;-57.779;-47.795;-63.367;-12.480;-10.170;-6.370
4752823.942;-44.703;-46.939;-53.048;-41.276;-59.009;-8.233;-5.513;-3.353
4752823.950;-43.362;-44.666;-51.558;-37.588;-57.034;-6.035;-1.118;-1.937
4752823.958;-47.311;-49.323;-53.197;-43.288;-54.240;-14.007;-7.972;-8.568
4752823.966;-49.025;-50.180;-54.985;-43.474;-57.742;-19.781;-13.970;-13.746
4752823.974;-44.070;-45.076;-53.681;-38.892;-59.828;-21.495;-15.460;-14.342
4752823.982;-42.021;-42.617;-51.297;-36.582;-51.558;-22.352;-13.411;-15.683
4752823.990;-44.219;-45.709;-54.426;-39.190;-57.630;-18.291;-7.339;-14.789
4752823.998;-48.317;-49.695;-58.562;-43.288;-61.467;-15.460;-3.614;-14.119
4752824.006;-51.670;-52.564;-59.977;-46.566;-61.765;-15.274;-4.321;-12.778
4752824.014;-56.811;-58.338;-63.144;-51.856;-62.510;-20.452;-14.789;-14.976
4752824.022;-54.538;-56.252;-61.728;-51.185;-59.009;-22.389;-20.713;-13.933
4752824.030;-49.770;-51.558;-58.971;-44.629;-59.232;-17.844;-14.789;-9.090
4752824.038;-42.357;-43.735;-51.931;-35.539;-52.936;-8.531;-3.949;-4.508
4752824.046;-40.419;-41.425;-49.770;-33.900;-48.280;-3.874;2.980;-5.551
4752824.054;-38.669;-40.531;-48.541;-33.416;-47.423;-3.316;2.831;-4.470
4752824.034;-38.780;-41.872;-48.801;-33.341;-46.939;-5.178;0.298;-3.800
4752824.042;-40.568;-43.921;-51.334;-35.092;-46.343;-10.021;-4.172;-5.774
4752824.050;-38.482;-42.655;-49.397;-31.777;-43.660;-9.164;-3.166;-4.694
4752824.058;-39.525;-45.672;-50.440;-32.149;-45.449;-7.115;-0.335;-4.061
4752824.066;-43.921;-48.503;-56.960;-34.831;-55.581;-7.190;1.416;-5.551
4752824.074;-44.294;-48.429;-55.134;-35.018;-52.415;-4.508;4.433;-3.800
4752824.082;-46.045;-49.844;-57.071;-36.582;-50.105;-7.525;1.378;-4.321
4752824.090;-45.523;-48.280;-57.109;-35.726;-49.807;-10.096;-1.900;-3.539
4752824.098;-46.641;-48.950;-56.773;-37.849;-47.237;-11.064;-2.347;-4.396
4752824.106;-46.380;-48.280;-58.375;-36.992;-53.681;-10.654;1.453;-4.433
4752824.114;-44.890;-48.243;-55.172;-37.737;-46.194;-10.431;2.384;-4.172
4752824.122;-44.405;-49.509;-54.725;-39.861;-43.362;-10.654;0.745;-3.427
4752824.130;-43.921;-46.641;-55.768;-36.657;-48.093;-10.245;-0.894;-3.241
4752824.138;-44.145;-45.896;-55.842;-35.614;-45.449;-11.995;-2.421;-2.719
4752824.146;-43.474;-47.721;-54.725;-36.806;-42.878;-12.107;-1.453;-2.012
4752824.154;-44.778;-48.243;-56.326;-37.551;-42.208;-14.231;-3.316;-4.470
4752824.162;-48.690;-51.484;-62.771;-39.637;-47.944;-13.337;-3.204;-3.912
4752824.170;-45.896;-49.248;-58.487;-38.408;-40.606;-8.009;-0.633;1.304
4752824.178;-42.468;-46.678;-54.874;-38.110;-35.316;-4.210;0.484;6.109
4752824.186;-48.168;-50.738;-61.914;-40.494;-47.497;-7.600;-2.086;2.049
4752824.194;-45.486;-47.572;-58.636;-37.476;-44.592;-3.614;0.335;4.619
4752824.202;-41.611;-44.964;-53.346;-36.322;-35.837;-4.992;-1.229;3.986
4752824.210;-42.543;-45.933;-55.358;-37.737;-35.502;-11.213;-6.855;-0.186
4752824.218;-42.282;-44.331;-55.581;-36.024;-34.161;-8.605;-3.725;1.453
4752824.199;-40.457;-43.809;-53.681;-34.384;-30.585;-7.525;-0.522;1.341
4752824.207;-37.514;-39.488;-51.819;-29.318;-32.000;-4.806;3.316;2.943
4752824.215;-38.967;-41.090;-53.383;-30.175;-34.347;-4.359;3.874;3.502
4752824.223;-42.208;-43.623;-55.209;-32.857;-33.490;-8.792;-2.086;0.708
4752824.231;-37.625;-38.594;-48.466;-27.902;-22.836;-6.668;-1.490;3.688
4752824.239;-35.278;-35.092;-47.497;-24.773;-26.040;-6.966;-0.373;3.725
4752824.247;-34.496;-34.049;-46.641;-24.624;-23.544;-9.015;0.149;-0.671
4752824.255;-36.210;-36.433;-46.752;-27.977;-23.507;-8.196;2.049;-0.894
4752824.263;-37.290;-37.253;-48.056;-29.318;-23.395;-12.815;-1.155;-3.278
4752824.271;-35.167;-35.055;-46.119;-27.344;-23.320;-11.958;-1.676;-0.596
4752824.279;-34.757;-35.092;-46.156;-26.859;-22.240;-11.399;-5.662;-0.186
4752824.287;-31.516;-32.075;-41.313;-24.140;-16.503;-12.033;-7.674;-1.006
4752824.295;-29.169;-30.808;-38.855;-22.650;-12.107;-13.001;-6.929;-2.496
4752824.303;-32.075;-32.745;-43.251;-25.406;-18.477;-11.697;-4.433;-3.800
4752824.311;-33.714;-34.571;-43.288;-27.195;-15.795;-9.388;-0.931;-2.757
4752824.319;-32.894;-34.459;-41.723;-26.636;-13.709;-8.978;0.820;-1.788
4752824.327;-29.579;-30.734;-40.494;-23.656;-13.411;-13.374;-4.284;-6.445
4752824.335;-28.312;-30.585;-39.041;-23.097;-13.039;-16.503;-10.170;-8.531
4752824.343;-25.854;-28.275;-35.539;-19.260;-5.513;-17.844;-11.548;-8.568
4752824.351;-23.916;-25.854;-32.596;-17.323;-2.198;-15.944;-9.388;-5.551
4752824.359;-28.685;-29.132;-37.923;-20.601;-11.511;-16.466;-9.798;-6.147
4752824.367;-34.757;-33.677;-44.666;-24.810;-20.377;-12.815;-6.631;-3.837
4752824.375;-35.353;-35.949;-43.549;-27.865;-16.205;-11.697;-7.227;-3.316
4752824.383;-21.607;-25.928;-26.859;-21.830;2.049;-16.354;-11.958;-6.631
4752824.335;-23.879;-28.498;-26.450;-29.653;5.886;-13.188;-9.015;-3.353
4752824.343;-25.891;-29.169;-27.716;-30.696;5.290;-9.947;-5.439;-2.235
4752824.351;-31.926;-34.347;-35.167;-35.577;-1.751;-2.347;1.527;4.172
4752824.359;-38.035;-40.755;-41.500;-41.462;-8.605;-0.671;3.092;6.631
4752824.367;-39.153;-42.468;-42.990;-44.443;-5.886;-3.465;1.825;2.198
4752824.375;-41.090;-43.288;-45.151;-45.300;-5.886;-6.147;0.782;-2.086
4752824.383;-45.486;-48.354;-47.758;-49.844;-8.792;-11.809;-3.539;-5.960
4752824.391;-44.107;-45.784;-46.045;-45.784;-8.754;-12.256;-4.359;-5.364
4752824.399;-37.327;-39.153;-40.606;-38.445;-2.533;-7.339;-0.335;-0.820
4752824.407;-36.806;-39.227;-40.904;-38.855;-3.166;-4.321;0.224;0.857
4752824.415;-37.476;-40.457;-42.543;-39.972;-4.917;0.745;2.645;4.657
4752824.423;-37.029;-39.376;-43.325;-39.116;-7.488;6.706;7.339;8.345
4752824.431;-40.382;-40.457;-46.492;-40.270;-9.090;9.872;12.070;8.717
4752824.439;-35.502;-36.061;-39.935;-35.651;0.261;17.546;20.377;13.597
4752824.447;-36.359;-38.333;-41.798;-37.290;-2.384;19.781;22.016;14.789
4752824.455;-34.310;-36.731;-37.216;-36.769;4.843;19.036;20.862;15.050
4752824.463;-38.818;-41.462;-42.766;-40.270;-0.969;11.809;12.480;9.760
4752824.471;-43.921;-46.641;-49.174;-44.852;-10.729;4.545;4.694;4.694
4752824.479;-42.133;-45.449;-48.280;-44.107;-9.984;-0.037;0.224;2.868
4752824.487;-40.457;-42.096;-48.988;-40.755;-10.021;-1.080;0.261;2.719
4752824.495;-37.104;-38.557;-46.268;-36.173;-4.768;1.527;3.241;2.868
4752824.503;-39.563;-43.213;-48.205;-41.164;-6.482;0.671;1.565;2.012
4752824.511;-37.700;-41.611;-45.337;-40.233;-4.135;3.204;1.527;6.333
4752824.519;-40.084;-44.331;-45.896;-41.239;-3.800;6.109;3.129;10.282
4752824.527;-46.007;-49.621;-51.521;-46.082;-9.760;4.545;1.267;9.984
4752824.535;-43.251;-47.274;-49.919;-43.847;-7.898;8.792;5.364;13.225
4752824.543;-38.594;-42.506;-47.609;-37.849;-8.456;12.405;10.207;14.491
4752824.551;-42.096;-45.039;-51.670;-39.600;-9.201;18.738;17.658;18.626
4752824.590;-35.428;-41.649;-43.996;-37.514;-2.459;16.317;15.534;16.466
4752824.598;-24.065;-31.404;-34.198;-30.436;2.198;11.399;9.313;11.846
4752824.606;-19.073;-26.748;-28.312;-25.630;11.064;11.958;10.543;12.107
4752824.614;-19.483;-27.455;-29.802;-25.705;8.047;9.574;11.325;9.835
4752824.622;-20.564;-29.206;-29.802;-29.057;6.817;7.302;8.754;8.829
4752824.630;-23.246;-32.447;-34.012;-32.149;3.725;3.986;6.296;8.009
4752824.638;-20.042;-27.940;-31.255;-23.320;11.399;7.711;10.468;12.703
4752824.646;-16.950;-25.332;-27.977;-21.495;11.474;10.245;10.654;13.821
4752824.654;-19.260;-28.573;-30.100;-25.183;8.196;8.382;10.282;12.033
4752824.662;-22.091;-30.138;-33.118;-25.742;6.594;6.445;9.835;12.256
4752824.670;-22.873;-29.281;-33.341;-22.575;9.798;8.009;14.715;14.864
4752824.678;-28.424;-33.192;-42.096;-27.381;-3.129;6.407;14.789;13.262
4752824.686;-32.075;-38.929;-44.703;-33.230;-8.084;4.210;9.239;11.213
4752824.694;-28.163;-38.706;-39.749;-33.863;1.527;6.631;8.233;13.709
4752824.702;-26.822;-38.892;-37.141;-35.726;8.978;8.307;8.121;14.603
4752824.710;-29.020;-39.861;-42.021;-35.949;0.708;7.264;6.258;13.374
4752824.718;-24.736;-34.012;-37.998;-28.424;5.923;8.307;9.350;14.603
4752824.726;-18.589;-27.046;-29.840;-21.011;14.268;11.623;14.678;17.732
4752824.734;-19.856;-25.816;-33.788;-19.409;7.711;11.399;15.907;16.242
4752824.742;-18.291;-24.438;-32.037;-18.850;7.078;13.523;17.844;17.136
4752824.750;-24.885;-31.963;-39.637;-26.934;4.247;14.417;17.658;16.466
4752824.758;-27.679;-34.757;-41.910;-29.951;2.719;14.380;16.205;17.919
4752824.766;-23.171;-30.920;-35.875;-27.865;10.133;16.876;18.813;21.607
4752824.774;-18.664;-26.971;-32.410;-22.948;11.995;14.417;16.242;20.601
4752824.800;-13.188;-21.011;-29.430;-16.987;9.686;15.944;16.987;21.458
4752824.808;-11.958;-21.532;-27.679;-17.695;11.437;16.466;18.701;20.340
4752824.816;-8.121;-17.621;-23.283;-12.740;17.472;17.770;23.283;19.893
4752824.824;-5.737;-12.964;-22.873;-6.780;16.615;16.578;24.401;18.254
4752824.832;-7.376;-12.740;-25.108;-4.321;15.348;13.821;21.458;16.429
4752824.840;-10.841;-15.944;-29.430;-7.413;10.096;10.133;16.317;13.076
4752824.848;-14.976;-19.856;-32.932;-12.070;7.860;6.519;11.586;11.176
4752824.856;-15.497;-18.850;-35.204;-11.139;3.949;6.482;9.686;10.766
4752824.864;-13.188;-17.472;-33.192;-9.164;5.215;8.196;10.468;11.325
4752824.872;-12.107;-17.583;-30.920;-10.170;15.460;8.456;11.511;10.952
4752824.880;-8.196;-14.380;-27.381;-8.494;14.305;9.201;15.162;10.729
4752824.888;-5.066;-11.586;-25.742;-4.843;12.740;8.084;15.572;11.288
4752824.896;-5.886;-12.964;-26.077;-5.662;11.362;7.227;13.299;11.176
4752824.904;-7.525;-14.678;-27.269;-6.966;15.125;9.425;14.193;11.511
4752824.912;-16.838;-23.730;-36.582;-13.821;7.674;9.350;13.672;11.548
4752824.920;-10.133;-17.472;-30.026;-8.754;12.852;7.376;11.884;11.027
4752824.928;-4.917;-11.176;-25.369;-2.384;17.881;7.488;14.603;10.207
4752824.936;-9.947;-15.758;-29.802;-6.855;9.127;8.158;16.168;9.239
4752824.944;-17.695;-22.613;-37.327;-13.635;2.347;2.943;10.580;4.321
4752824.952;-19.558;-22.724;-39.190;-12.629;3.614;-4.321;5.215;0.484
4752824.960;-11.250;-14.529;-31.330;-4.135;12.852;-4.321;4.396;2.645
4752824.968;-8.792;-13.486;-29.914;-2.943;12.517;-7.302;2.123;0.484
4752824.976;-10.729;-14.417;-34.012;-2.682;4.359;-3.986;4.545;2.198
4752824.984;-13.486;-17.546;-34.645;-7.600;8.866;-4.470;1.788;0.857
4752824.995;-17.695;-23.767;-38.780;-13.411;6.817;-8.754;-1.453;-1.490
4752825.003;-21.942;-28.871;-43.847;-20.005;2.198;-13.411;-7.376;-6.631
4752825.011;-17.956;-23.879;-42.059;-14.640;1.118;-9.276;-4.061;-3.241
4752825.019;-12.629;-17.509;-36.173;-8.792;6.780;-3.800;-0.037;1.490
4752825.027;-7.674;-13.039;-30.845;-5.066;12.219;-1.304;1.267;3.614
4752825.035;-5.215;-11.101;-28.796;-2.757;18.664;-2.198;0.410;3.241
4752825.043;2.608;-2.161;-23.879;5.886;22.389;3.129;8.196;7.488
4752825.051;5.402;0.522;-22.501;8.754;21.681;0.037;6.519;5.178
4752825.059;5.960;1.267;-19.781;9.537;26.077;-4.396;1.751;3.427
4752825.067;1.378;-3.763;-23.916;4.545;18.850;-6.296;-1.490;2.049
4752825.075;-5.364;-10.729;-31.590;-2.645;15.311;-10.394;-5.327;-1.378
4752825.083;-4.843;-10.915;-30.473;-5.104;14.752;-7.637;-3.539;0.596
4752825.091;-5.588;-12.405;-31.590;-6.258;13.374;-10.394;-3.278;-1.416
4752825.099;1.304;-7.264;-24.922;0.224;17.211;-8.158;-0.298;-0.596
4752825.107;7.898;-0.671;-18.142;5.886;24.773;-4.247;2.794;2.794
4752825.115;11.064;1.788;-15.162;7.115;29.393;-4.545;2.682;2.794
4752825.123;13.039;4.731;-14.305;10.952;28.573;-3.800;4.917;3.390
4752825.131;6.557;0.931;-21.011;9.239;28.387;-5.886;2.906;1.192
4752825.139;0.037;-3.986;-27.828;3.576;18.030;-6.258;2.310;0.186
4752825.147;-2.533;-6.035;-29.765;1.714;16.317;-5.104;3.502;2.161
4752825.155;-0.522;-4.694;-29.840;3.986;16.540;-4.098;5.960;4.284
4752825.163;4.247;-0.894;-23.134;5.402;24.475;-4.359;4.806;5.253
4752825.171;5.029;-0.186;-23.022;4.619;24.438;-4.061;2.719;6.631
4752825.179;6.966;2.645;-19.670;7.004;29.467;-3.353;2.533;8.941
4752825.205;5.290;0.335;-21.569;3.204;30.957;-3.912;0.931;5.327
4752825.213;6.035;1.490;-23.730;5.104;26.077;-3.390;0.298;-12.740
4752825.221;8.009;4.023;-21.271;9.052;29.840;-2.086;1.565;-22.911
4752825.229;4.470;0.000;-24.997;6.780;26.673;-6.631;-0.894;-28.647
4752825.237;7.413;2.570;-21.905;9.537;30.696;-4.172;2.123;-26.561
4752825.245;5.029;-0.484;-24.103;5.811;26.897;-3.912;1.863;-25.816
4752825.253;6.184;-0.075;-25.071;5.178;27.418;-2.980;1.527;-24.885
4752825.261;10.580;2.198;-20.117;5.662;32.745;0.447;3.502;-21.420
4752825.269;13.672;4.955;-16.615;7.935;37.886;-2.235;0.373;-21.867
4752825.277;10.394;4.061;-19.521;6.817;30.287;-8.158;-5.998;-27.418
4752825.285;11.437;5.774;-18.030;7.600;32.969;-8.568;-4.545;-28.275
4752825.293;11.176;5.066;-18.775;7.823;33.230;-7.972;-3.837;-27.530
4752825.301;14.678;8.307;-13.262;11.325;40.941;-1.378;1.788;-22.054
4752825.309;13.821;6.557;-15.460;9.872;38.110;-0.633;1.565;-20.452
4752825.317;8.456;1.639;-21.718;4.731;33.230;-3.278;-1.267;-23.954
4752825.325;10.282;2.421;-20.005;4.955;34.459;-2.421;1.378;-24.252
4752825.333;12.219;5.215;-19.930;9.127;32.447;-3.166;1.676;-23.618
4752825.341;15.497;7.823;-14.007;9.760;40.419;-2.570;0.298;-22.128
4752825.349;16.242;8.084;-12.070;10.431;42.431;-0.782;0.708;-21.309
4752825.357;16.354;9.537;-11.250;11.958;44.107;0.484;1.676;-20.564
4752825.365;14.193;6.594;-12.182;9.201;45.188;-3.614;-4.247;-22.613
4752825.373;14.156;6.221;-12.405;7.749;45.598;-9.499;-11.735;-25.481
4752825.381;12.517;5.849;-14.193;7.674;39.339;-12.033;-14.715;-27.567
4752825.389;11.474;4.284;-15.199;6.482;40.084;-9.760;-11.213;-27.865
4752825.414;6.966;-0.820;-17.546;1.155;37.141;-9.276;-9.909;-28.796
4752825.422;12.405;5.066;-10.692;7.637;43.586;-8.419;-7.190;-29.057
4752825.430;12.517;5.774;-13.411;9.760;41.798;-10.692;-8.345;-29.169
4752825.438;13.523;7.823;-12.033;10.617;40.084;-10.170;-8.233;-26.785
4752825.446;16.540;11.437;-9.015;16.280;41.462;-8.382;-4.843;-27.344
4752825.454;20.787;16.354;-4.545;22.836;49.286;-4.880;0.261;-25.891
4752825.462;20.824;17.397;-3.316;23.283;48.541;-5.290;-0.522;-27.120
4752825.470;21.122;16.540;-3.949;23.693;46.641;-7.339;-4.284;-28.126
4752825.478;21.793;17.360;-4.321;25.220;48.503;-5.886;-3.278;-26.114
4752825.486;14.491;9.574;-11.809;16.205;44.592;-7.190;-4.657;-25.667
4752825.494;10.654;4.768;-14.380;11.101;41.611;-5.513;-3.465;-22.911
4752825.502;9.388;4.470;-15.423;10.841;40.643;-5.923;-2.645;-24.401
4752825.510;9.164;5.811;-15.944;11.660;38.669;-9.723;-4.619;-28.238
4752825.518;14.566;11.399;-8.605;16.950;45.337;-14.119;-7.041;-31.888
4752825.526;19.148;15.385;-6.631;23.283;49.211;-13.523;-4.172;-31.851
4752825.534;22.762;19.222;-3.092;27.567;52.229;-10.952;-1.825;-33.006
4752825.542;25.369;20.899;1.043;27.977;56.662;-11.176;-6.147;-32.447
4752825.550;27.530;22.687;2.496;29.244;57.966;-12.219;-9.835;-31.032
4752825.558;28.722;26.189;2.235;33.118;53.011;-5.364;-0.261;-24.326
4752825.566;32.261;28.796;6.296;37.998;59.903;1.080;8.009;-17.472
4752825.574;39.004;34.049;14.752;42.394;69.924;4.359;11.772;-13.597
4752825.582;37.886;31.814;13.150;38.669;67.763;2.570;8.792;-16.950
4752825.590;36.769;29.467;11.362;36.620;65.975;-1.974;4.880;-21.979
4752825.598;37.588;29.430;12.256;36.582;61.952;-4.396;4.657;-23.842
4752825.655;38.296;30.585;12.331;39.414;61.393;-2.570;5.923;-21.607
4752825.663;34.347;27.604;6.780;37.141;57.518;-3.204;3.576;-21.532
4752825.671;31.516;25.891;5.178;35.502;56.624;-3.986;1.267;-20.489
4752825.679;30.994;25.742;5.327;35.577;59.754;-3.465;-0.373;-19.409
4752825.687;30.547;25.369;4.731;34.980;55.581;-5.551;-3.725;-21.309
4752825.695;27.642;23.134;1.080;32.410;54.799;-5.700;-3.166;-23.171
4752825.703;26.077;20.750;0.298;27.828;52.825;-5.737;-1.900;-24.326
4752825.711;25.444;20.564;0.410;27.195;51.372;-2.943;0.410;-22.985
4752825.719;17.993;14.305;-9.276;22.389;41.462;-2.570;-0.410;-20.973
4752825.727;18.701;14.789;-5.774;21.458;48.988;0.261;1.751;-15.758
4752825.735;14.864;11.586;-9.649;19.111;45.523;-0.410;1.416;-14.491
4752825.743;12.778;8.866;-13.784;16.466;42.431;-4.098;-0.820;-16.615
4752825.751;14.231;10.543;-14.231;18.254;38.892;-7.972;-5.439;-20.191
4752825.759;23.842;20.415;-5.253;28.908;50.627;-8.866;-5.551;-22.314
4752825.767;32.932;29.989;2.198;38.445;54.874;-4.731;-0.931;-20.526
4752825.775;33.528;28.759;4.843;36.322;58.822;-5.774;-3.763;-20.303
4752825.783;29.914;25.295;0.075;33.304;54.203;-2.757;-2.310;-16.391
4752825.791;28.424;22.501;0.410;30.436;59.381;2.310;2.831;-12.405
4752825.799;22.985;16.466;-6.780;24.401;47.088;1.304;2.980;-15.981
4752825.807;22.575;16.019;-6.296;23.618;49.323;-1.080;0.782;-17.472
4752825.815;23.693;17.844;-4.955;24.959;50.813;-2.123;1.974;-17.025
4752825.823;26.561;20.489;-1.825;27.493;53.532;-3.688;2.310;-18.552
4752825.831;27.679;21.160;-0.633;29.206;57.258;-3.800;2.757;-18.887
4752825.839;27.455;20.228;-1.304;28.051;57.705;-3.017;4.694;-18.328
4752825.866;25.369;18.775;-4.321;26.152;51.670;-2.384;4.284;-18.217
4752825.874;20.713;14.678;-10.282;24.028;44.592;-2.794;1.863;-15.944
4752825.882;18.515;13.486;-10.915;22.538;47.870;-3.390;-1.080;-13.523
4752825.890;17.211;11.176;-11.362;18.887;48.280;-3.166;-2.682;-13.784
4752825.898;20.526;13.970;-7.786;21.532;53.123;-1.267;-0.298;-13.858
4752825.906;23.656;16.503;-5.849;23.581;50.403;-3.725;-0.037;-17.174
4752825.914;27.753;20.154;-2.570;28.722;56.103;-6.519;-1.788;-19.036
4752825.922;25.891;18.515;-6.966;26.152;48.950;-9.164;-2.533;-19.446
4752825.930;23.544;16.689;-9.649;24.177;48.056;-7.264;-1.304;-17.770
4752825.938;17.360;11.139;-15.646;20.377;43.213;-6.035;0.037;-18.664
4752825.946;19.222;12.070;-11.511;19.222;46.194;-4.508;1.416;-17.583
4752825.954;26.450;19.297;-4.247;26.710;54.948;-3.986;0.484;-17.509
4752825.962;32.000;23.954;2.198;31.181;62.920;-8.307;-9.723;-20.936
4752825.970;35.800;26.077;4.582;32.261;62.995;-1.006;-8.233;-13.150
4752825.978;29.132;21.718;-5.029;29.132;51.670;4.880;0.559;-9.015
4752825.986;24.363;16.838;-9.984;26.412;48.988;7.004;7.600;-8.605
4752825.994;26.003;18.887;-6.184;29.169;53.681;6.855;11.623;-7.525
4752826.002;29.095;23.693;-1.714;33.341;56.364;6.147;13.299;-6.258
4752826.010;28.349;24.028;-4.619;34.682;51.558;3.129;9.127;-11.139
4752826.018;26.226;21.681;-6.445;31.069;48.801;-1.043;2.198;-15.683
4752826.026;26.077;20.564;-4.992;28.647;49.695;-1.304;-3.502;-13.895
4752826.034;26.412;19.744;-4.284;26.822;53.421;-2.384;-8.456;-11.362
4752826.042;29.355;21.681;1.565;27.083;58.562;-4.582;-10.692;-10.952
4752826.050;31.330;21.905;4.694;27.530;60.275;-6.035;-8.270;-13.150
4752826.061;28.163;19.483;-0.224;27.269;57.183;-4.508;-3.017;-12.219
4752826.069;23.991;17.174;-5.513;27.977;51.409;-2.421;2.310;-11.809
4752826.077;27.195;21.495;-2.086;34.273;53.905;-1.602;5.811;-13.560
4752826.085;29.095;23.246;-0.931;34.720;54.091;-6.109;1.751;-19.707
4752826.093;27.865;22.501;-2.235;34.869;55.730;-7.972;0.000;-22.091
4752826.101;25.742;19.185;-4.582;31.218;51.744;-8.009;-3.912;-21.160
4752826.109;26.599;19.744;-3.837;28.796;50.180;-8.345;-9.798;-19.670
4752826.117;31.218;24.885;2.272;33.677;55.060;-4.768;-7.525;-14.044
4752826.125;35.278;29.244;5.551;38.520;58.077;3.092;4.396;-6.519
4752826.133;35.688;30.063;6.929;40.345;63.367;12.107;19.707;0.000
4752826.141;33.639;28.610;6.855;37.961;59.567;16.615;27.046;2.310
4752826.149;29.281;23.916;2.943;32.149;55.358;12.890;23.097;-0.224
4752826.157;24.103;16.503;-1.788;26.599;57.332;5.960;11.660;-5.439
4752826.165;10.952;4.657;-14.603;14.268;43.772;-1.229;0.633;-12.331
4752826.173;11.176;6.668;-13.970;14.976;40.866;1.639;0.149;-9.313
4752826.181;16.093;13.113;-7.600;21.271;51.484;3.539;0.373;-6.855
4752826.189;17.509;15.311;-6.109;22.613;51.558;2.645;0.112;-5.774
4752826.197;16.093;12.591;-6.519;21.495;53.197;0.112;1.267;-6.631
4752826.205;18.254;13.262;-2.608;20.787;58.375;-1.602;1.378;-7.711
4752826.213;16.689;12.554;-5.066;19.185;55.246;-3.427;2.570;-9.686
4752826.221;18.068;13.001;-6.109;21.830;54.240;-2.161;5.364;-8.158
4752826.229;21.756;16.503;-4.023;26.077;49.546;0.559;5.364;-8.121
4752826.237;21.495;15.385;-5.290;25.295;51.148;1.416;4.582;-9.276
4752826.245;21.346;14.938;-4.768;24.140;50.999;1.043;2.757;-10.617
4752826.240;25.854;20.564;1.676;30.175;57.966;1.267;0.410;-9.164
4752826.248;26.524;20.266;3.949;30.100;63.851;-3.129;-3.800;-10.878
4752826.256;30.510;24.810;8.047;33.714;66.347;-2.719;-1.639;-10.505
4752826.264;30.883;26.226;7.004;36.284;61.430;-4.955;-0.745;-13.299
4752826.272;29.728;24.773;4.955;34.347;56.475;-7.078;-2.421;-14.231
4752826.280;30.994;25.369;7.860;36.880;62.734;-5.960;-0.224;-13.411
4752826.288;29.206;23.954;10.766;41.053;67.726;-8.009;-0.969;-15.870
4752826.296;39.339;36.918;21.420;54.054;73.053;-8.680;-3.502;-15.944
4752826.304;68.918;66.757;48.950;81.845;92.648;-8.531;-4.806;-14.715
4752826.312;106.320;105.202;83.223;124.015;109.635;-7.227;-4.396;-11.660
4752826.320;167.452;167.824;140.555;189.133;144.169;-0.149;1.378;-5.364
4752826.328;242.144;243.746;208.952;266.396;182.725;10.766;14.491;4.135
4752826.336;306.554;311.956;264.868;337.027;209.846;12.629;18.738;7.711
4752826.344;341.535;347.272;297.241;377.223;233.389;14.119;22.091;9.909
4752826.352;355.393;362.098;310.279;395.812;243.299;16.615;24.065;10.356
4752826.360;350.475;359.416;305.586;395.700;241.213;19.409;24.922;12.778
4752826.368;329.800;342.205;283.681;379.644;225.492;19.930;24.177;11.623
4752826.376;314.079;326.224;269.376;361.428;222.586;24.177;27.083;15.944
4752826.384;289.828;299.998;247.024;331.849;214.316;23.246;28.685;15.646
4752826.392;259.876;268.295;216.439;296.086;192.076;24.624;32.373;17.174
4752826.400;230.782;236.444;188.127;260.584;173.859;29.989;37.067;19.781
4752826.408;210.442;214.428;168.383;235.103;161.864;31.590;38.296;18.589
4752826.416;196.286;199.415;154.562;217.520;157.170;34.980;42.096;19.521
4752826.424;177.398;178.814;136.383;194.982;144.988;35.651;41.015;21.122
4752826.465;153.519;155.196;111.647;168.383;127.293;28.461;32.261;17.285
4752826.473;141.151;142.604;102.594;155.196;128.485;30.920;34.347;21.793
4752826.481;119.992;121.146;81.770;133.291;115.223;29.132;31.106;21.234
4752826.489;100.210;100.844;63.591;109.486;101.589;27.157;27.120;21.495
4752826.497;84.750;85.644;49.360;95.740;90.189;23.097;24.326;17.993
4752826.505;73.612;74.804;42.357;83.148;87.209;17.211;19.632;12.405
4752826.513;67.577;68.471;37.104;75.698;84.899;17.323;19.260;12.219
4752826.521;65.453;65.640;34.645;72.792;82.403;19.781;20.564;13.225
4752826.529;65.640;65.416;36.359;72.122;89.742;23.320;24.065;13.560
4752826.537;66.422;65.714;38.892;73.239;94.958;24.661;26.934;13.560
4752826.545;56.103;57.146;26.822;63.106;85.682;23.842;27.232;11.623
4752826.553;40.531;42.543;10.952;48.988;68.806;17.993;21.458;6.743
4752826.561;33.379;34.422;5.327;41.649;64.932;13.337;16.317;2.086
4752826.569;27.344;29.430;-2.086;36.210;58.636;11.697;15.944;-0.745
4752826.577;20.266;22.613;-8.084;29.467;54.911;9.015;13.858;-1.118
4752826.585;16.615;19.781;-9.723;27.418;51.185;7.413;13.076;-0.410
4752826.593;19.558;23.805;-6.109;30.100;57.556;12.554;19.707;3.651
4752826.601;18.552;21.830;-8.717;28.573;52.601;15.460;22.613;7.339
4752826.609;20.601;23.767;-5.066;30.138;58.711;14.529;20.005;7.972
4752826.617;17.434;21.160;-7.525;27.567;58.189;10.319;14.305;5.625
4752826.625;14.342;17.360;-11.101;22.464;56.736;8.680;12.331;4.396
4752826.633;13.895;16.801;-11.586;22.501;56.513;10.058;14.156;5.029
4752826.641;10.580;13.262;-14.603;20.601;53.421;7.041;10.021;2.868
4752826.649;9.686;12.256;-16.838;18.179;47.237;7.488;10.021;3.986
4752826.690;13.188;14.864;-13.150;20.117;51.260;8.196;11.623;4.396
4752826.698;16.317;18.142;-9.537;24.289;59.903;9.239;15.683;3.837
4752826.706;16.168;17.323;-10.058;23.544;54.985;11.511;18.813;5.290
4752826.714;15.981;15.423;-11.511;20.042;54.799;12.591;20.228;6.892
4752826.722;14.976;14.491;-12.219;19.185;53.421;9.239;16.205;4.731
4752826.730;13.225;12.666;-13.523;18.664;52.415;9.276;14.417;5.811
4752826.738;6.519;7.153;-20.601;13.374;46.417;6.370;11.884;2.831
4752826.746;6.519;8.456;-18.589;15.423;47.833;7.898;13.411;4.247
4752826.754;3.278;5.886;-22.165;12.964;41.798;6.445;11.735;4.061
4752826.762;-3.986;-0.596;-26.412;4.992;43.325;4.694;9.611;2.049
4752826.770;8.978;9.015;-11.697;12.144;58.301;1.267;5.923;0.596
4752826.778;11.250;10.878;-8.456;10.952;61.207;1.639;6.109;0.894
4752826.786;12.890;10.207;-5.923;8.792;62.771;1.341;5.886;0.671
4752826.794;11.101;7.860;-8.307;6.706;61.914;1.565;7.078;-0.596
4752826.802;6.743;4.247;-13.635;3.055;57.854;5.513;10.990;1.118
4752826.810;7.637;3.800;-12.331;2.272;60.163;9.649;14.529;4.061
4752826.818;4.210;0.075;-14.715;-2.533;56.922;5.774;12.107;0.335
4752826.826;5.960;2.310;-14.193;1.192;58.152;7.488;14.491;2.235
4752826.834;4.619;-0.745;-16.131;-0.596;52.862;5.588;12.219;-0.633
4752826.842;8.009;1.416;-12.703;1.639;56.177;6.668;12.107;-0.522
4752826.850;10.543;3.465;-9.239;4.210;63.069;7.227;12.554;2.012
4752826.858;9.537;4.023;-13.150;4.247;56.662;7.227;12.629;4.098
4752826.866;1.825;-2.496;-19.968;-2.831;47.348;6.780;8.978;4.731
4752826.874;-1.006;-5.662;-22.501;-4.955;44.480;8.978;10.133;8.158
4752826.839;-2.161;-6.370;-24.103;-6.184;41.947;12.331;14.640;10.207
4752826.847;-3.502;-9.052;-25.965;-8.419;41.239;15.162;16.689;11.399
4752826.855;-4.210;-10.431;-24.699;-9.015;46.380;14.529;15.274;10.803
4752826.863;-1.378;-7.264;-21.271;-5.625;52.638;15.721;18.775;10.245
4752826.871;-0.186;-5.923;-22.203;-3.539;46.156;12.517;19.334;6.594
4752826.879;-6.147;-10.356;-27.753;-7.972;38.072;6.966;14.789;2.310
4752826.887;-7.413;-12.442;-25.705;-9.947;43.884;3.427;10.878;0.447
4752826.895;-7.562;-13.188;-25.928;-11.437;43.586;1.788;8.196;-0.149
4752826.903;-12.405;-17.993;-32.298;-15.274;32.783;-3.874;2.570;-4.135
4752826.911;-11.697;-17.695;-30.808;-14.268;36.508;-3.576;0.522;-2.123
4752826.919;-12.442;-18.477;-31.367;-16.466;35.986;-1.416;1.080;0.224
4752826.927;-10.952;-17.509;-29.579;-15.572;38.780;3.278;5.551;4.359
4752826.935;-9.723;-15.534;-27.120;-13.709;41.462;5.402;6.929;6.035
4752826.943;-5.364;-11.101;-22.240;-8.792;44.517;7.376;8.754;6.296
4752826.951;-2.459;-7.153;-18.887;-4.657;43.921;8.084;9.947;5.104
4752826.959;-0.522;-4.321;-14.864;-0.745;51.334;7.376;10.990;5.439
4752826.967;-1.974;-6.407;-15.721;-0.596;52.638;5.588;9.611;5.625
4752826.975;-2.347;-7.078;-16.801;-2.123;47.423;4.806;9.760;4.247
4752826.983;-1.192;-5.625;-16.391;-1.602;46.380;8.941;13.970;7.637
4752826.991;-5.402;-9.909;-21.346;-4.806;40.270;7.153;13.448;6.631
4752826.999;-8.754;-13.076;-25.369;-8.009;38.259;2.459;10.580;0.298
4752827.007;-10.841;-14.529;-27.567;-9.239;41.053;-2.533;4.917;-3.651
4752827.015;-13.784;-17.323;-28.908;-12.219;37.625;-5.849;-1.453;-5.327
4752827.023;-13.933;-17.770;-29.206;-14.119;35.465;-6.221;-2.682;-4.210
4752826.989;-10.617;-14.976;-26.152;-11.809;39.414;-4.582;-1.565;-2.533
4752826.997;-9.015;-14.380;-21.830;-11.437;42.208;-8.829;-4.284;-6.482
4752827.005;-9.127;-13.933;-23.209;-11.064;42.729;-8.792;-2.347;-5.551
4752827.013;-8.084;-12.442;-22.613;-8.754;42.617;-7.749;-2.310;-4.135
4752827.021;-5.141;-9.909;-18.589;-7.562;46.417;-5.849;-0.969;-3.204
4752827.029;-5.960;-10.878;-20.713;-8.531;42.841;-5.029;2.645;-3.353
4752827.037;-6.370;-12.033;-19.968;-10.058;42.506;-2.198;5.476;-1.788
4752827.045;-5.439;-11.511;-19.781;-10.021;44.703;-2.459;4.396;-2.012
4752827.053;-6.296;-10.096;-21.756;-8.494;42.133;-4.023;1.900;-2.943
4752827.061;-5.737;-9.462;-20.042;-8.047;42.059;-3.278;1.937;-2.757
4752827.069;-7.749;-11.921;-21.569;-9.313;43.027;-6.445;0.112;-4.843
4752827.077;-8.121;-11.288;-22.016;-8.345;40.755;-7.786;0.000;-5.923
4752827.085;-6.147;-10.356;-21.085;-7.711;39.041;-5.178;0.149;-5.290
4752827.093;-5.625;-9.798;-19.446;-5.960;41.351;-2.645;0.037;-5.253
4752827.101;-5.215;-9.425;-19.856;-4.955;42.543;0.410;0.857;-2.123
4752827.109;-9.201;-12.368;-24.550;-8.568;36.806;0.559;0.633;-1.416
4752827.117;-9.425;-12.480;-24.550;-11.250;36.769;4.694;4.992;2.570
4752827.125;-8.978;-12.219;-22.799;-9.052;39.525;3.651;6.892;3.353
4752827.133;-10.356;-14.342;-26.003;-11.064;29.132;0.149;5.923;0.373
4752827.141;-16.056;-21.011;-30.212;-17.211;32.447;-2.198;2.235;-1.118
4752827.149;-20.117;-24.363;-34.831;-19.781;25.555;-5.923;-2.161;-2.943
4752827.157;-19.334;-24.214;-32.224;-20.713;27.306;-8.158;-4.321;-5.811
4752827.165;-15.832;-20.973;-28.647;-17.770;32.149;-9.947;-4.396;-6.221
4752827.173;-12.256;-17.174;-27.195;-14.007;34.161;-10.654;-6.109;-8.270
4752827.201;-12.256;-16.950;-29.914;-14.752;24.959;-11.958;-11.250;-10.394
4752827.209;-10.096;-14.454;-27.604;-11.474;30.808;-13.411;-12.442;-9.611
4752827.217;-8.866;-12.442;-26.897;-8.345;31.888;-11.101;-8.792;-7.302
4752827.225;-11.288;-14.976;-28.312;-10.356;30.845;-10.133;-6.072;-6.631
4752827.233;-13.411;-17.844;-29.542;-13.784;29.542;-12.182;-8.605;-7.562
4752827.241;-12.368;-17.285;-28.908;-12.442;30.175;-9.350;-6.482;-3.614
4752827.249;-17.285;-21.048;-33.565;-15.311;22.538;-12.703;-9.388;-6.892
4752827.257;-16.578;-19.260;-30.324;-13.523;26.636;-11.623;-8.084;-6.966
4752827.265;-17.583;-20.936;-30.547;-15.311;28.610;-7.488;-3.539;-3.278
4752827.273;-24.140;-29.206;-36.582;-24.997;23.134;-4.880;-2.272;-1.565
4752827.281;-15.832;-16.168;-31.814;-8.680;24.214;-2.272;-0.410;0.931
4752827.289;-14.566;-14.156;-32.447;-4.396;24.065;-4.545;-2.049;-1.639
4752827.297;-12.852;-12.182;-31.702;-1.490;23.283;-6.445;-1.863;-1.639
4752827.305;-10.319;-10.319;-30.100;1.416;23.060;-12.591;-4.731;-7.823
4752827.313;-20.824;-19.930;-39.078;-9.313;16.168;-11.884;-0.447;-8.494
4752827.321;-21.644;-21.346;-38.780;-10.952;18.589;-7.674;5.513;-1.602
4752827.329;-25.816;-24.810;-42.655;-14.901;20.675;-10.543;5.439;-1.378
4752827.337;-30.883;-28.461;-46.939;-19.670;23.432;-14.529;-6.817;-1.006
4752827.345;-35.390;-31.292;-53.160;-22.314;13.970;-15.050;-18.030;1.602
4752827.353;-32.522;-29.095;-49.882;-20.191;17.546;-12.852;-17.695;0.559
4752827.361;-34.124;-30.398;-53.272;-20.713;10.319;-14.193;-15.013;-7.525
4752827.369;-35.353;-30.212;-53.197;-21.271;16.578;-8.829;-9.909;-3.763
4752827.377;-37.439;-31.292;-53.830;-21.905;16.466;-2.943;-3.390;-0.894
4752827.385;-39.786;-33.826;-54.352;-24.438;15.236;1.080;0.000;3.651
4752827.395;-39.861;-33.863;-54.911;-25.183;12.442;0.671;-2.719;4.843
4752827.403;-37.141;-31.255;-52.191;-23.656;13.672;-1.006;-5.402;3.427
4752827.411;-33.043;-26.636;-47.758;-18.217;16.652;3.316;2.384;6.706
4752827.419;-31.814;-24.959;-43.958;-18.142;24.512;7.227;7.786;9.425
4752827.427;-28.908;-22.948;-41.984;-16.131;26.859;11.697;16.838;12.107
4752827.435;-30.659;-25.705;-43.735;-17.472;23.171;11.213;16.913;11.809
4752827.443;-33.192;-29.355;-44.592;-20.564;21.309;11.176;12.703;13.337
4752827.451;-31.665;-29.020;-41.388;-20.601;24.252;8.047;8.903;12.703
4752827.459;-34.422;-32.000;-44.107;-24.661;23.618;2.086;1.192;6.743
4752827.467;-38.035;-34.757;-48.168;-27.306;20.638;-1.676;1.453;2.421
4752827.475;-37.700;-34.161;-48.652;-26.897;19.632;-4.210;-0.671;0.112
4752827.483;-39.451;-37.849;-48.652;-30.994;22.314;-6.035;-5.737;-0.447
4752827.491;-41.462;-39.786;-51.893;-32.149;20.079;-7.898;-9.574;-1.527
4752827.499;-35.204;-33.788;-46.715;-27.157;19.446;-4.023;-6.333;2.384
4752827.507;-35.278;-34.422;-47.684;-28.536;20.862;-5.104;-7.972;-0.186
4752827.515;-33.602;-32.745;-46.939;-26.226;21.085;-6.109;-8.307;-0.857
4752827.523;-27.232;-27.157;-39.898;-20.042;31.367;-2.831;-3.837;2.645
4752827.531;-25.854;-25.444;-38.259;-17.844;28.647;-5.141;-4.470;-0.969
4752827.539;-17.993;-17.546;-29.095;-11.474;36.024;-1.676;-0.559;1.453
4752827.547;-18.887;-20.079;-30.138;-13.635;35.651;-4.135;-7.190;1.900
4752827.555;-27.306;-27.791;-39.861;-21.160;26.263;-9.947;-12.405;-4.135
4752827.563;-21.607;-21.346;-32.224;-13.709;35.278;-4.023;-2.980;-0.037
4752827.571;-23.916;-23.991;-34.049;-16.391;30.808;-4.359;-1.788;0.261
4752827.579;-28.126;-26.710;-37.849;-20.377;26.375;-6.892;-2.980;-3.092
4752827.605;-31.404;-30.063;-40.308;-23.283;24.028;-9.313;-4.210;-4.768
4752827.613;-35.614;-34.757;-44.219;-26.822;20.824;-12.368;-7.860;-7.041
4752827.621;-36.955;-36.061;-44.405;-28.238;25.220;-11.399;-11.511;-6.482
4752827.629;-35.949;-34.943;-43.996;-28.573;20.154;-11.176;-10.841;-5.066
4752827.637;-29.951;-29.914;-38.631;-23.842;24.326;-8.792;-6.631;-3.278
4752827.645;-22.873;-21.718;-33.751;-14.678;31.404;-2.123;3.017;2.719
4752827.653;-17.211;-14.827;-26.375;-9.537;37.029;2.831;7.488;7.711
4752827.661;-19.185;-16.503;-29.951;-12.293;32.261;5.886;10.580;8.270
4752827.669;-19.856;-18.962;-31.590;-16.205;33.490;3.986;7.898;5.253
4752827.677;-23.916;-23.097;-33.975;-21.383;32.522;2.533;5.327;4.657
4752827.685;-30.138;-28.014;-39.041;-24.885;27.120;0.596;4.396;2.049
4752827.693;-32.671;-30.510;-41.276;-27.344;26.040;0.112;2.682;1.378
4752827.701;-31.143;-30.361;-39.712;-27.902;24.512;0.447;1.416;2.906
4752827.709;-30.473;-31.032;-38.706;-28.051;26.897;-4.359;-3.837;0.559
4752827.717;-29.504;-28.759;-39.674;-26.412;31.255;-9.909;-8.978;-4.470
4752827.725;-27.008;-27.381;-36.880;-25.257;28.796;-6.147;-5.029;-0.782
4752827.733;-29.951;-30.026;-39.861;-27.567;22.314;-4.955;-4.321;-0.224
4752827.741;-31.181;-31.479;-39.414;-29.169;24.624;-3.502;-3.874;-0.373
4752827.749;-31.628;-31.218;-38.929;-28.722;27.642;-2.645;-4.098;-0.969
4752827.757;-26.375;-25.854;-32.671;-23.879;32.894;2.384;0.298;2.198
4752827.765;-28.349;-28.983;-37.141;-25.965;29.020;1.825;0.969;1.267
4752827.773;-24.699;-26.263;-31.851;-23.022;35.204;-1.602;-1.490;-1.229
4752827.781;-22.799;-24.363;-31.255;-20.117;31.143;-1.974;-1.267;-0.782
4752827.789;-23.097;-24.065;-30.734;-20.079;33.416;-3.651;-1.229;-0.969
4752827.741;-21.979;-20.415;-31.032;-16.503;28.424;-1.453;1.527;1.267
4752827.749;-21.905;-19.632;-31.963;-14.901;26.338;-2.906;-0.037;-0.484
4752827.757;-25.369;-22.277;-35.577;-15.460;26.971;-3.763;-2.310;-1.378
4752827.765;-22.575;-20.042;-31.330;-13.188;32.559;-3.763;-2.980;0.149
4752827.773;-19.930;-19.297;-29.281;-12.293;30.920;-5.327;-3.912;-3.316
4752827.781;-16.876;-15.199;-26.822;-9.686;29.653;-4.694;-3.688;-4.582
4752827.789;-8.233;-5.439;-18.664;-0.112;37.327;-4.694;-3.539;-2.272
4752827.797;-5.439;-3.390;-16.242;1.788;38.035;-7.637;-5.029;-5.066
4752827.805;-6.631;-7.302;-16.876;-3.427;39.265;-6.631;-2.906;-5.960
4752827.813;-13.225;-13.076;-24.028;-7.674;34.273;-6.407;-1.453;-6.296
4752827.821;-14.380;-14.380;-22.948;-8.456;34.124;-2.421;3.204;-1.900
4752827.829;-18.068;-20.042;-25.183;-14.380;31.739;-3.874;0.931;-2.086
4752827.837;-24.736;-25.965;-30.696;-21.197;26.077;-8.866;-7.972;-4.880
4752827.845;-22.650;-23.060;-27.753;-18.328;30.696;-8.084;-9.649;-2.496
4752827.853;-22.799;-23.693;-28.387;-17.993;27.716;-6.296;-8.345;-1.155
4752827.861;-22.948;-23.693;-28.834;-17.658;29.616;-4.247;-8.047;0.335
4752827.869;-28.796;-29.504;-36.322;-22.985;19.483;-9.611;-14.715;-4.210
4752827.877;-31.330;-33.081;-37.290;-27.418;20.675;-12.033;-16.987;-7.041
4752827.885;-25.854;-27.865;-32.336;-21.867;22.724;-12.405;-15.609;-7.786
4752827.893;-21.793;-23.432;-27.567;-18.999;28.089;-13.150;-15.683;-7.562
4752827.901;-21.011;-22.203;-27.604;-19.111;27.753;-13.970;-16.242;-8.978
4752827.909;-22.538;-23.358;-29.914;-19.632;24.438;-12.144;-15.534;-6.557
4752827.917;-22.985;-22.911;-30.696;-17.434;27.120;-12.964;-15.497;-6.519
4752827.925;-15.944;-17.174;-24.065;-11.064;36.731;-10.431;-11.958;-3.278
4752827.906;-15.348;-17.248;-23.097;-9.947;35.949;-12.256;-12.964;-5.253
4752827.914;-14.305;-15.832;-22.575;-8.680;35.502;-13.709;-13.560;-7.302
4752827.922;-12.629;-14.529;-20.638;-7.302;40.978;-14.827;-12.666;-8.717
4752827.930;-14.119;-14.268;-25.444;-7.041;30.622;-16.987;-11.139;-12.666
4752827.938;-14.603;-14.566;-22.985;-7.041;35.651;-15.125;-6.072;-10.692
4752827.946;-17.509;-18.924;-24.997;-9.574;33.230;-15.795;-5.625;-10.654
4752827.954;-18.366;-19.148;-26.673;-10.915;32.000;-15.311;-3.614;-10.878
4752827.962;-21.122;-20.936;-28.275;-12.033;32.559;-18.217;-5.402;-12.070
4752827.970;-23.060;-22.128;-32.149;-11.176;26.971;-19.148;-6.147;-12.256
4752827.978;-25.257;-24.550;-34.198;-12.629;22.799;-16.540;-5.625;-10.841
4752827.986;-28.461;-29.840;-37.141;-18.999;21.793;-16.056;-8.792;-9.388
4752827.994;-31.143;-30.957;-40.084;-21.458;16.503;-16.466;-10.505;-9.835
4752828.002;-28.424;-28.834;-35.986;-20.228;23.395;-18.589;-16.689;-10.058
4752828.010;-26.822;-28.051;-34.012;-19.930;27.828;-20.266;-21.011;-10.990
4752828.018;-26.934;-29.393;-35.316;-21.495;24.550;-20.862;-23.656;-10.878
4752828.026;-27.604;-30.734;-35.577;-20.675;22.389;-21.048;-22.165;-11.437
4752828.034;-23.916;-25.332;-31.739;-16.727;26.599;-19.446;-20.601;-13.039
4752828.042;-21.830;-22.538;-30.100;-14.417;28.796;-20.675;-19.856;-14.082
4752828.050;-23.618;-23.358;-30.734;-15.274;31.590;-27.642;-23.469;-20.117
4752828.058;-21.420;-20.564;-30.063;-11.213;24.624;-26.599;-22.203;-20.750
4752828.066;-18.999;-19.260;-28.238;-8.307;29.095;-26.003;-22.240;-19.707
4752828.074;-18.291;-17.323;-25.667;-6.966;31.963;-22.501;-18.068;-16.540
4752828.082;-22.799;-22.054;-29.430;-10.990;26.077;-23.879;-19.968;-18.142
4752828.090;-20.117;-19.409;-27.120;-10.282;27.604;-19.707;-18.217;-14.305
4752828.132;-15.721;-14.678;-23.879;-7.115;29.057;-14.044;-15.013;-7.823
4752828.140;-17.919;-15.683;-26.189;-7.637;26.934;-10.356;-10.952;-5.066
4752828.148;-21.793;-18.477;-27.679;-10.580;25.220;-4.806;-5.849;-1.974
4752828.156;-23.954;-23.060;-29.020;-16.168;26.189;-4.917;-6.966;-4.396
4752828.164;-23.730;-24.065;-29.914;-16.466;24.512;-6.706;-9.313;-9.239
4752828.172;-29.728;-28.834;-36.620;-20.750;16.391;-11.064;-13.746;-12.442
4752828.180;-32.000;-31.665;-38.706;-23.097;15.758;-14.938;-16.056;-11.064
4752828.188;-25.071;-24.624;-33.565;-16.205;23.097;-13.933;-15.646;-8.084
4752828.196;-24.438;-25.518;-32.522;-17.919;23.730;-12.852;-15.795;-5.625
4752828.204;-24.922;-25.854;-33.416;-17.248;20.228;-10.058;-14.752;-3.166
4752828.212;-22.016;-21.607;-30.473;-13.337;23.581;-4.657;-11.250;0.298
4752828.220;-17.844;-16.652;-26.003;-8.382;28.983;-3.017;-9.015;0.522
4752828.228;-12.554;-11.884;-20.750;-3.874;32.000;-1.453;-4.955;-0.149
4752828.236;-10.207;-10.692;-18.105;-4.061;35.018;-3.278;-3.204;-2.868
4752828.244;-12.852;-12.740;-21.048;-6.706;29.132;-8.121;-9.127;-6.706
4752828.252;-10.915;-10.580;-19.707;-3.800;30.510;-8.531;-10.505;-6.594
4752828.260;-5.923;-6.184;-14.044;1.304;38.072;-4.172;-8.270;-1.602
4752828.268;-9.350;-8.419;-17.025;-1.714;35.912;-6.706;-11.995;-2.645
4752828.276;-17.062;-16.615;-25.444;-10.766;25.705;-8.829;-13.895;-0.894
4752828.284;-16.801;-17.434;-23.171;-12.591;30.696;-7.227;-12.740;0.522
4752828.292;-15.572;-16.429;-22.016;-11.921;30.398;-3.614;-10.133;1.714
4752828.300;-17.211;-18.626;-23.805;-12.331;33.379;-6.668;-11.064;-1.341
4752828.308;-16.838;-17.025;-24.624;-10.803;29.616;-6.370;-7.674;-0.671
4752828.316;-16.987;-15.981;-28.349;-10.468;23.581;-5.625;-7.749;-1.527
4752828.357;-15.348;-13.746;-27.083;-7.525;28.275;-3.576;-5.327;-0.112
4752828.365;-11.213;-10.207;-20.936;-3.763;36.545;-0.671;-4.433;2.682
4752828.373;-12.442;-12.703;-22.613;-8.084;32.671;-2.384;-9.760;2.123
4752828.381;-14.529;-17.025;-25.518;-13.486;28.871;-5.253;-14.082;-0.112
4752828.389;-16.056;-18.813;-25.965;-13.970;31.777;-5.551;-13.560;0.708
4752828.397;-16.354;-17.211;-25.332;-12.293;32.447;-4.210;-10.505;1.267
4752828.405;-15.981;-17.546;-26.450;-12.815;32.857;-4.396;-9.425;1.490
4752828.413;-13.076;-16.056;-20.042;-11.958;45.486;-4.917;-11.735;3.465
4752828.421;-14.342;-16.093;-22.389;-12.852;38.445;-4.508;-12.890;3.912
4752828.429;-17.658;-18.664;-26.561;-17.360;29.691;-2.943;-14.119;5.253
4752828.437;-16.838;-16.764;-24.475;-15.981;32.745;-2.943;-13.337;4.433
4752828.445;-17.695;-17.732;-25.146;-15.721;34.943;-5.551;-12.331;0.373
4752828.453;-20.899;-22.314;-28.051;-19.707;34.049;-8.754;-14.566;-1.825
4752828.461;-19.260;-19.409;-27.791;-17.285;34.049;-5.141;-10.878;2.608
4752828.469;-20.415;-20.452;-28.946;-18.179;36.545;-5.662;-10.654;0.000
4752828.477;-20.899;-22.911;-29.169;-20.564;37.998;-5.402;-10.505;-2.049
4752828.485;-18.775;-22.165;-26.822;-18.962;41.537;-3.576;-9.127;-1.341
4752828.493;-17.136;-19.930;-27.269;-16.391;38.929;-3.502;-11.064;0.037
4752828.501;-15.050;-17.621;-25.779;-14.901;40.382;-8.009;-15.385;-2.533
4752828.509;-10.431;-13.746;-19.632;-11.623;45.449;-6.966;-13.672;-0.782
4752828.517;-8.792;-11.884;-18.142;-10.654;48.280;-4.433;-13.635;1.267
4752828.525;-12.703;-16.540;-20.899;-15.385;49.137;-4.955;-15.572;1.080
4752828.533;-17.323;-19.595;-24.214;-17.323;43.996;-6.407;-16.540;-0.931
4752828.541;-24.177;-24.550;-31.218;-23.693;35.837;-6.482;-15.609;-2.608
4752828.504;-21.681;-22.128;-27.902;-20.824;40.643;-5.104;-11.958;-1.453
4752828.512;-21.532;-22.687;-27.306;-21.495;37.923;-6.557;-12.405;-2.235
4752828.520;-21.756;-22.426;-28.536;-21.532;34.831;-6.258;-14.044;-1.118
4752828.528;-15.087;-16.540;-21.383;-16.280;43.958;-4.470;-15.311;1.192
4752828.536;-14.566;-17.360;-19.707;-18.626;45.709;-4.768;-18.142;1.565
4752828.544;-17.509;-20.824;-22.836;-20.862;42.245;-8.047;-19.595;-2.943
4752828.552;-17.099;-20.266;-20.601;-18.366;45.598;-10.170;-18.440;-6.929
4752828.560;-18.626;-21.718;-23.395;-19.185;39.823;-10.803;-17.323;-8.717
4752828.568;-25.257;-28.573;-32.373;-25.593;26.040;-11.623;-18.068;-9.388
4752828.576;-25.518;-28.312;-30.175;-25.555;34.533;-7.451;-13.150;-3.427
4752828.584;-23.134;-26.487;-28.424;-24.065;37.029;-1.155;-7.749;2.570
4752828.592;-27.418;-30.436;-32.149;-28.014;32.559;3.241;-7.823;5.625
4752828.600;-29.132;-33.379;-33.751;-32.522;29.206;4.359;-8.121;5.625
4752828.608;-27.269;-32.634;-29.951;-31.255;33.639;4.359;-7.339;5.588
4752828.616;-27.008;-29.206;-32.224;-27.604;29.132;2.645;-8.419;4.470
4752828.624;-19.595;-21.234;-23.581;-19.260;39.116;1.863;-8.009;4.359
4752828.632;-15.013;-16.242;-18.589;-14.529;42.543;1.267;-7.153;3.912
4752828.640;-18.738;-19.334;-22.016;-18.217;40.866;0.447;-7.264;1.192
4752828.648;-24.810;-25.146;-27.828;-24.475;34.980;-1.527;-9.313;-1.192
4752828.656;-19.111;-20.750;-22.165;-20.266;39.339;4.880;-2.868;3.241
4752828.664;-17.658;-19.334;-20.489;-18.552;42.208;4.247;-2.459;3.539
4752828.672;-19.744;-20.787;-21.309;-20.191;47.497;0.633;-5.513;0.708
4752828.680;-23.097;-23.618;-28.089;-22.538;34.310;-3.017;-8.680;-1.863
4752828.688;-23.879;-23.842;-30.771;-21.979;30.100;-6.221;-10.543;-2.943
4752828.659;-22.277;-22.203;-25.816;-22.613;37.327;-8.866;-13.411;-7.227
4752828.667;-22.464;-23.060;-25.034;-23.507;39.376;-8.158;-13.560;-6.482
4752828.675;-22.799;-20.899;-25.071;-22.203;38.780;-5.551;-11.586;-4.247
4752828.683;-24.363;-22.650;-27.716;-21.644;32.075;-7.264;-12.927;-4.992
4752828.691;-22.762;-20.862;-24.848;-19.222;35.502;-7.115;-14.454;-5.066
4752828.699;-20.973;-18.664;-22.799;-19.073;34.794;-3.688;-12.703;-3.129
4752828.707;-21.458;-20.713;-25.965;-21.495;29.504;-3.688;-12.815;-2.049
4752828.715;-20.452;-20.154;-24.550;-19.707;31.590;-0.931;-10.394;0.633
4752828.723;-22.352;-23.060;-24.177;-22.799;34.682;-3.465;-11.846;-1.676
4752828.731;-22.724;-23.171;-23.730;-23.283;37.327;-4.210;-11.772;-2.049
4752828.739;-22.054;-22.203;-26.338;-23.171;27.344;-2.868;-9.872;-1.267
4752828.747;-22.538;-21.607;-26.152;-21.756;28.946;-1.080;-6.855;-2.049
4752828.755;-19.670;-18.552;-21.346;-19.111;32.522;1.937;-5.849;-0.522
4752828.763;-21.197;-20.824;-23.209;-21.346;31.181;-0.671;-9.686;-0.782
4752828.771;-20.079;-20.415;-22.538;-19.558;33.043;-6.631;-13.858;-4.172
4752828.779;-19.483;-19.521;-22.016;-17.509;31.441;-9.649;-16.131;-5.029
4752828.787;-20.638;-21.830;-23.283;-20.489;29.840;-6.668;-14.603;-1.825
4752828.795;-30.212;-29.281;-33.528;-27.604;18.962;-4.806;-15.162;-1.341
4752828.803;-8.829;-7.711;-13.076;-6.296;36.731;-4.396;-15.646;-1.080
4752828.811;-1.341;-1.714;-9.127;-0.857;34.235;-6.594;-16.727;-3.725
4752828.819;14.082;13.858;5.737;14.715;45.821;-0.857;-11.176;-0.782
4752828.827;26.226;24.103;17.360;25.332;54.054;5.960;-4.955;3.688
4752828.835;30.175;28.610;18.328;29.318;49.248;5.439;-6.072;3.390
4752828.843;31.739;29.095;20.750;29.616;52.936;7.190;-2.757;6.743
4752828.819;26.859;24.885;16.429;24.848;50.664;5.737;-3.502;5.811
4752828.827;17.919;17.844;7.376;18.403;39.525;1.490;-8.084;2.570
4752828.835;17.695;16.093;8.605;16.242;44.070;4.172;-6.147;6.892
4752828.843;15.274;14.827;5.774;16.168;39.265;4.470;-7.302;5.811
4752828.851;12.368;11.995;1.416;14.603;33.081;2.310;-8.717;2.719
4752828.859;13.076;11.548;1.155;14.417;33.490;0.000;-8.121;0.559
4752828.867;14.454;15.013;4.806;18.626;37.290;6.147;-1.974;5.253
4752828.875;13.709;15.534;5.253;19.372;36.396;11.027;2.645;9.313
4752828.883;10.021;14.007;0.782;18.366;32.261;10.990;1.602;7.004
4752828.891;10.394;12.927;2.533;18.179;33.230;13.597;0.596;7.637
4752828.899;13.933;16.503;6.258;22.091;36.582;19.260;6.668;11.809
4752828.907;18.552;20.564;12.256;25.406;46.492;21.942;11.399;14.976
4752828.915;18.850;19.185;11.623;24.103;39.637;18.999;11.511;14.454
4752828.923;23.693;23.879;15.013;27.902;41.090;18.440;12.740;15.236
4752828.931;23.656;23.469;16.801;27.567;46.752;14.566;8.903;11.176
4752828.939;22.799;23.581;14.827;28.349;44.033;14.082;9.276;11.697
4752828.947;21.011;22.389;13.709;25.183;42.878;12.964;8.754;8.978
4752828.955;22.314;22.613;16.168;25.406;45.933;13.039;7.227;8.941
4752828.963;18.515;19.148;10.282;23.954;35.800;9.835;3.874;7.860
4752828.971;17.993;17.732;9.760;21.532;35.651;11.735;3.837;11.064
4752828.979;16.503;16.429;9.201;19.744;40.047;9.425;1.565;10.356
4752828.987;19.222;20.228;10.505;24.177;37.216;10.766;3.576;11.735
4752828.995;16.317;17.211;7.153;21.458;31.702;9.649;1.602;9.835
4752829.003;13.486;14.007;4.917;17.583;32.261;6.333;0.186;7.302
4752828.960;13.076;12.480;5.364;15.609;31.553;3.949;-2.384;7.525
4752828.968;11.548;10.207;3.204;15.199;26.077;3.017;-4.992;6.035
4752828.976;15.199;14.007;9.388;20.303;37.998;6.668;-3.651;7.823
4752828.984;16.540;15.236;9.723;22.091;33.975;8.345;-2.123;7.562
4752828.992;14.715;14.640;8.084;20.899;31.330;7.339;-1.937;7.227
4752829.000;11.586;12.815;5.625;19.185;30.063;7.674;1.192;7.711
4752829.008;8.307;10.617;0.782;17.695;24.065;13.821;8.345;11.660
4752829.016;1.118;4.508;-6.966;10.505;16.764;18.291;12.442;13.597
4752829.024;15.981;14.827;11.437;17.174;39.227;14.529;9.052;10.505
4752829.032;14.156;11.586;13.150;11.139;44.033;9.462;3.651;8.233
4752829.040;7.860;2.980;8.978;1.490;41.313;4.433;-1.043;4.768
4752829.048;6.296;1.080;8.196;-1.602;41.947;1.490;-2.980;3.688
4752829.056;2.049;-2.347;3.539;-4.619;38.855;2.943;-1.639;5.551
4752829.064;-2.459;-6.258;-0.633;-9.052;35.204;3.204;-2.421;6.817
4752829.072;-2.906;-4.806;-1.639;-6.817;36.769;7.749;2.831;10.654
4752829.080;-5.402;-6.892;-4.135;-9.350;33.565;9.164;1.974;10.990
4752829.088;-13.374;-14.603;-12.666;-17.099;21.420;1.267;-6.445;3.278
4752829.096;-16.131;-17.770;-13.523;-21.942;17.844;-2.384;-11.064;-0.075
4752829.104;-15.125;-19.148;-8.568;-23.209;22.501;-7.115;-15.646;-3.949
4752829.112;-12.815;-17.136;-6.445;-22.575;25.779;-8.270;-16.578;-2.049
4752829.120;-8.494;-13.448;-0.857;-19.409;33.081;-7.562;-18.217;-0.149
4752829.128;-9.388;-15.795;-2.533;-21.532;28.014;-8.829;-20.564;-0.335
4752829.136;-10.543;-17.621;-4.247;-22.985;23.581;-10.692;-21.718;-1.304
4752829.144;-6.929;-14.380;0.410;-18.664;31.181;-8.717;-18.962;-0.075
4752829.151;-2.682;-7.749;4.284;-11.399;32.894;-8.978;-14.342;-2.794
4752829.159;-3.092;-6.966;2.161;-11.064;33.043;-11.437;-12.405;-6.706
4752829.167;0.522;-3.725;6.594;-7.264;35.651;-13.858;-14.082;-7.711
4752829.175;7.115;2.570;13.225;-0.037;40.568;-12.144;-11.697;-5.811
4752829.183;7.078;3.017;13.337;0.596;41.910;-14.119;-13.225;-7.711
4752829.191;6.072;3.465;10.133;0.484;33.714;-11.325;-9.909;-5.588
4752829.199;6.594;1.937;12.293;-2.049;39.786;-11.139;-8.680;-4.806
4752829.207;5.439;-0.596;11.139;-4.657;44.256;-16.764;-18.142;-10.878
4752829.215;2.347;-1.565;5.364;-3.129;30.212;-16.168;-15.013;-11.027
4752829.223;-1.900;-5.700;3.651;-7.339;30.175;-13.858;-13.635;-9.164
4752829.231;-3.278;-5.290;4.061;-8.196;32.783;-12.703;-14.268;-7.451
4752829.239;-1.378;-2.719;3.651;-4.806;26.897;-9.052;-9.201;-5.737
4752829.247;-0.261;-1.602;5.774;-2.384;32.187;-7.451;-9.574;-3.539
4752829.255;1.639;-0.261;9.015;-2.347;35.763;-7.413;-9.611;-0.708
4752829.263;0.745;-2.161;6.035;-4.917;33.490;-9.388;-11.213;0.224
4752829.271;3.092;-0.745;7.711;-4.657;37.476;-8.419;-11.846;1.341
4752829.279;2.384;0.596;6.817;-3.055;32.708;-8.270;-12.219;2.421
4752829.287;2.794;-0.298;8.680;-4.321;37.551;-8.419;-11.511;3.204
4752829.295;2.906;-2.012;9.313;-7.562;37.812;-8.680;-9.462;1.118
4752829.303;6.631;0.373;12.629;-5.513;41.574;-8.307;-8.047;0.261
4752829.311;7.860;2.123;13.299;-3.800;37.663;-8.792;-8.494;-1.378
4752829.319;7.898;2.459;13.672;-4.545;40.382;-6.407;-6.184;-1.527
4752829.327;10.766;6.631;16.093;-0.522;43.549;-3.465;-1.676;0.894
4752829.335;11.027;7.339;13.150;-0.224;38.072;-1.751;-0.261;1.267
4752829.330;10.207;4.210;12.703;-3.465;39.972;-3.614;-3.576;-0.149
4752829.338;10.319;4.508;11.101;-3.427;37.141;-6.631;-8.941;0.037
4752829.346;10.133;5.178;10.170;-2.868;36.545;-7.078;-10.692;-0.596
4752829.354;10.282;4.284;10.096;-4.061;36.694;-9.537;-12.144;-1.118
4752829.362;10.170;4.210;9.984;-4.508;36.545;-11.399;-14.007;-3.465
4752829.370;10.096;3.837;12.219;-3.353;40.866;-10.021;-13.150;-4.582
4752829.378;8.941;3.688;9.611;-2.570;36.620;-8.680;-12.703;-4.023
4752829.386;6.892;0.000;6.370;-8.084;32.671;-8.866;-15.423;-4.321
4752829.394;5.774;-2.123;4.917;-10.580;29.616;-10.505;-18.291;-4.657
4752829.402;8.643;2.161;8.419;-7.488;31.330;-10.133;-17.323;-3.316
4752829.410;9.835;3.316;10.021;-5.439;37.029;-10.319;-15.087;-3.725
4752829.418;8.643;2.570;7.935;-5.625;35.353;-9.239;-13.225;-4.545
4752829.426;10.431;3.614;9.909;-5.774;34.161;-9.760;-12.293;-6.407
4752829.434;15.236;8.084;15.423;-1.714;39.116;-9.090;-10.133;-4.619
4752829.442;15.907;9.499;15.646;-0.149;35.912;-8.084;-10.803;-3.614
4752829.450;15.572;7.339;16.540;-1.937;41.462;-8.494;-13.486;-4.359
4752829.458;13.746;6.258;13.299;-3.539;37.290;-6.892;-13.188;-2.719
4752829.466;14.082;5.551;15.497;-5.513;37.737;-7.041;-13.672;-3.725
4752829.474;14.305;8.233;15.572;-1.751;35.092;-6.817;-11.921;-4.023
4752829.482;15.534;10.803;16.354;-0.335;35.688;-6.594;-13.970;-2.645
4752829.490;15.236;7.972;16.391;-3.502;37.923;-8.568;-15.236;-5.253
4752829.498;14.342;7.525;15.534;-1.378;33.267;-9.276;-15.274;-7.190
4752829.506;13.411;8.829;14.827;0.112;31.702;-8.196;-14.044;-8.158
4752829.514;18.664;13.933;19.930;6.147;36.694;-4.768;-9.127;-5.364
4752829.616;16.391;9.835;19.148;2.310;34.049;-6.966;-8.307;-7.041
4752829.624;12.815;6.370;15.944;0.931;37.253;-8.829;-7.488;-8.680
4752829.632;9.686;4.880;14.566;-2.347;31.702;-9.164;-9.164;-7.264
4752829.640;5.104;-0.782;8.941;-8.643;21.160;-10.170;-13.411;-4.992
4752829.648;11.139;3.874;16.503;-4.061;31.777;-6.445;-11.101;-0.708
4752829.656;14.864;7.823;18.403;-0.410;33.043;-4.806;-9.462;-0.373
4752829.664;14.268;6.333;17.509;-2.161;31.777;-9.760;-16.168;-5.104
4752829.672;14.119;5.700;15.870;-3.502;25.518;-11.101;-18.738;-7.451
4752829.680;14.938;6.184;16.354;-3.614;29.132;-10.878;-18.254;-7.376
4752829.688;14.976;6.035;15.646;-4.470;28.946;-13.076;-19.409;-8.717
4752829.696;17.956;7.935;17.658;-3.278;28.312;-12.890;-20.750;-8.568
4752829.704;20.452;9.611;19.483;-1.118;32.112;-9.462;-18.738;-8.233
4752829.712;20.564;10.617;20.079;-0.037;33.155;-6.035;-12.629;-5.774
4752829.720;20.005;10.058;18.589;0.820;29.728;-3.502;-8.047;-3.204
4752829.728;18.701;8.084;14.603;-0.373;20.787;-5.066;-7.041;-3.874
4752829.736;19.819;9.015;17.732;-0.149;29.095;-4.694;-7.264;-2.943
4752829.744;20.117;7.637;19.930;-2.347;32.261;-8.121;-10.692;-6.035
4752829.752;21.718;9.313;22.203;-0.671;32.820;-7.488;-9.127;-6.892
4752829.760;24.512;13.337;24.810;3.278;32.447;-2.421;-5.290;-2.570
4752829.768;24.214;14.193;23.209;4.768;28.983;-2.645;-6.780;-1.937
4752829.776;24.661;15.832;25.034;5.327;32.932;-1.565;-6.147;-0.298
4752829.784;19.595;11.176;20.228;1.676;26.673;-3.502;-10.282;-3.353
4752829.792;14.864;6.743;17.099;-3.539;27.828;-3.241;-10.803;-4.247
4752829.800;10.841;1.378;12.778;-8.345;22.687;-5.364;-12.964;-6.445
4752829.825;9.686;-0.149;10.133;-8.866;17.025;-7.749;-14.119;-8.121
4752829.833;10.133;0.671;12.219;-8.941;19.781;-6.855;-14.193;-7.413
4752829.841;7.562;-2.347;9.052;-12.033;16.354;-7.376;-18.105;-7.786
4752829.849;8.009;-2.161;12.331;-12.144;22.091;-8.084;-19.707;-7.153
4752829.857;5.886;-3.166;10.021;-11.362;17.323;-8.419;-17.881;-8.941
4752829.865;5.439;-1.639;4.359;-9.090;8.196;-9.090;-14.640;-10.952
4752829.873;12.927;7.525;11.809;0.633;19.930;-1.825;-5.178;-4.172
4752829.881;9.723;3.874;8.233;-1.825;15.497;-3.017;-4.210;-5.104
4752829.889;10.990;5.811;10.878;-0.112;15.870;-1.155;-5.588;-4.135
4752829.897;16.466;11.921;15.609;7.823;17.397;-5.737;-11.586;-7.302
4752829.905;15.423;9.909;14.678;7.004;13.858;-4.880;-12.890;-4.917
4752829.913;16.987;11.884;16.019;9.201;20.005;-5.104;-11.139;-5.588
4752829.921;10.878;5.402;9.649;2.310;10.803;-7.674;-11.809;-7.935
4752829.929;6.072;1.043;4.359;-2.645;6.743;-10.431;-13.150;-10.170
4752829.937;5.066;-0.261;4.321;-3.353;9.276;-6.743;-7.562;-6.035
4752829.945;-2.608;-7.041;-4.061;-9.127;0.037;-13.486;-16.615;-12.107
4752829.953;-4.508;-8.084;-3.800;-11.623;-0.224;-14.007;-19.968;-11.995
4752829.961;-7.562;-11.921;-7.749;-14.789;-4.917;-11.548;-19.670;-9.052
4752829.969;-6.780;-10.580;-7.637;-14.305;-1.155;-9.686;-17.621;-6.743
4752829.977;-6.445;-10.878;-6.706;-14.640;-3.353;-9.388;-16.280;-7.600
4752829.985;-4.433;-8.382;-4.768;-10.207;-4.508;-9.276;-13.486;-7.562
4752829.993;0.969;-0.894;-1.118;-1.602;-0.373;-4.955;-6.147;-2.757
4752830.001;-0.373;-3.874;-1.006;-5.029;1.825;-3.278;-7.562;-3.390
4752830.009;-1.416;-6.743;-1.118;-9.425;1.453;-2.123;-9.425;-4.396
4752830.050;-3.241;-8.009;-4.768;-10.319;-2.719;0.298;-5.700;-2.980
4752830.058;-5.551;-9.872;-5.551;-11.027;0.186;1.416;-4.917;-0.224
4752830.066;-6.706;-9.723;-5.327;-10.580;-3.204;1.229;-7.041;0.820
4752830.074;-6.296;-10.431;-2.719;-11.325;2.943;-3.204;-11.437;-1.527
4752830.082;-9.499;-12.331;-9.313;-11.511;-7.749;-7.451;-15.236;-4.619
4752830.090;-4.172;-8.494;-2.570;-8.196;-0.224;-10.729;-16.578;-8.047
4752830.098;-4.657;-8.941;-2.608;-9.350;1.155;-13.895;-20.489;-10.021
4752830.106;-4.955;-7.972;-3.502;-8.009;-3.129;-13.225;-22.501;-9.313
4752830.114;-6.668;-9.239;-3.949;-8.047;-0.186;-10.617;-19.930;-7.302
4752830.122;-8.866;-11.176;-5.439;-8.605;-0.894;-7.972;-16.950;-5.588
4752830.130;-9.201;-10.841;-6.147;-8.531;-3.092;-4.023;-13.970;-3.651
4752830.138;-11.027;-12.033;-10.431;-10.058;-13.001;-1.416;-12.256;-0.857
4752830.146;-14.268;-14.864;-11.250;-13.150;-10.170;-2.645;-13.784;-2.906
4752830.154;-13.113;-13.821;-7.302;-10.654;-3.874;-1.490;-12.927;-1.900
4752830.162;-14.491;-14.566;-12.591;-10.952;-12.144;-2.012;-13.784;-1.565
4752830.170;-15.609;-15.013;-12.740;-10.952;-9.462;-3.166;-14.454;-1.229
4752830.178;-17.360;-16.950;-12.033;-13.895;-9.686;-6.221;-16.503;-3.949
4752830.186;-16.578;-15.274;-9.686;-12.070;-6.780;-1.118;-10.803;-1.527
4752830.194;-16.987;-15.423;-12.070;-10.915;-12.740;-0.782;-9.313;-2.086
4752830.202;-14.491;-13.299;-11.474;-9.090;-10.952;0.410;-7.413;-1.751
4752830.210;-13.225;-13.895;-10.133;-9.201;-8.494;-2.943;-9.611;-3.166
4752830.218;-14.827;-14.827;-13.262;-9.462;-14.640;-5.513;-11.288;-3.874
4752830.226;-10.617;-9.760;-8.084;-4.470;-8.568;-3.912;-9.909;-3.017
4752830.234;-12.480;-11.101;-8.717;-5.402;-7.190;-5.923;-11.027;-4.694
4752830.290;-13.411;-11.884;-9.760;-6.557;-14.678;-6.929;-11.884;-5.364
4752830.298;-10.878;-9.947;-5.662;-4.470;-7.302;-7.376;-12.815;-4.731
4752830.306;-12.890;-12.778;-7.488;-6.706;-6.445;-9.313;-13.001;-5.849
4752830.314;-15.832;-15.534;-10.058;-10.096;-11.474;-12.070;-16.727;-10.207
4752830.322;-14.789;-14.417;-9.798;-8.680;-10.356;-9.499;-15.162;-9.015
4752830.330;-10.878;-10.431;-6.668;-5.104;-7.190;-4.694;-9.164;-4.582
4752830.338;-10.133;-9.984;-6.370;-3.874;-8.456;-1.006;-4.061;-2.012
4752830.346;-15.385;-14.827;-10.915;-8.382;-13.746;-1.378;-1.639;-3.614
4752830.354;-19.036;-18.626;-12.666;-12.368;-13.001;-6.780;-8.158;-7.711
4752830.362;-19.297;-17.881;-15.236;-10.058;-13.188;-11.660;-13.188;-9.723
4752830.370;-18.701;-17.323;-15.758;-10.803;-16.987;-12.703;-15.087;-8.866
4752830.378;-16.503;-16.280;-12.591;-9.164;-10.841;-11.288;-13.635;-8.047
4752830.386;-13.821;-13.039;-9.909;-5.737;-7.302;-8.792;-9.425;-5.700
4752830.394;-10.841;-8.792;-6.482;-0.149;-4.023;-8.829;-8.009;-7.376
4752830.402;-9.201;-8.307;-4.433;0.373;-5.178;-10.207;-8.456;-10.468
4752830.410;-9.760;-7.637;-5.662;1.416;-6.557;-10.580;-7.860;-10.021
4752830.418;-11.250;-9.984;-7.637;-1.676;-6.966;-11.176;-9.015;-11.027
4752830.426;-12.852;-13.448;-10.021;-6.035;-10.096;-12.331;-12.517;-11.697
4752830.434;-12.256;-13.597;-7.190;-5.960;-8.121;-12.293;-13.113;-10.245
4752830.442;-9.462;-10.878;-4.582;-3.986;-5.066;-10.207;-14.640;-6.519
4752830.450;-13.560;-14.007;-8.456;-8.047;-8.903;-11.995;-19.595;-7.413
4752830.458;-13.523;-15.348;-8.270;-8.419;-6.929;-10.990;-16.540;-8.345
4752830.466;-10.543;-12.480;-6.072;-4.359;-7.674;-9.499;-13.895;-7.711
4752830.474;-6.445;-8.903;-4.582;-0.037;-7.749;-6.668;-9.723;-7.153
4752830.470;-6.109;-7.376;-3.390;1.565;-7.786;-5.811;-9.723;-6.370
4752830.478;-5.551;-4.284;-3.092;4.619;-9.835;-0.633;-4.917;-0.484
4752830.486;-2.608;-2.198;-0.075;5.290;-3.837;6.035;0.522;5.439
4752830.494;-0.410;-1.788;1.565;5.625;-1.974;7.451;3.576;4.843
4752830.502;-1.155;-1.863;2.198;5.849;2.235;6.109;4.508;3.427
4752830.510;-2.943;-3.017;-0.969;4.321;-2.459;5.551;3.949;4.508
4752830.518;-6.668;-6.370;-7.376;0.484;-10.096;3.278;-0.484;0.745
4752830.526;-5.811;-6.892;-6.445;0.410;-6.519;3.316;-4.172;0.559
4752830.534;-9.164;-10.282;-7.935;-3.427;-8.270;3.614;-3.055;2.123
4752830.542;-12.591;-12.368;-10.356;-4.619;-11.362;5.513;0.671;6.445
4752830.550;-17.360;-17.099;-15.013;-8.494;-10.729;0.186;-5.215;4.284
4752830.558;-14.864;-13.188;-11.176;-7.339;-8.531;4.657;-0.969;7.376
4752830.566;-12.703;-10.170;-8.754;-4.768;-8.121;11.399;6.817;11.884
4752830.574;-10.021;-9.164;-6.966;-3.241;-4.470;13.486;9.499;11.586
4752830.582;-10.692;-10.766;-8.643;-3.427;-8.531;14.231;8.866;10.356
4752830.590;-9.425;-10.431;-6.743;-4.359;-6.184;14.529;7.264;8.643
4752830.598;-4.731;-5.327;-1.006;0.261;-2.645;14.417;7.264;8.456
4752830.606;-4.545;-4.731;0.149;1.676;3.353;13.150;7.786;7.749
4752830.614;-5.178;-4.545;-0.894;3.576;2.868;11.548;7.860;6.445
4752830.622;-3.800;-1.974;0.335;5.253;2.794;12.740;6.706;9.388
4752830.630;-8.419;-6.445;-4.992;0.522;-4.694;8.792;3.316;7.749
4752830.638;-7.637;-6.743;-3.465;0.559;-1.639;9.909;3.465;10.282
4752830.646;-5.774;-6.780;-0.410;0.708;2.533;12.629;6.258;13.933
4752830.654;-8.680;-11.139;-2.198;-3.390;3.017;9.313;4.619;9.127
4752830.603;-6.594;-8.009;0.782;-0.224;5.439;12.144;9.686;9.611
4752830.611;-5.402;-6.966;-1.565;1.080;-0.037;9.611;8.345;7.264
4752830.619;-4.061;-5.364;-1.267;1.304;-1.527;7.115;2.570;4.992
4752830.627;0.261;-0.820;5.402;5.588;8.643;5.513;-1.714;4.359
4752830.635;2.384;1.080;6.594;8.307;10.021;2.086;-5.178;3.278
4752830.643;1.118;0.745;2.608;8.605;3.949;-1.043;-6.519;1.490
4752830.651;2.719;1.863;4.806;10.133;9.164;1.751;-2.272;4.470
4752830.659;0.559;0.894;5.253;8.121;9.313;1.006;-3.055;2.719
4752830.667;-0.931;-0.373;2.645;6.892;4.582;0.484;-3.427;0.633
4752830.675;-3.129;-2.235;-1.527;4.508;0.745;2.459;-0.782;1.676
4752830.683;-0.522;-0.335;3.092;5.029;6.482;7.376;0.671;4.545
4752830.691;5.774;4.508;9.760;10.319;15.125;12.256;2.943;8.456
4752830.699;8.680;8.121;11.921;12.740;13.076;13.746;4.135;11.176
4752830.707;9.723;9.388;13.746;15.497;15.981;14.938;6.407;11.772
4752830.715;6.780;8.084;8.941;14.566;10.580;13.001;5.737;10.245
4752830.723;11.846;12.256;17.323;17.695;22.054;12.368;7.153;10.096
4752830.731;11.399;10.878;14.156;16.578;15.572;9.947;6.184;9.127
4752830.739;7.190;7.153;9.462;14.491;9.947;7.339;6.296;5.290
4752830.747;5.253;7.190;6.892;15.125;10.505;7.339;6.519;4.582
4752830.755;4.582;7.749;7.264;15.683;12.182;9.835;6.147;7.972
4752830.763;0.298;4.172;3.576;10.692;7.376;9.350;5.849;7.637
4752830.771;8.009;9.649;10.319;14.640;9.686;8.978;3.427;7.413
4752830.779;15.274;16.429;18.030;21.346;15.460;10.096;3.837;8.158
4752830.787;15.348;16.801;17.583;20.899;18.030;10.803;3.986;10.096
4752830.741;13.821;15.572;15.236;19.185;15.758;7.525;1.714;6.519
4752830.749;11.735;12.554;14.752;16.503;17.658;2.645;-1.714;3.204
4752830.757;9.574;10.543;13.784;14.529;15.721;0.820;-2.980;3.129
4752830.765;13.262;15.125;17.993;19.073;16.689;3.204;-0.931;5.700
4752830.773;11.735;12.554;15.348;15.795;15.683;2.496;0.857;4.284
4752830.781;9.388;9.723;14.454;12.927;15.534;-1.155;-0.931;0.410
4752830.789;9.499;10.990;16.205;15.348;13.188;2.310;2.347;4.247
4752830.797;10.133;10.431;16.429;16.093;14.640;2.757;1.714;5.215
4752830.805;10.692;10.431;15.460;15.162;18.030;2.198;1.192;3.427
4752830.813;9.872;9.164;13.970;13.560;14.156;0.969;2.421;1.490
4752830.821;7.935;9.201;13.039;15.981;12.740;-0.298;1.639;-0.559
4752830.829;0.969;3.427;4.396;9.611;3.316;-4.582;-3.278;-2.235
4752830.837;-3.204;-2.831;1.341;3.166;3.576;-5.811;-6.631;-0.708
4752830.845;-3.241;-2.235;1.565;4.880;0.782;-4.582;-6.892;0.000
4752830.853;-4.731;-3.129;-0.298;3.614;0.484;-6.706;-8.196;-4.135
4752830.861;0.037;1.527;4.545;6.519;4.433;-3.204;-3.427;-3.129
4752830.869;4.917;5.700;9.686;8.978;9.574;-1.416;-0.037;-1.304
4752830.877;5.998;6.333;8.680;10.766;4.917;-3.539;-3.874;-1.267
4752830.885;8.233;7.302;11.213;9.835;8.680;-6.706;-8.456;-3.017
4752830.893;6.407;5.774;11.623;8.792;7.749;-4.061;-5.066;-0.261
4752830.901;6.892;5.439;10.990;8.084;5.551;-1.490;-1.751;2.421
4752830.909;10.803;8.866;14.156;10.729;11.697;4.098;3.651;6.743
4752830.917;13.262;10.468;15.907;12.256;12.331;7.302;6.519;8.047
4752830.925;12.293;9.574;15.423;12.517;10.394;9.052;8.717;7.823
4752830.965;9.537;5.737;13.560;9.574;9.649;7.078;7.749;6.482
4752830.973;6.370;2.459;8.941;6.631;6.557;1.937;2.682;2.980
4752830.981;8.829;5.290;9.350;8.047;8.680;2.421;3.949;1.751
4752830.989;11.399;8.121;11.176;10.952;6.668;2.123;4.172;0.708
4752830.997;11.548;8.382;11.772;10.990;9.649;-1.751;-0.782;-0.820
4752831.005;9.239;4.619;10.319;8.382;8.382;-2.533;-2.272;-0.261
4752831.013;6.780;1.490;8.792;4.955;6.407;-0.969;-1.378;1.788
4752831.021;8.792;4.694;11.735;7.153;10.803;5.811;3.465;8.717
4752831.029;6.519;2.533;6.482;7.115;2.496;3.390;2.906;6.184
4752831.037;9.052;4.470;8.568;8.792;3.576;4.247;4.023;6.966
4752831.045;11.250;6.855;11.660;11.213;11.809;6.668;2.794;7.860
4752831.053;6.817;2.645;7.972;7.451;7.637;2.272;-2.161;5.551
4752831.061;8.829;4.247;7.786;8.233;1.714;1.527;-1.676;4.992
4752831.069;8.196;1.974;8.792;6.668;6.631;-1.043;-2.272;1.676
4752831.077;7.525;2.272;8.121;7.115;6.333;-0.671;-1.453;1.490
4752831.085;8.531;4.508;9.499;8.158;6.147;0.186;0.261;2.831
4752831.093;7.711;3.763;9.611;6.668;5.290;-0.894;-0.261;2.645
4752831.101;3.912;2.012;4.359;5.402;-0.224;1.416;2.757;3.651
4752831.109;4.172;1.490;3.688;6.557;2.086;4.694;6.333;6.855
4752831.117;7.339;4.284;8.158;9.686;5.439;4.247;5.364;6.147
4752831.125;5.513;2.086;5.811;5.327;1.863;3.204;5.513;3.502
4752831.133;4.359;2.272;2.943;7.115;-2.645;2.123;4.843;2.347
4752831.141;6.519;6.296;8.643;12.033;2.347;0.745;3.763;3.651
4752831.149;5.290;3.986;6.445;9.499;1.937;-5.588;-5.439;1.900
4752831.190;4.545;2.347;4.955;5.551;-0.224;-7.488;-9.984;2.310
4752831.198;3.763;0.857;5.625;3.465;1.378;-2.459;-4.359;5.029
4752831.206;5.215;4.433;7.078;8.941;4.768;4.917;6.333;9.015
4752831.214;7.227;7.115;9.090;14.380;1.863;8.829;11.735;10.021
4752831.222;6.333;5.104;7.041;11.660;-1.043;2.682;6.072;4.657
4752831.230;6.407;7.860;6.482;13.039;-0.969;0.000;2.198;2.459
4752831.238;5.476;6.445;4.210;11.213;-0.894;-1.565;-3.874;2.906
4752831.246;6.668;5.737;7.004;9.760;5.178;-4.731;-9.723;0.373
4752831.254;5.700;3.166;3.465;8.196;-2.868;-8.456;-12.666;-2.496
4752831.262;9.164;5.700;6.557;11.921;1.416;-5.998;-9.201;1.565
4752831.270;8.680;5.588;5.811;10.133;-0.447;-3.316;-5.625;2.272
4752831.278;12.331;8.494;10.766;13.337;2.682;-3.278;-3.576;3.353
4752831.286;15.013;10.468;14.044;17.136;9.090;-3.837;-3.316;4.433
4752831.294;17.509;14.454;17.472;20.526;13.001;0.596;0.596;7.823
4752831.302;15.795;11.586;12.107;17.323;5.886;1.341;1.751;8.196
4752831.310;15.609;11.213;9.872;16.019;-0.112;1.751;3.912;6.929
4752831.318;13.746;7.451;10.468;11.325;4.359;-2.496;-0.037;3.427
4752831.326;13.560;7.972;9.052;11.474;0.894;-6.594;-4.321;1.676
4752831.334;14.231;7.749;7.935;11.139;-2.868;-7.227;-6.445;1.714
4752831.342;14.529;5.364;8.605;8.270;0.708;-7.413;-8.345;1.416
4752831.350;14.268;6.817;9.649;10.356;5.774;-4.470;-5.253;3.204
4752831.358;9.276;4.470;3.465;10.654;-2.533;-4.061;-4.023;5.141
4752831.366;4.843;-0.447;0.224;7.451;-2.757;-4.470;-4.210;4.731
4752831.374;3.241;-1.937;-0.335;4.992;-6.147;-3.166;-1.043;4.247
4752831.461;0.298;-5.513;-2.049;0.857;-7.190;-6.445;-4.768;1.229
4752831.469;2.049;-3.353;0.186;2.459;-4.359;-5.662;-3.912;0.857
4752831.477;2.831;-2.570;0.745;2.943;-1.118;-5.811;-5.998;1.006
4752831.485;4.284;-0.894;2.347;5.886;0.037;-9.835;-12.070;-2.980
4752831.493;5.662;-0.484;2.980;5.104;-1.900;-9.909;-12.144;-3.129
4752831.501;4.657;-2.645;2.198;4.321;-1.006;-9.239;-9.425;-1.341
4752831.509;4.508;0.075;5.402;6.407;3.278;-4.619;-3.986;2.608
4752831.517;5.178;1.714;5.178;7.972;0.224;-5.849;-5.998;1.192
4752831.525;10.543;5.215;10.915;10.766;5.700;-6.557;-6.407;-0.447
4752831.533;11.399;7.525;9.313;12.927;1.118;-8.382;-5.998;-4.210
4752831.541;13.337;10.356;12.852;16.838;5.290;-8.345;-5.439;-3.651
4752831.549;13.560;11.399;13.895;19.148;7.749;-1.788;0.112;2.794
4752831.557;12.293;9.760;11.250;17.174;4.992;1.341;5.402;4.731
4752831.565;10.952;7.749;9.164;14.678;3.204;0.969;4.992;3.912
4752831.573;15.087;12.219;14.715;18.142;6.631;4.210;7.786;6.631
4752831.581;15.013;14.082;13.337;19.707;10.841;3.725;6.594;6.929
4752831.589;9.127;8.158;7.339;12.070;4.023;-0.335;1.974;-1.118
4752831.597;5.551;5.253;4.917;10.617;2.459;-1.825;0.335;-8.903
4752831.605;7.078;8.233;6.035;13.821;1.937;0.522;4.135;-8.456
4752831.613;6.519;9.462;5.439;13.597;2.161;3.539;7.264;-6.817
4752831.621;5.141;7.190;5.327;10.505;2.049;2.719;8.456;-8.121
4752831.629;7.451;10.319;7.302;14.082;2.831;1.751;6.594;-8.829
4752831.637;8.643;12.442;6.557;16.987;2.719;2.570;5.923;-7.302
4752831.645;15.050;17.881;13.299;20.713;10.580;5.215;8.494;-3.837
4752831.653;14.976;18.254;15.199;19.968;13.635;7.376;10.617;-2.459
4752831.661;9.909;11.399;7.302;13.709;4.694;5.066;7.488;-3.800
4752831.669;12.815;14.007;11.437;15.609;13.635;9.872;10.543;0.373
4752831.677;14.268;16.578;11.399;18.477;7.451;8.047;6.743;-0.149
4752831.685;16.391;18.850;14.268;19.707;13.188;2.310;0.633;-4.806
4752831.693;19.148;21.756;18.254;22.352;16.578;-0.410;0.820;-8.903
4752831.701;19.036;20.154;19.446;19.893;20.377;-2.235;0.745;-11.660
4752831.709;15.460;17.174;16.093;15.162;15.795;-0.633;3.912;-10.096
4752831.717;11.213;12.629;11.548;11.735;12.554;0.335;5.625;-9.462
4752831.725;13.299;13.970;15.646;13.262;19.781;-1.267;2.570;-9.835
4752831.733;13.448;14.007;15.683;11.176;14.417;-2.719;-1.602;-9.090
4752831.741;11.027;11.511;12.182;8.047;13.225;-4.545;-5.141;-9.239
4752831.749;7.525;9.276;9.909;6.109;11.586;-6.333;-7.376;-8.605
4752831.757;8.009;9.276;10.245;6.221;11.623;-6.557;-5.215;-9.462
4752831.765;12.740;14.678;13.895;11.288;12.368;-2.123;1.676;-7.860
4752831.773;17.025;18.999;19.744;13.560;18.664;-0.112;1.267;-6.594
4752831.781;16.987;20.191;19.222;15.832;16.391;1.900;-0.224;-6.109
4752831.789;16.689;21.309;20.005;16.391;16.838;3.166;-0.224;-6.072
4752831.797;13.113;17.919;17.695;15.236;15.758;-1.639;-5.849;-10.170
4752831.805;15.274;19.372;19.819;17.025;20.787;-6.035;-8.121;-11.958
4752831.813;13.709;16.578;18.589;14.640;16.280;-7.041;-7.637;-14.342
4752831.821;11.958;14.640;16.131;12.703;15.758;-5.886;-5.253;-14.342
4752831.829;12.591;17.025;16.913;16.429;16.391;-3.092;-1.416;-11.623
4752831.837;11.511;15.311;14.380;13.672;8.754;-9.127;-6.482;-14.715
4752831.776;17.621;21.718;21.458;19.185;15.236;-9.947;-6.706;-15.050
4752831.784;13.784;21.793;20.228;19.260;17.583;-9.574;-9.164;-15.423
4752831.792;11.288;17.546;15.721;15.087;13.933;-6.855;-8.270;-13.448
4752831.800;9.574;13.486;14.529;11.250;9.835;-4.098;-5.104;-10.058
4752831.808;8.233;11.139;11.995;10.021;9.537;-3.353;-3.614;-9.649
4752831.816;7.600;10.990;9.090;10.170;4.023;-6.221;-6.035;-11.548
4752831.824;7.339;11.027;11.101;10.245;5.476;-10.505;-8.233;-13.448
4752831.832;9.313;11.735;15.050;11.511;10.654;-14.193;-12.442;-14.715
4752831.840;14.827;16.950;18.328;16.987;14.864;-13.486;-13.188;-13.746
4752831.848;8.568;9.388;17.397;12.107;15.572;-16.987;-17.434;-15.870
4752831.856;16.838;18.813;24.810;21.793;19.334;-11.921;-12.591;-10.058
4752831.864;38.482;42.953;42.468;49.770;29.206;-5.849;-5.811;-6.221
4752831.872;72.569;79.349;74.469;91.381;49.397;-4.731;-2.161;-6.780
4752831.880;128.187;142.232;121.966;155.382;72.233;-1.527;0.335;-4.992
4752831.888;199.527;218.414;185.929;234.358;110.343;-0.112;1.490;-4.843
4752831.896;262.111;282.265;243.448;300.966;143.647;2.012;4.321;-3.763
4752831.904;293.888;314.564;271.611;334.568;158.474;4.657;8.419;-2.012
4752831.912;306.219;327.639;283.830;350.885;169.575;4.396;8.345;-1.751
4752831.920;300.296;325.590;277.944;353.418;162.758;3.316;7.413;-2.384
4752831.928;282.153;309.385;262.633;339.784;155.941;6.445;10.282;-0.224
4752831.936;267.215;291.988;249.185;319.481;151.284;8.009;10.133;-0.224
4752831.944;251.159;269.115;234.693;295.639;142.567;7.302;10.245;-2.272
4752831.952;235.550;247.546;218.675;270.046;134.110;10.952;14.715;2.310
4752831.960;212.528;223.480;199.154;240.728;123.195;10.766;12.852;2.906
4752832.000;185.706;194.944;174.977;207.759;108.965;9.276;11.027;1.118
4752832.008;166.222;173.897;151.768;185.072;90.562;10.245;11.697;1.118
4752832.016;153.221;159.219;140.406;171.028;86.650;10.952;13.933;-0.335
4752832.024;137.463;141.859;127.666;152.104;81.100;13.150;16.540;2.161
4752832.032;122.637;126.548;112.094;132.993;71.786;14.789;18.701;5.774
4752832.040;109.784;111.647;99.726;116.453;65.342;14.938;16.242;8.009
4752832.048;91.866;93.021;84.154;96.187;55.619;7.525;7.302;3.241
4752832.056;77.598;75.772;70.743;76.741;48.354;5.886;4.061;2.906
4752832.064;64.075;60.648;55.805;61.505;32.596;5.178;3.241;0.484
4752832.072;54.725;52.564;47.348;51.409;23.358;7.190;4.470;-2.272
4752832.080;45.933;44.741;40.904;42.468;27.716;7.823;2.235;-3.055
4752832.088;41.127;39.451;37.923;36.955;27.046;10.394;2.757;1.937
4752832.096;32.336;30.175;29.504;28.312;15.311;4.992;-2.645;-0.708
4752832.104;23.879;21.011;21.383;18.887;10.915;-2.272;-7.674;-5.104
4752832.112;21.160;17.695;18.217;16.019;12.070;0.708;-2.794;-1.602
4752832.120;13.746;9.760;11.511;9.537;4.843;5.700;3.241;1.900
4752832.128;-1.118;-3.800;-3.204;-5.998;-11.623;1.863;-0.633;-5.402
4752832.136;-2.421;-4.284;-2.533;-6.855;-5.923;5.402;2.384;-5.104
4752832.144;-2.161;-4.619;-3.092;-6.817;-7.935;6.743;2.198;-5.066
4752832.152;-6.780;-8.568;-8.792;-11.474;-15.385;6.333;0.559;-4.731
4752832.160;-6.631;-9.425;-8.270;-12.182;-8.084;8.866;2.608;-2.012
4752832.168;-6.780;-9.984;-9.462;-12.405;-11.772;10.803;4.843;0.708
4752832.176;-9.723;-13.039;-11.958;-15.423;-15.050;11.064;6.333;0.969
4752832.184;-12.629;-15.236;-14.119;-18.179;-14.789;8.568;7.004;-1.155
4752832.210;-12.107;-13.113;-13.933;-16.503;-13.746;7.004;7.786;0.075
4752832.218;-12.703;-12.591;-13.337;-14.640;-13.113;4.545;4.433;-1.043
4752832.226;-17.732;-16.503;-17.621;-18.179;-17.807;0.261;-1.602;-3.241
4752832.234;-18.626;-17.472;-18.775;-20.936;-19.222;2.831;1.341;-1.304
4752832.242;-21.607;-20.638;-21.160;-23.060;-21.234;5.327;2.906;-0.596
4752832.250;-22.948;-22.389;-20.564;-26.450;-18.403;6.221;2.310;-0.596
4752832.258;-25.108;-24.214;-22.426;-26.077;-19.856;8.829;4.545;0.075
4752832.266;-26.450;-26.040;-22.911;-26.263;-19.670;5.066;1.416;-4.061
4752832.274;-28.387;-27.418;-25.257;-28.387;-22.948;5.104;2.198;-4.508
4752832.282;-31.516;-31.255;-28.387;-32.336;-26.263;5.104;3.502;-3.912
4752832.290;-33.043;-32.634;-28.238;-34.422;-27.381;5.923;2.906;-3.055
4752832.298;-30.696;-30.361;-24.922;-32.634;-20.862;9.462;5.104;0.782
4752832.306;-29.877;-29.393;-21.756;-30.920;-16.205;10.505;5.476;3.874
4752832.314;-30.659;-30.212;-23.022;-31.181;-21.309;6.780;1.602;1.043
4752832.322;-27.642;-27.604;-22.277;-28.163;-21.011;7.078;2.868;1.453
4752832.330;-24.438;-23.432;-17.323;-23.916;-17.546;8.605;5.811;3.129
4752832.338;-26.561;-26.673;-15.981;-27.604;-15.013;4.694;2.384;-0.671
4752832.346;-28.834;-27.716;-21.122;-27.604;-22.203;3.390;1.825;-1.155
4752832.354;-27.604;-26.599;-18.030;-27.046;-18.068;3.017;-0.186;-1.490
4752832.362;-25.593;-23.805;-15.087;-23.879;-14.007;1.788;0.261;-1.863
4752832.370;-29.057;-26.524;-20.713;-27.269;-21.756;-1.751;-1.825;-6.482
4752832.378;-26.412;-24.065;-15.907;-24.736;-12.554;1.900;6.258;-4.247
4752832.386;-22.650;-20.713;-11.809;-21.346;-10.282;7.115;13.039;1.267
4752832.394;-21.160;-18.850;-9.723;-20.489;-8.605;7.562;14.976;0.522
4752832.390;-18.775;-15.646;-8.307;-15.497;-9.760;9.984;18.477;2.347
4752832.398;-18.626;-15.311;-7.637;-14.827;-8.270;15.125;21.681;5.998
4752832.406;-26.636;-22.799;-17.397;-21.011;-19.185;14.566;20.787;4.806
4752832.414;-35.502;-31.851;-22.948;-31.032;-21.681;8.419;13.299;1.602
4752832.422;-34.980;-30.026;-21.681;-30.510;-21.979;5.886;8.866;1.118
4752832.430;-31.963;-26.338;-20.936;-25.183;-21.718;4.880;8.009;0.261
4752832.438;-24.736;-19.595;-13.523;-18.142;-12.405;4.694;8.084;0.820
4752832.446;-20.452;-16.168;-8.531;-14.193;-7.860;7.711;11.288;2.272
4752832.454;-21.495;-16.019;-11.027;-13.635;-14.156;5.998;12.778;1.378
4752832.462;-23.656;-15.013;-14.082;-12.293;-16.168;7.339;15.572;1.788
4752832.470;-24.624;-16.168;-14.007;-12.405;-17.323;8.866;17.248;4.172
