Timestamp,AFz,AF3,AF4,AF7,AF8,Pz,P3,P4,2024-05-16 12:09:42.113,fs=125
5446601.461;-33.714;-64.895;-43.027;117.570;103.861;15.795;2.868;8.605
5446601.469;-33.528;-62.957;-46.268;119.321;102.110;19.111;8.978;14.678
5446601.477;-31.441;-63.963;-40.866;120.811;105.612;20.787;11.772;14.305
5446601.485;-20.713;-54.874;-25.071;131.205;115.335;24.438;9.872;15.758
5446601.493;-14.454;-42.915;-26.152;144.243;118.203;25.146;16.093;11.250
5446601.501;-15.125;-40.568;-29.504;155.233;114.851;23.842;10.394;18.664
5446601.509;-19.632;-46.156;-31.851;149.645;114.255;16.540;4.992;8.792
5446601.517;-16.429;-43.064;-27.157;149.608;118.166;20.489;8.792;9.462
5446601.525;-17.360;-43.698;-33.155;150.986;116.825;16.242;-1.863;14.529
5446601.533;-15.348;-44.815;-30.883;152.364;122.041;16.727;3.576;12.666
5446601.541;-22.948;-52.005;-31.814;149.049;116.527;12.517;-1.304;11.809
5446601.549;-25.108;-53.942;-34.049;147.708;117.011;17.099;6.221;19.185
5446601.557;-25.481;-55.134;-34.310;146.292;116.341;18.999;8.084;22.613
5446601.565;-28.722;-60.052;-38.669;141.822;114.180;14.231;2.906;9.611
5446601.573;-27.195;-58.860;-39.153;143.573;116.862;19.744;7.376;15.721
5446601.581;-25.965;-53.421;-34.831;148.937;117.235;22.836;6.966;18.217
5446601.589;-26.003;-49.360;-38.035;158.399;112.429;24.252;8.345;17.285
5446601.597;-13.933;-34.124;-33.043;177.436;114.441;24.103;9.909;19.446
5446601.605;-14.193;-35.465;-35.726;176.989;111.088;15.944;1.080;17.956
5446601.613;-13.597;-33.341;-38.259;177.585;110.082;1.118;-12.554;0.894
5446601.621;-4.619;-25.705;-30.696;185.631;122.339;5.886;-4.582;1.192
5446601.629;-4.061;-28.126;-25.332;184.104;128.075;6.631;-6.370;4.061
5446601.637;-3.055;-28.796;-25.630;180.863;127.628;8.680;-9.649;10.282
5446601.645;-1.565;-28.871;-29.057;187.084;128.038;15.423;-0.596;21.048
5446601.610;-1.304;-21.085;-27.120;200.905;127.740;7.711;-4.731;5.886
5446601.618;-0.559;-18.366;-28.089;202.917;125.654;8.978;1.825;2.235
5446601.626;-2.347;-21.085;-36.359;202.917;121.444;15.907;6.258;12.480
5446601.634;-0.671;-22.277;-33.416;203.364;128.821;20.266;5.886;17.732
5446601.642;-2.496;-24.848;-25.183;203.066;133.440;19.297;9.313;17.844
5446601.650;-10.282;-29.840;-34.869;200.421;126.436;7.413;2.757;7.600
5446601.658;-12.331;-34.794;-42.133;198.558;123.717;3.800;-2.794;9.649
5446601.666;-12.033;-36.396;-40.159;193.417;122.674;6.557;-2.161;10.394
5446601.674;-15.981;-38.594;-47.609;191.852;119.433;9.090;-3.353;13.486
5446601.682;-12.964;-34.086;-42.804;201.315;122.674;14.938;3.204;8.047
5446601.690;-14.491;-33.081;-50.962;200.719;118.725;19.893;7.339;14.342
5446601.698;-13.411;-31.106;-52.378;204.109;122.003;23.060;15.721;12.629
5446601.706;-16.578;-36.396;-47.944;202.321;125.282;19.073;5.327;10.952
5446601.714;-16.205;-31.777;-46.939;211.820;129.975;17.099;2.459;11.772
5446601.722;-10.803;-24.810;-45.821;215.396;132.024;17.844;10.245;12.778
5446601.730;-7.339;-21.346;-43.251;219.941;136.532;10.580;8.643;6.631
5446601.738;4.768;-8.233;-28.908;233.501;147.633;-0.037;-3.576;-0.149
5446601.746;40.457;30.473;6.557;268.668;175.759;3.017;-3.092;4.657
5446601.754;76.070;72.643;40.010;306.517;201.017;7.413;1.006;8.121
5446601.762;116.006;119.321;81.398;347.495;228.733;15.311;3.986;19.707
5446601.770;158.437;165.030;126.064;385.679;257.194;21.271;10.058;26.189
5446601.778;184.663;194.013;148.863;408.627;270.903;21.122;6.780;22.762
5446601.786;199.266;208.057;160.933;419.393;279.918;19.595;12.591;12.703
5446601.794;197.031;203.326;158.809;414.997;278.242;19.595;12.331;11.288
5446601.802;188.276;195.503;155.307;405.610;268.444;26.636;11.995;25.034
5446601.810;182.837;187.270;152.364;401.139;257.380;35.129;23.991;33.975
5446601.818;172.220;175.536;143.647;390.448;254.251;28.536;16.205;26.040
5446601.826;154.376;158.995;126.548;379.309;242.554;24.252;15.683;14.789
5446601.791;130.720;134.781;98.497;361.502;221.133;20.787;11.809;17.397
5446601.799;106.432;106.879;74.655;334.680;204.034;14.715;2.384;14.678
5446601.807;83.186;79.870;54.389;307.485;188.537;7.749;1.900;3.614
5446601.815;74.282;67.316;44.554;297.986;179.671;12.405;8.382;10.394
5446601.823;58.189;51.409;30.175;290.573;165.887;18.440;14.193;17.174
5446601.831;38.221;32.783;14.342;275.150;155.084;17.472;12.219;21.569
5446601.839;27.977;20.675;10.282;265.427;152.178;21.346;14.938;28.014
5446601.847;16.354;10.543;-4.396;254.363;139.251;25.332;21.234;22.091
5446601.855;4.992;-1.639;-14.976;246.018;129.528;20.936;8.345;17.360
5446601.863;0.745;-10.394;-18.217;238.344;126.325;27.008;13.113;21.011
5446601.871;0.335;-11.176;-16.689;232.756;128.150;28.163;12.778;21.309
5446601.879;-5.141;-16.987;-18.254;229.962;124.164;30.249;14.417;24.103
5446601.887;-8.605;-17.732;-23.805;234.693;122.339;37.029;18.254;26.003
5446601.895;-8.456;-20.824;-20.713;229.515;124.648;37.365;21.644;17.099
5446601.903;-9.611;-24.177;-21.160;226.870;121.407;34.869;28.461;14.156
5446601.911;-3.353;-15.162;-16.205;237.338;127.666;30.547;19.968;20.638
5446601.919;-5.029;-18.366;-9.909;234.880;129.156;17.881;7.674;18.254
5446601.927;-9.835;-27.306;-10.133;227.280;124.797;5.960;-1.304;13.635
5446601.935;-16.391;-35.688;-18.738;219.792;119.507;-1.304;-5.774;6.668
5446601.943;-13.821;-34.310;-18.105;218.637;122.227;3.763;3.129;6.855
5446601.951;-14.007;-33.863;-20.228;216.216;121.482;7.376;10.617;4.843
5446601.959;-17.509;-36.024;-23.395;219.829;118.613;4.433;-0.373;7.115
5446601.967;-21.905;-40.047;-25.071;216.477;115.633;7.488;6.482;4.321
5446601.975;-24.959;-40.755;-30.436;218.116;110.716;8.717;11.884;1.006
5446602.077;-24.773;-39.451;-35.726;221.729;107.028;6.407;9.611;1.565
5446602.085;-29.802;-48.056;-38.967;213.310;101.328;-0.075;-5.476;2.347
5446602.093;-32.149;-53.085;-42.617;205.077;93.132;-0.522;-8.568;4.545
5446602.101;-29.951;-47.237;-31.479;208.430;102.185;6.296;0.075;9.388
5446602.109;-37.961;-52.862;-36.806;204.109;98.720;1.155;-5.662;2.868
5446602.117;-40.717;-54.762;-43.772;203.736;92.424;5.290;-1.602;7.711
5446602.125;-37.029;-51.148;-45.262;207.648;93.095;13.970;10.431;11.921
5446602.133;-35.055;-48.652;-43.251;210.255;96.336;9.872;3.800;10.915
5446602.141;-31.330;-47.199;-34.906;210.665;100.136;8.903;3.576;13.709
5446602.149;-38.743;-52.936;-43.139;202.730;93.505;1.080;-0.596;0.596
5446602.157;-38.669;-51.707;-44.964;202.879;92.573;0.447;-3.241;-0.037
5446602.165;-33.118;-45.486;-41.202;211.261;97.081;4.917;3.688;3.688
5446602.173;-34.831;-47.721;-39.600;211.820;92.722;3.390;0.447;3.390
5446602.181;-34.384;-49.099;-43.362;209.101;92.201;1.155;-9.239;7.637
5446602.189;-36.396;-51.633;-43.735;205.338;91.307;-4.880;-14.268;-1.676
5446602.197;-33.304;-48.093;-41.910;208.877;93.542;-1.565;-6.370;-0.671
5446602.205;-29.057;-39.376;-41.313;219.978;96.746;9.611;10.319;11.027
5446602.213;-31.628;-39.935;-43.809;220.537;91.158;9.350;8.792;8.978
5446602.221;-29.430;-38.482;-38.929;224.151;92.648;5.960;-1.043;7.078
5446602.229;-32.224;-42.692;-43.884;219.867;90.450;5.960;2.161;8.009
5446602.237;-34.459;-45.449;-49.025;214.465;85.533;8.903;5.215;14.305
5446602.245;-39.227;-49.025;-56.885;212.640;80.876;7.823;1.565;14.305
5446602.253;-47.572;-57.556;-60.648;206.791;75.735;-2.533;-6.817;-1.304
5446602.261;-56.811;-67.912;-69.030;191.890;69.030;-12.778;-14.603;-9.164
5446602.331;-43.623;-58.301;-52.415;194.609;85.905;-16.093;-19.521;-9.313
5446602.339;-28.796;-44.331;-39.004;209.585;99.018;-10.282;-18.515;-3.204
5446602.347;-17.025;-29.840;-30.547;223.815;105.835;5.364;0.559;14.380
5446602.355;-6.817;-19.372;-23.805;236.258;113.808;16.354;15.348;15.795
5446602.363;-9.388;-24.252;-31.032;234.246;108.443;11.325;3.166;15.832
5446602.371;-16.466;-28.498;-37.365;227.988;101.961;6.147;-0.931;15.497
5446602.379;-17.919;-23.805;-39.339;231.527;103.675;0.335;-9.984;12.591
5446602.387;-13.858;-22.128;-41.462;235.103;103.526;4.135;0.671;15.199
5446602.395;-12.480;-22.426;-40.047;234.023;103.563;6.892;13.597;7.041
5446602.403;-10.990;-20.340;-30.957;238.679;107.214;7.562;8.792;8.754
5446602.411;-16.876;-25.295;-35.800;231.043;103.600;5.141;4.023;8.084
5446602.419;-17.807;-28.014;-37.849;231.005;100.881;7.302;9.798;6.445
5446602.427;-25.406;-36.694;-51.223;226.088;89.481;0.559;-0.969;6.519
5446602.435;-38.408;-47.870;-59.605;210.628;84.005;-7.786;-9.276;2.012
5446602.443;-45.672;-57.034;-64.410;202.991;81.770;-11.995;-6.892;-5.290
5446602.451;-31.367;-40.531;-57.518;222.027;90.599;0.782;8.605;11.362
5446602.459;-23.358;-27.232;-51.409;235.811;95.144;3.465;4.284;15.236
5446602.467;-28.536;-32.224;-55.395;228.211;93.877;-5.700;-4.061;1.565
5446602.475;-25.667;-29.206;-54.650;229.776;94.771;-3.316;-4.396;4.917
5446602.483;-21.532;-28.424;-50.180;229.366;97.193;1.118;0.633;6.557
5446602.491;-16.838;-27.455;-43.698;228.994;105.500;2.496;3.353;10.431
5446602.499;-15.981;-25.406;-42.245;229.925;107.102;3.278;5.439;7.004
5446602.507;-18.664;-25.593;-48.764;228.770;100.173;5.886;9.201;9.872
5446602.515;-20.601;-24.140;-55.805;232.421;93.281;10.245;11.139;19.595
5446602.512;-26.673;-28.946;-60.461;226.758;84.937;6.221;0.894;13.895
5446602.520;-32.894;-35.614;-63.144;223.443;79.982;4.582;-0.149;10.170
5446602.528;-31.032;-36.508;-58.226;222.996;88.476;11.511;6.892;14.678
5446602.536;-23.320;-29.244;-45.337;227.019;93.691;23.916;21.011;28.685
5446602.544;-20.862;-24.587;-42.915;230.893;92.499;26.599;26.077;34.012
5446602.552;-25.257;-29.840;-47.237;226.311;87.805;13.486;13.001;19.073
5446602.560;-33.937;-38.892;-50.217;223.704;82.888;3.949;4.359;7.227
5446602.568;-27.008;-30.361;-40.159;233.874;89.929;4.992;4.098;7.078
5446602.576;-29.318;-31.032;-44.033;226.349;81.435;1.304;-1.304;4.247
5446602.584;-23.544;-27.455;-42.319;229.776;83.186;7.264;3.278;13.299
5446602.592;-15.236;-20.750;-29.095;234.172;95.256;16.615;11.250;27.232
5446602.600;-12.368;-16.205;-21.271;241.697;98.050;11.660;6.296;20.601
5446602.608;-10.170;-9.686;-23.097;250.749;97.826;10.766;12.405;19.372
5446602.616;-10.319;-9.537;-24.699;247.061;92.946;3.353;7.898;14.193
5446602.624;-13.821;-14.529;-27.381;240.952;84.564;-0.410;6.109;5.104
5446602.632;-10.356;-12.033;-21.346;244.789;90.934;3.651;7.413;10.058
5446602.640;-13.486;-14.342;-17.770;242.405;91.940;6.407;8.121;13.039
5446602.648;-23.879;-22.948;-29.132;234.470;82.813;10.096;12.368;11.548
5446602.656;-33.081;-33.304;-34.869;224.225;74.506;2.421;1.304;0.894
5446602.664;-28.610;-29.579;-26.338;228.211;79.274;8.270;7.711;10.245
5446602.672;-30.808;-33.490;-28.051;227.503;73.537;6.631;7.302;15.162
5446602.680;-35.390;-37.923;-34.086;219.382;66.385;0.298;3.055;6.855
5446602.688;-32.485;-33.118;-33.267;220.872;71.749;-1.639;-0.224;8.084
5446602.696;-30.063;-31.628;-29.244;216.290;75.512;-5.178;-6.966;9.276
5446602.660;-21.830;-24.624;-20.824;222.065;81.621;-2.794;2.086;3.278
5446602.668;-20.042;-23.022;-17.956;224.970;79.125;-4.210;0.931;0.373
5446602.676;-19.632;-23.618;-20.303;227.056;74.878;0.298;-1.714;11.921
5446602.684;-23.507;-28.722;-24.475;218.935;73.239;4.284;4.359;11.288
5446602.692;-26.412;-30.473;-19.260;218.228;74.208;4.396;-0.782;11.809
5446602.700;-22.054;-23.246;-15.795;229.664;77.486;5.662;4.806;9.090
5446602.708;0.112;3.874;4.843;262.372;96.038;9.909;15.348;10.766
5446602.716;32.522;41.202;35.688;295.527;115.149;10.319;18.179;12.182
5446602.724;70.259;83.782;74.953;331.663;143.759;19.446;23.246;30.100
5446602.732;111.647;131.913;113.696;373.870;169.091;16.764;21.309;25.108
5446602.740;147.149;175.089;143.498;413.880;185.035;6.780;9.462;13.337
5446602.748;181.608;213.273;174.940;446.066;208.616;10.543;14.044;19.372
5446602.756;197.701;230.558;185.333;459.701;210.218;8.382;11.288;18.030
5446602.764;205.263;236.817;190.325;466.369;212.640;17.509;24.028;23.171
5446602.772;197.403;228.845;186.339;456.125;205.413;16.801;23.805;19.521
5446602.780;190.139;222.251;172.332;444.055;196.360;18.142;19.968;26.599
5446602.788;177.398;213.496;151.470;440.143;181.682;18.403;22.464;28.796
5446602.796;159.554;192.486;142.865;424.571;169.501;16.913;19.595;25.667
5446602.804;135.638;165.291;118.688;395.030;153.705;11.958;13.262;20.303
5446602.812;113.323;136.830;93.244;364.110;139.475;1.602;4.582;11.697
5446602.820;89.332;109.896;67.651;344.701;124.276;-11.846;-6.855;1.825
5446602.828;66.347;85.831;46.007;322.647;103.079;-21.085;-18.850;-4.172
5446602.836;58.301;72.531;41.090;310.875;100.769;-4.545;2.570;8.754
5446602.844;46.790;60.722;26.748;296.570;97.826;1.937;9.313;11.511
5446602.886;32.261;42.692;14.193;270.866;90.599;-3.539;3.763;8.941
5446602.894;23.805;32.000;10.170;265.874;84.117;-6.147;1.304;10.319
5446602.902;8.978;19.856;-8.196;261.143;69.998;-7.786;-2.570;1.825
5446602.910;-3.390;7.339;-16.540;249.296;59.567;-5.029;-7.749;4.135
5446602.918;-15.348;-4.731;-25.779;235.178;56.475;6.743;1.527;15.013
5446602.926;-23.693;-17.434;-41.835;223.815;47.721;10.356;4.992;12.852
5446602.934;-21.793;-20.042;-37.849;223.741;48.392;13.746;12.442;8.978
5446602.942;-19.297;-14.752;-30.473;223.592;52.229;8.307;6.072;3.986
5446602.950;-20.489;-12.852;-39.153;223.070;49.137;3.949;1.229;-0.931
5446602.958;-23.358;-16.354;-40.680;220.127;43.884;7.488;8.680;-1.527
5446602.966;-26.189;-23.246;-41.984;213.645;43.772;11.995;12.480;5.662
5446602.974;-35.837;-35.651;-52.191;201.464;35.055;14.491;17.658;6.706
5446602.982;-41.835;-39.600;-59.120;196.360;29.579;11.809;16.578;1.676
5446602.990;-37.886;-36.284;-56.066;201.799;33.937;9.090;14.603;4.657
5446602.998;-34.608;-29.691;-52.489;205.785;37.104;9.052;12.852;15.013
5446603.006;-35.278;-30.249;-54.054;201.687;35.688;9.872;10.394;20.154
5446603.014;-43.921;-40.904;-71.116;189.580;24.587;3.241;1.192;9.723
5446603.022;-42.096;-39.376;-57.630;192.188;31.143;9.015;11.288;11.995
5446603.030;-43.958;-40.308;-58.226;191.405;26.599;7.264;5.290;8.643
5446603.038;-52.303;-46.380;-71.190;180.639;17.397;2.794;2.831;3.353
5446603.046;-42.357;-41.798;-60.461;177.994;26.152;-2.868;-1.341;7.488
5446603.054;-39.302;-39.116;-54.762;179.298;34.422;-7.525;-4.135;3.316
5446603.062;-45.672;-44.256;-64.410;176.802;28.871;-12.554;-11.027;-1.341
5446603.070;-47.870;-44.554;-69.700;179.335;24.699;-8.196;-6.258;4.917
5446603.127;-45.188;-43.325;-60.722;180.081;33.602;1.229;3.204;9.537
5446603.135;-46.305;-43.511;-60.089;177.398;30.957;1.155;1.043;1.341
5446603.143;-45.449;-41.127;-61.840;176.132;30.324;7.078;8.307;5.960
5446603.151;-37.439;-34.273;-55.358;181.943;36.694;12.033;12.070;12.591
5446603.159;-32.298;-32.037;-51.707;184.178;38.482;9.425;10.356;8.494
5446603.167;-34.794;-35.278;-54.911;181.533;34.384;4.470;5.849;3.539
5446603.175;-39.525;-41.872;-56.215;173.040;31.069;-3.949;-4.061;0.745
5446603.183;-40.829;-43.288;-61.840;169.054;26.412;-0.075;2.943;10.058
5446603.191;-43.809;-42.655;-66.347;167.452;24.401;-5.066;-5.923;5.066
5446603.199;-40.010;-38.706;-52.713;171.363;31.516;-2.943;-5.551;11.772
5446603.207;-37.961;-38.147;-47.237;179.820;31.665;-4.470;-3.800;3.502
5446603.215;-37.700;-37.402;-47.237;176.877;30.585;-6.519;-2.533;-1.453
5446603.223;-35.241;-31.330;-40.047;178.553;32.559;-2.123;2.049;5.960
5446603.231;-46.082;-43.847;-49.174;163.391;18.924;-6.109;4.396;-1.565
5446603.239;-43.660;-44.256;-52.452;159.740;12.852;-14.901;-6.519;-18.366
5446603.247;-34.571;-33.602;-38.669;174.046;26.114;-7.227;-4.470;-1.937
5446603.255;-30.920;-28.424;-32.261;177.585;35.577;5.737;9.574;16.429
5446603.263;-38.035;-34.571;-34.682;172.295;29.989;-0.298;6.966;3.539
5446603.271;-43.362;-39.898;-40.941;169.277;19.483;-4.135;3.166;0.745
5446603.279;-45.486;-41.723;-45.337;163.168;16.168;-6.519;-1.565;3.763
5446603.287;-46.082;-40.643;-40.196;162.423;17.509;-10.133;-8.158;-2.384
5446603.295;-43.213;-39.041;-33.230;163.354;18.962;-7.190;-4.433;-2.384
5446603.303;-38.669;-34.049;-28.610;166.222;22.836;0.522;1.527;1.490
5446603.311;-37.290;-35.465;-24.810;163.540;22.985;10.431;11.139;14.827
5446603.289;-36.731;-35.651;-25.444;166.669;20.564;9.313;8.419;12.219
5446603.297;-33.826;-32.336;-20.266;168.383;20.862;7.674;7.488;9.015
5446603.305;-31.181;-28.312;-18.701;166.185;23.507;6.557;10.766;9.760
5446603.313;-20.117;-15.721;-8.531;170.842;35.241;-1.714;2.496;2.719
5446603.321;-7.898;-4.657;5.811;184.067;47.907;0.410;3.986;8.941
5446603.329;-8.121;-5.588;9.499;180.565;48.131;-4.210;-5.178;7.674
5446603.337;-9.537;-6.855;10.878;180.602;45.225;4.172;7.786;9.574
5446603.345;-3.949;-0.298;11.325;184.253;47.535;14.901;15.981;21.160
5446603.353;-11.325;-9.760;-2.086;173.226;32.634;13.039;19.558;19.334
5446603.361;-20.601;-19.483;-13.150;162.460;20.452;3.017;12.144;9.649
5446603.369;-29.057;-21.867;-11.474;164.323;22.314;-8.605;-6.706;0.000
5446603.377;-35.800;-29.989;-12.517;154.786;27.418;-10.580;-10.319;-5.737
5446603.385;-37.849;-36.247;-19.409;146.814;19.819;-5.588;-2.123;1.676
5446603.393;-35.577;-35.353;-19.409;146.516;17.732;-6.258;-2.161;1.006
5446603.401;-34.906;-30.585;-25.220;150.502;14.342;-13.113;-6.109;0.335
5446603.409;-30.100;-25.220;-20.675;150.949;13.821;-16.801;-4.098;-0.931
5446603.417;-28.983;-26.934;-9.499;149.757;23.469;-15.311;-7.488;-2.943
5446603.425;-34.161;-32.037;-8.680;146.069;22.687;-9.760;0.559;-0.037
5446603.433;-30.883;-25.593;-11.735;153.296;20.787;-11.995;-6.817;-0.559
5446603.441;-23.432;-24.401;-12.293;149.570;21.681;-11.325;-5.849;-2.347
5446603.449;-14.491;-16.913;1.453;153.966;28.946;-4.135;5.513;5.700
5446603.457;-11.139;-5.215;7.302;167.191;31.665;-2.123;2.943;16.764
5446603.465;-14.193;-6.445;-2.757;169.389;26.338;-11.288;-6.147;-1.229
5446603.473;-15.311;-7.227;-0.447;166.781;26.673;-13.299;-6.370;-3.912
5446603.481;-18.477;-11.101;-2.347;156.201;22.016;-12.703;-2.012;-0.522
5446603.489;-22.836;-16.913;-11.362;151.396;14.342;-23.395;-16.354;-11.772
5446603.497;-20.042;-16.876;-5.364;152.364;18.254;-18.701;-14.231;-9.835
5446603.505;-18.664;-14.715;-0.820;152.253;20.899;-6.929;0.484;0.484
5446603.473;-14.976;-10.766;0.820;153.631;23.693;-1.714;3.353;5.439
5446603.481;-18.999;-12.219;-7.190;150.576;15.795;-1.788;5.215;2.757
5446603.489;-13.709;-4.433;-3.800;157.058;20.862;-3.912;2.086;0.522
5446603.497;-2.608;2.235;11.623;163.540;31.330;-1.565;3.874;6.445
5446603.505;-2.198;2.719;7.115;163.093;29.132;-10.692;-7.600;-1.155
5446603.513;1.006;11.213;13.746;164.807;32.969;-9.127;-3.986;1.229
5446603.521;4.992;14.417;23.842;165.105;37.737;-10.356;-2.235;0.857
5446603.529;8.307;14.491;20.191;166.669;28.983;-22.389;-14.789;-6.519
5446603.537;22.724;27.008;26.450;178.888;43.288;-15.497;-7.674;3.800
5446603.545;22.799;29.244;29.393;179.335;48.205;-15.274;-4.955;4.321
5446603.553;10.096;18.775;27.567;172.369;36.284;-26.189;-17.993;-6.296
5446603.561;9.052;17.285;23.209;169.687;33.118;-31.181;-22.687;-15.385
5446603.569;17.844;21.607;32.336;181.682;41.798;-21.830;-14.380;-5.178
5446603.577;30.696;46.566;39.898;191.666;49.695;-15.609;-5.625;-2.682
5446603.585;42.729;63.367;50.217;200.942;58.860;-5.402;4.470;2.533
5446603.593;51.707;74.208;57.295;214.316;66.534;2.831;11.772;8.978
5446603.601;65.714;87.954;70.557;226.423;74.022;2.757;8.605;11.064
5446603.609;79.945;105.202;86.874;240.654;80.355;4.843;10.878;14.640
5446603.617;103.340;135.899;109.896;268.929;98.161;0.075;10.543;10.990
5446603.625;132.620;170.097;135.638;300.854;119.023;1.676;6.407;17.621
5446603.633;151.843;196.956;149.123;327.341;126.734;0.745;8.531;10.245
5446603.641;156.723;203.252;151.657;335.276;120.066;-0.447;7.711;8.531
5446603.649;163.689;208.654;154.898;342.652;120.327;7.451;17.434;18.477
5446603.657;162.050;206.791;146.739;344.217;113.994;6.706;20.266;16.242
5446603.621;153.072;203.103;127.293;342.801;104.606;1.527;14.938;14.640
5446603.629;125.766;181.906;100.769;322.834;72.494;-8.494;3.576;3.651
5446603.637;102.557;158.250;76.741;303.872;51.185;-3.017;10.580;8.382
5446603.645;78.082;132.620;48.801;288.747;38.259;-7.115;1.788;3.092
5446603.653;59.605;111.796;33.043;268.780;28.498;-7.674;2.980;-4.061
5446603.661;45.858;94.920;17.174;251.383;18.962;-5.998;3.651;-5.551
5446603.669;30.994;76.965;-1.006;236.742;4.768;-1.788;6.668;2.347
5446603.677;15.907;61.579;-19.148;221.021;-5.774;5.178;13.672;10.729
5446603.685;5.960;49.695;-30.771;209.548;-11.623;0.745;8.829;6.855
5446603.693;-4.582;37.216;-31.851;195.727;-20.117;-3.651;2.347;5.886
5446603.701;-16.056;24.363;-40.717;177.696;-25.593;-3.502;5.923;4.731
5446603.709;-24.326;24.550;-48.503;168.942;-27.381;-0.633;7.860;2.347
5446603.717;-27.008;26.934;-50.925;164.323;-33.006;-3.353;-0.969;-3.725
5446603.725;-23.171;27.083;-41.947;165.068;-28.014;2.272;5.402;2.235
5446603.733;-33.565;15.125;-52.042;153.147;-35.800;1.155;4.806;-1.453
5446603.741;-47.088;3.390;-61.877;141.300;-42.766;-2.943;-2.868;-9.388
5446603.749;-57.630;-8.680;-69.104;127.442;-50.142;-1.565;0.186;-7.302
5446603.757;-60.797;-15.534;-71.414;118.054;-54.836;4.806;3.017;7.153
5446603.765;-65.342;-24.252;-70.743;107.512;-52.974;6.780;5.960;8.829
5446603.773;-67.428;-25.891;-70.594;102.036;-51.595;4.470;5.849;-1.155
5446603.781;-67.726;-23.134;-72.680;104.085;-53.979;-4.284;-6.482;-5.178
5446603.789;-57.146;-11.958;-62.101;116.713;-44.554;5.402;6.668;2.980
5446603.797;-57.667;-14.007;-54.799;116.080;-44.741;5.104;10.207;0.075
5446603.805;-65.491;-24.103;-57.183;105.910;-52.340;-2.757;4.172;-8.941
5446603.860;-71.824;-32.932;-65.453;96.038;-59.716;-0.820;7.898;-3.092
5446603.868;-73.835;-36.620;-68.545;89.966;-63.255;-1.080;5.402;-1.602
5446603.876;-74.692;-35.428;-66.124;89.556;-64.373;-0.261;4.284;-0.261
5446603.884;-80.466;-40.159;-69.961;83.260;-67.987;-3.949;1.974;1.118
5446603.892;-72.569;-36.992;-61.542;85.868;-64.000;-7.004;-2.049;2.906
5446603.900;-68.061;-34.794;-56.401;87.135;-60.350;-9.872;-7.525;3.614
5446603.908;-69.328;-32.783;-62.473;87.544;-62.063;-12.703;-6.370;-6.519
5446603.916;-68.620;-29.355;-58.077;85.682;-65.826;-12.219;-2.682;-6.557
5446603.924;-67.316;-30.324;-51.260;82.254;-60.610;-11.958;-3.166;-7.227
5446603.932;-71.824;-37.327;-58.785;77.896;-60.201;-14.789;-9.052;-8.307
5446603.940;-77.449;-42.580;-62.287;71.749;-69.179;-13.188;-7.935;-6.407
5446603.948;-80.504;-45.039;-67.502;67.465;-74.282;-2.794;-1.527;7.227
5446603.956;-76.294;-41.798;-66.236;69.849;-69.626;0.931;0.298;6.966
5446603.964;-76.219;-44.517;-55.246;68.136;-63.814;-0.373;-0.149;2.757
5446603.972;-75.921;-43.921;-52.676;70.594;-60.648;1.602;5.178;1.304
5446603.980;-73.947;-41.239;-54.650;72.196;-60.759;-2.123;-2.272;-0.186
5446603.988;-72.978;-40.159;-60.275;70.445;-61.765;-5.700;-3.316;-3.576
5446603.996;-71.377;-37.625;-52.974;67.316;-58.748;-7.749;-3.614;-9.388
5446604.004;-72.122;-41.611;-47.758;64.522;-58.636;-14.454;-13.225;-14.342
5446604.012;-73.053;-44.592;-50.217;60.983;-60.052;-10.766;-8.196;-6.370
5446604.020;-70.669;-42.133;-50.589;59.716;-54.836;-9.537;-9.052;-3.763
5446604.028;-65.006;-37.812;-45.076;59.456;-47.348;-5.290;-2.123;-3.763
5446604.036;-62.324;-35.949;-42.841;64.224;-47.684;0.186;2.794;5.625
5446604.044;-53.570;-26.263;-35.837;72.718;-40.419;9.052;9.127;13.411
5446604.025;-54.576;-27.604;-41.090;70.333;-41.835;-0.112;3.092;-0.335
5446604.033;-57.109;-25.667;-45.449;71.265;-50.105;-5.104;-4.843;4.023
5446604.041;-63.293;-32.671;-44.070;62.287;-58.934;-13.337;-7.413;-8.121
5446604.049;-68.061;-40.308;-49.323;55.879;-58.636;-24.959;-15.311;-20.452
5446604.057;-65.640;-35.092;-49.695;60.648;-58.785;-25.555;-16.987;-15.348
5446604.065;-62.585;-33.490;-44.070;61.318;-54.277;-23.358;-18.254;-9.164
5446604.073;-60.759;-34.235;-43.400;58.822;-48.019;-14.305;-7.041;-2.459
5446604.081;-60.014;-33.751;-45.560;57.891;-50.105;-9.798;3.017;-4.545
5446604.089;-54.315;-25.705;-42.915;65.453;-50.701;-5.923;1.378;2.682
5446604.097;-56.960;-29.914;-47.162;60.648;-50.515;-13.001;-8.829;-2.384
5446604.105;-64.932;-35.912;-50.813;52.601;-52.899;-16.838;-12.107;-7.935
5446604.113;-62.436;-32.261;-48.578;55.097;-51.297;-12.629;-6.929;-8.568
5446604.121;-58.115;-30.398;-50.478;52.676;-51.707;-10.766;-0.931;-7.153
5446604.129;-60.461;-31.479;-54.091;53.644;-55.283;-8.419;3.055;-0.335
5446604.137;-65.155;-38.370;-56.103;43.288;-62.436;-10.878;-2.459;-1.416
5446604.145;-63.665;-35.577;-52.787;42.133;-57.518;-11.884;-7.674;-2.272
5446604.153;-59.307;-31.143;-47.311;50.515;-54.203;-9.947;-2.906;-1.155
5446604.161;-54.166;-30.845;-40.494;48.950;-47.274;-13.895;-7.935;-6.109
5446604.169;-47.684;-19.073;-35.204;59.754;-41.425;-11.474;-7.935;-3.949
5446604.177;-55.060;-24.885;-49.360;53.719;-50.813;-13.523;-6.706;-8.792
5446604.185;-54.799;-27.269;-50.776;48.690;-49.323;-12.293;-5.811;-3.912
5446604.193;-46.268;-19.073;-40.829;54.576;-46.305;-2.980;1.043;8.307
5446604.201;-50.962;-24.699;-45.672;49.248;-54.166;-7.041;-1.006;-7.562
5446604.209;-51.744;-22.836;-47.199;56.438;-57.109;-1.863;3.874;-4.098
5446604.147;-46.566;-18.813;-40.568;59.865;-44.890;1.639;3.316;2.347
5446604.155;-47.460;-20.452;-43.884;51.484;-44.964;-4.955;-1.416;-0.782
5446604.163;-47.311;-19.036;-45.784;48.690;-48.280;-8.866;1.602;-2.384
5446604.171;-46.901;-16.019;-46.007;52.713;-48.727;-14.976;-7.786;-3.688
5446604.179;-40.755;-4.247;-38.520;67.428;-46.454;-14.752;-11.586;-2.906
5446604.187;-17.881;19.856;-16.615;91.158;-27.157;-3.427;0.261;2.533
5446604.195;2.123;44.145;1.974;110.641;-14.529;-0.298;3.465;6.631
5446604.203;26.673;72.010;22.687;134.297;-4.023;-1.639;3.763;3.688
5446604.211;66.236;109.933;63.963;164.434;26.301;-2.608;2.049;4.657
5446604.219;99.540;145.286;95.665;190.958;46.752;-10.133;-3.986;-3.725
5446604.227;126.287;176.020;117.794;217.482;61.728;-12.033;-5.700;-3.204
5446604.235;154.003;205.152;142.120;245.385;86.613;7.041;15.870;17.136
5446604.243;161.678;211.671;156.164;247.508;95.218;9.499;20.117;10.580
5446604.251;167.564;222.325;155.941;251.606;94.622;10.803;19.260;10.878
5446604.259;178.069;233.240;167.340;255.443;105.388;20.228;23.432;21.532
5446604.267;175.424;226.051;165.813;251.755;107.102;18.664;20.228;18.738
5446604.275;153.109;201.128;141.934;230.260;89.183;8.233;10.319;14.268
5446604.283;132.695;181.012;122.227;205.524;76.145;1.453;4.321;14.231
5446604.291;107.251;154.153;96.597;176.430;55.060;-3.986;1.825;5.476
5446604.299;87.917;130.981;85.048;151.396;43.027;-5.774;-0.298;-2.161
5446604.307;77.188;114.553;82.366;134.073;42.394;1.565;8.233;8.680
5446604.315;58.934;95.107;66.869;115.335;34.012;1.602;7.898;3.576
5446604.323;42.282;77.337;49.621;98.087;18.626;8.568;8.382;9.090
5446604.331;30.287;60.201;37.104;80.168;6.072;10.207;11.772;13.635
5446604.327;24.848;54.911;32.857;75.400;6.296;2.682;4.694;11.697
5446604.335;28.163;56.587;36.769;75.139;13.299;-2.123;-0.857;3.949
5446604.343;18.477;42.729;30.138;62.846;4.955;-4.657;-3.874;-1.118
5446604.351;0.000;21.495;18.291;40.717;-9.909;-8.531;-9.537;0.894
5446604.359;-6.743;14.529;13.076;33.416;-12.144;-5.849;-5.104;-2.943
5446604.367;-7.339;14.640;12.182;39.786;-11.548;4.731;4.061;5.029
5446604.375;-8.494;11.139;16.056;34.980;-9.462;13.486;12.740;6.966
5446604.383;-13.933;1.565;13.188;22.687;-16.876;15.423;15.311;6.258
5446604.391;-16.578;0.671;8.866;19.111;-16.540;14.007;10.096;4.470
5446604.399;-17.434;0.820;11.399;20.154;-17.360;14.678;11.958;7.935
5446604.407;-19.819;-1.974;8.717;20.042;-21.234;15.683;14.156;12.033
5446604.415;-24.587;-8.270;2.384;14.082;-27.865;8.307;7.674;6.445
5446604.423;-32.037;-16.503;-8.196;4.470;-36.918;-1.118;2.012;-2.980
5446604.431;-32.373;-15.609;-5.029;5.215;-39.004;3.204;5.774;4.172
5446604.439;-31.963;-17.099;-1.043;2.272;-38.035;5.960;10.245;3.502
5446604.447;-29.206;-16.354;7.078;1.565;-28.387;5.700;12.740;4.508
5446604.455;-26.897;-16.280;10.468;-0.224;-24.587;7.153;14.454;9.425
5446604.463;-35.092;-26.003;-0.745;-11.511;-33.490;1.490;9.984;0.633
5446604.471;-39.525;-28.946;-4.992;-12.591;-41.686;1.863;7.823;6.333
5446604.479;-40.941;-28.498;-7.451;-11.735;-44.815;2.235;8.270;9.015
5446604.487;-47.088;-35.278;-13.672;-21.011;-52.303;1.565;11.809;1.565
5446604.495;-46.268;-34.086;-14.156;-21.569;-50.701;4.023;6.482;9.425
5446604.503;-41.611;-31.330;-3.837;-23.693;-40.457;-8.568;-5.402;-9.388
5446604.511;-35.837;-27.232;1.825;-22.352;-35.912;1.043;5.215;-0.335
5446604.476;-32.037;-26.450;1.863;-22.128;-34.943;6.557;7.972;9.090
5446604.484;-34.310;-27.046;3.800;-22.687;-37.365;8.680;10.841;13.113
5446604.492;-38.557;-26.524;-1.192;-26.301;-42.096;8.121;12.144;9.537
5446604.500;-39.302;-27.306;-5.551;-22.799;-45.933;3.278;8.158;7.600
5446604.508;-41.239;-30.361;-13.709;-23.209;-47.870;-11.250;-9.611;-9.090
5446604.516;-41.761;-29.989;-14.454;-28.461;-50.664;-16.876;-13.411;-9.164
5446604.524;-40.233;-30.659;1.341;-32.410;-43.549;-17.658;-14.789;-4.545
5446604.532;-41.425;-30.808;-3.353;-31.330;-42.915;-13.672;-11.139;-5.290
5446604.540;-40.419;-34.198;-4.768;-33.155;-41.574;-7.302;-6.296;-1.863
5446604.548;-38.408;-34.571;3.651;-36.955;-37.253;0.112;1.602;5.774
5446604.556;-40.233;-31.777;-0.149;-38.631;-37.327;-7.339;-5.290;-5.625
5446604.564;-34.161;-24.922;2.161;-29.951;-35.390;-0.335;0.373;7.637
5446604.572;-37.588;-32.224;-2.459;-36.396;-37.067;1.602;4.210;9.537
5446604.580;-41.462;-39.563;-5.513;-40.755;-39.265;-3.725;-0.969;-0.745
5446604.588;-43.400;-37.253;-8.009;-38.892;-41.015;-6.333;-3.986;-3.129
5446604.596;-43.958;-35.726;-6.296;-37.700;-43.698;-5.290;-2.980;2.198
5446604.604;-46.641;-39.898;-15.050;-40.643;-48.243;-12.182;-9.499;-0.335
5446604.612;-49.882;-42.990;-20.079;-45.672;-50.627;-16.689;-8.866;-10.207
5446604.620;-50.515;-45.747;-17.434;-50.105;-50.664;-13.225;-6.519;-6.780
5446604.628;-49.435;-45.188;-18.142;-50.776;-51.409;-5.327;1.118;0.186
5446604.636;-53.272;-46.492;-15.944;-56.326;-54.725;-3.614;-0.596;4.694
5446604.644;-56.364;-50.478;-20.340;-59.679;-58.636;-7.711;-3.017;-4.135
5446604.652;-61.952;-59.791;-28.946;-67.949;-62.287;-18.105;-13.970;-12.182
5446604.660;-58.897;-53.346;-27.642;-61.244;-58.189;-24.661;-19.446;-18.924
5446604.702;-48.727;-43.511;-23.320;-51.297;-52.229;-16.317;-8.717;-11.139
5446604.710;-45.747;-41.462;-15.758;-47.944;-47.982;-15.832;-11.176;-11.139
5446604.718;-42.319;-37.700;-8.866;-44.405;-43.660;-18.515;-14.566;-9.499
5446604.726;-38.855;-34.235;-7.004;-42.357;-41.984;-21.830;-15.423;-7.153
5446604.734;-33.900;-28.722;-6.333;-40.121;-40.047;-22.687;-16.093;-9.947
5446604.742;-28.573;-23.134;-2.608;-35.390;-35.539;-14.044;-6.184;-4.880
5446604.750;-29.020;-21.867;-3.017;-28.461;-32.559;-7.898;-5.849;4.508
5446604.758;-38.296;-30.138;-12.107;-33.975;-36.806;-11.064;-9.835;-7.302
5446604.766;-39.786;-32.708;-10.021;-38.594;-39.376;-6.370;-4.247;-4.955
5446604.774;-42.617;-37.253;-19.595;-44.107;-47.050;-13.672;-11.027;-6.184
5446604.782;-45.411;-43.288;-20.377;-48.466;-52.154;-21.942;-18.068;-13.039
5446604.790;-43.586;-40.680;-15.534;-47.907;-48.093;-22.277;-17.174;-8.047
5446604.798;-44.554;-42.096;-20.713;-48.876;-48.801;-23.656;-21.607;-3.874
5446604.806;-38.780;-35.726;-15.385;-43.474;-42.170;-20.824;-15.721;-9.798
5446604.814;-39.041;-34.720;-13.411;-44.480;-42.208;-19.185;-11.660;-12.070
5446604.822;-36.471;-32.932;-13.597;-42.170;-38.669;-10.766;-8.494;-4.359
5446604.830;-36.135;-32.336;-17.360;-42.431;-37.961;-4.247;-0.447;-0.149
5446604.838;-36.359;-31.777;-19.856;-41.947;-41.053;-2.831;4.470;0.596
5446604.846;-32.596;-26.487;-13.299;-38.594;-37.812;-5.662;-4.843;7.711
5446604.854;-35.129;-29.989;-22.575;-39.749;-40.941;-15.236;-10.841;-1.229
5446604.862;-41.462;-36.992;-26.524;-44.107;-42.766;-19.632;-11.474;-9.686
5446604.870;-47.050;-42.170;-27.157;-52.191;-47.423;-23.432;-19.372;-14.640
5446604.878;-44.517;-37.737;-27.716;-52.750;-48.019;-21.309;-20.117;-13.821
5446604.886;-41.276;-32.522;-27.455;-56.140;-45.113;-14.007;-10.766;-5.923
5446604.926;-44.741;-36.098;-28.387;-51.111;-50.403;-13.895;-9.388;-0.931
5446604.934;-49.397;-40.531;-26.934;-49.286;-48.168;-13.895;-12.182;-3.092
5446604.942;-49.509;-41.202;-24.512;-51.260;-42.357;-5.253;-3.017;4.098
5446604.950;-50.366;-40.941;-25.593;-51.521;-49.248;-9.537;-11.325;-4.396
5446604.958;-41.835;-31.181;-14.044;-43.437;-44.927;-4.768;-5.178;0.671
5446604.966;-28.796;-18.664;-2.682;-34.235;-34.943;-2.086;-1.155;-0.633
5446604.974;-19.372;-11.735;2.570;-25.742;-27.791;-2.086;0.782;-5.774
5446604.982;-24.848;-14.305;-3.465;-29.765;-36.135;-4.098;0.112;-1.118
5446604.990;-32.298;-19.670;2.682;-35.986;-42.655;-4.992;-1.825;-2.235
5446604.998;-39.451;-28.387;0.745;-44.033;-41.910;-7.600;-2.496;-3.837
5446605.006;-37.551;-30.845;3.688;-44.443;-37.178;-9.462;-7.786;-1.714
5446605.014;-40.047;-32.410;-2.272;-49.397;-45.076;-12.219;-12.778;-5.439
5446605.022;-38.818;-28.014;-2.272;-49.435;-47.199;-11.884;-13.039;-5.104
5446605.030;-39.898;-30.249;7.115;-52.601;-44.741;-6.743;-5.290;-2.459
5446605.038;-35.018;-28.722;13.188;-51.036;-43.139;-1.900;-0.186;3.092
5446605.046;-31.739;-23.805;11.511;-43.176;-40.047;-1.006;1.453;6.557
5446605.054;-29.653;-21.271;16.764;-39.861;-38.669;-14.119;-15.758;-11.660
5446605.062;-28.498;-20.862;21.569;-40.680;-36.769;-17.211;-10.990;-13.784
5446605.070;-25.816;-18.030;22.762;-38.184;-37.439;-9.425;-1.304;2.906
5446605.078;-24.885;-18.552;20.675;-42.319;-35.428;-8.643;2.049;-3.092
5446605.086;-21.793;-15.423;24.550;-34.682;-32.857;-1.527;2.906;5.253
5446605.094;-20.415;-13.523;29.840;-29.802;-31.963;1.192;1.304;11.735
5446605.102;-19.781;-13.039;27.828;-32.000;-30.138;4.768;7.562;9.276
5446605.110;-22.054;-8.270;31.255;-32.336;-32.187;2.570;2.831;4.284
5446605.109;-29.169;-15.758;25.146;-41.276;-39.339;-6.668;-9.090;-4.619
5446605.117;-28.722;-19.744;23.246;-44.145;-39.823;-5.998;-6.817;2.533
5446605.125;-21.718;-13.970;28.685;-36.284;-32.485;-6.668;-4.470;2.049
5446605.133;-18.254;-9.350;30.398;-33.043;-33.975;-4.433;3.688;4.247
5446605.141;-19.707;-11.660;28.796;-36.284;-34.459;-10.915;-5.215;1.043
5446605.149;-18.403;-8.084;27.753;-31.441;-31.777;-5.960;-4.359;3.912
5446605.157;-19.260;-8.605;26.189;-34.608;-31.292;-2.272;0.112;4.172
5446605.165;-24.326;-15.385;16.615;-41.239;-43.958;-8.009;-4.359;-4.619
5446605.173;-24.512;-16.652;26.487;-40.866;-39.414;-6.743;-7.674;-1.378
5446605.181;-25.928;-19.073;36.769;-47.050;-30.585;-5.588;-3.837;6.631
5446605.189;-25.481;-17.919;32.522;-49.472;-34.682;-9.574;-4.545;0.186
5446605.197;-22.203;-14.156;30.845;-44.182;-33.602;-3.278;0.559;5.662
5446605.205;-21.197;-10.543;29.095;-39.414;-34.235;7.041;11.660;12.927
5446605.213;-23.767;-11.437;21.644;-34.943;-38.221;3.390;9.462;3.576
5446605.221;-28.536;-14.007;13.635;-40.494;-43.698;-2.645;1.788;3.055
5446605.229;-18.440;-5.215;29.542;-31.590;-38.259;-0.037;5.290;9.388
5446605.237;-7.078;3.166;41.015;-22.873;-29.616;-3.316;3.465;4.843
5446605.245;-3.837;4.061;43.660;-21.532;-23.395;-0.037;5.513;7.190
5446605.253;-10.133;-0.894;35.167;-29.206;-25.667;4.508;9.499;14.529
5446605.261;-17.136;-7.153;26.822;-35.614;-34.124;3.912;7.711;7.339
5446605.269;-23.954;-15.385;22.165;-43.698;-42.133;0.782;6.668;1.788
5446605.277;-19.409;-10.282;23.805;-39.153;-40.270;-0.224;4.098;2.421
5446605.285;-17.472;-8.345;33.081;-38.818;-35.502;-4.582;-1.676;0.522
5446605.293;-17.770;-10.543;36.247;-40.047;-30.026;-9.574;-6.109;3.166
5446605.286;-15.795;-6.929;33.081;-38.520;-31.032;-11.586;-11.064;3.614
5446605.294;-15.832;-7.153;32.894;-41.388;-31.404;-5.141;0.820;3.837
5446605.302;-15.050;-6.072;31.330;-36.620;-35.092;-1.751;5.104;11.474
5446605.310;-22.128;-10.505;21.383;-38.780;-40.978;-13.262;-7.823;-4.098
5446605.318;-23.432;-10.692;18.254;-40.680;-40.978;-11.399;-3.688;-8.717
5446605.326;-19.111;-7.972;19.222;-41.872;-39.637;-6.780;2.235;-10.990
5446605.334;-14.268;-4.619;21.011;-38.557;-36.433;-6.258;-2.645;-10.394
5446605.342;-11.139;-0.410;27.865;-32.373;-34.422;-2.272;0.075;-3.353
5446605.350;-9.164;1.080;36.173;-29.951;-27.828;9.537;14.454;16.764
5446605.358;-18.142;-11.362;24.922;-43.698;-34.869;-6.855;-3.241;1.341
5446605.366;-15.013;-2.757;19.632;-40.159;-39.451;-16.019;-9.276;-7.562
5446605.374;-8.345;6.631;25.667;-30.659;-37.886;-7.451;4.694;-2.496
5446605.382;-2.161;10.915;32.522;-26.673;-24.214;0.149;7.041;5.104
5446605.390;-12.331;-1.565;19.632;-39.041;-33.490;-5.998;-5.290;-6.258
5446605.398;-14.678;-4.768;15.199;-40.494;-41.761;-0.224;1.565;-1.974
5446605.406;-10.692;0.820;21.830;-34.980;-36.694;5.439;6.594;15.199
5446605.414;-11.139;0.335;24.103;-38.706;-33.379;-3.763;0.894;-2.123
5446605.422;-16.801;-7.153;13.299;-44.294;-42.133;-3.129;5.513;-2.906
5446605.430;-19.483;-9.313;7.600;-40.941;-45.374;3.912;10.766;10.468
5446605.438;-18.217;-6.668;8.754;-42.543;-39.302;-6.966;-0.857;-0.857
5446605.446;-13.560;-2.012;16.317;-40.308;-34.608;-6.519;-1.639;-4.880
5446605.454;-11.399;-1.267;11.362;-41.500;-36.247;2.570;6.147;3.278
5446605.462;-18.217;-8.345;6.892;-47.386;-41.947;-3.390;-3.092;3.129
5446605.470;-16.131;-4.508;12.182;-43.437;-40.568;-7.004;-6.855;3.502
5446605.435;-19.260;-5.811;4.955;-46.268;-42.506;-17.099;-14.901;-7.153
5446605.443;-13.784;-0.410;9.686;-46.641;-32.596;-11.735;-5.513;-7.078
5446605.451;-5.551;6.445;18.142;-42.878;-23.656;4.359;4.880;7.972
5446605.459;-11.474;0.745;12.293;-43.958;-33.192;7.413;10.617;7.339
5446605.467;-19.744;-4.806;2.645;-46.827;-39.935;0.037;2.533;-1.229
5446605.475;-39.265;-23.730;-16.354;-66.198;-53.458;-8.531;-7.264;-5.066
5446605.483;-51.223;-33.714;-28.312;-73.165;-62.473;-14.827;-8.307;-4.508
5446605.491;-62.250;-45.560;-40.270;-82.925;-72.271;-27.940;-24.848;-11.101
5446605.499;-55.581;-40.233;-33.453;-75.549;-65.602;-28.089;-24.140;-13.188
5446605.507;-59.642;-43.921;-38.072;-76.443;-70.482;-30.585;-20.787;-22.799
5446605.515;-67.353;-52.527;-43.288;-84.341;-75.735;-32.894;-23.991;-27.083
5446605.523;-73.202;-58.971;-44.964;-91.605;-81.062;-20.154;-13.150;-15.236
5446605.531;-71.190;-58.450;-40.159;-90.189;-80.578;-6.706;0.708;-6.035
5446605.539;-60.424;-46.380;-32.932;-81.509;-69.737;-2.198;1.378;-1.229
5446605.547;-56.997;-40.606;-21.569;-74.767;-66.496;-9.723;-7.078;-8.643
5446605.555;-55.619;-40.382;-12.666;-80.541;-66.087;-15.311;-10.170;-9.947
5446605.563;-55.879;-37.625;-17.956;-73.276;-70.818;-20.377;-15.572;-15.646
5446605.571;-49.062;-30.398;-7.004;-62.436;-67.838;-14.864;-9.425;-7.153
5446605.579;-56.215;-40.233;-11.362;-76.294;-74.916;-22.016;-14.044;-17.695
5446605.587;-61.430;-50.515;-9.090;-88.401;-79.311;-21.346;-13.486;-16.764
5446605.595;-53.234;-44.554;0.261;-81.174;-74.990;-15.907;-8.270;-11.884
5446605.603;-59.791;-49.882;-5.923;-87.582;-87.172;-24.699;-15.385;-17.993
5446605.611;-56.177;-45.784;2.123;-82.478;-85.458;-22.799;-10.319;-16.913
5446605.619;-34.794;-26.785;23.432;-65.565;-63.404;-11.437;1.416;-11.995
5446605.661;-21.718;-11.884;37.551;-55.246;-56.773;-1.527;9.015;0.484
5446605.669;-22.240;-14.268;37.625;-57.109;-59.791;0.969;15.423;-0.596
5446605.677;-19.893;-15.758;41.910;-59.195;-58.934;-0.894;14.491;-4.359
5446605.685;-28.461;-25.891;35.949;-70.184;-63.442;-11.399;-1.825;-10.394
5446605.693;-21.197;-16.056;37.067;-52.080;-63.181;-4.321;5.290;-0.410
5446605.701;-12.629;-8.382;53.868;-42.953;-49.174;4.135;14.119;14.231
5446605.709;-18.179;-17.397;54.315;-54.687;-47.982;1.751;13.076;10.505
5446605.717;-28.461;-27.530;40.978;-67.838;-64.597;-11.325;4.694;-5.290
5446605.725;-30.249;-27.493;29.840;-72.457;-70.967;-18.924;1.267;-13.374
5446605.733;-33.341;-33.379;32.932;-77.300;-76.704;-33.416;-16.689;-25.108
5446605.741;-20.787;-27.046;54.091;-73.761;-63.740;-35.129;-19.073;-31.516
5446605.749;-15.423;-20.266;55.283;-62.361;-58.562;-37.141;-19.483;-35.837
5446605.757;-16.280;-18.403;51.036;-65.640;-60.759;-31.218;-14.342;-30.808
5446605.765;-31.404;-37.849;36.992;-92.834;-73.463;-33.341;-16.913;-31.590
5446605.773;-53.458;-59.977;14.491;-107.251;-102.110;-52.117;-34.124;-54.389
5446605.781;-87.172;-91.679;-21.234;-132.173;-141.524;-79.274;-65.565;-79.311
5446605.789;-126.101;-140.332;-53.309;-176.281;-174.381;-106.953;-96.262;-105.128
5446605.797;-151.321;-162.572;-74.320;-201.203;-193.343;-144.243;-130.683;-146.404
5446605.805;-185.668;-188.686;-105.649;-229.180;-225.343;-185.892;-170.879;-188.574
5446605.813;-224.113;-234.507;-153.184;-270.903;-278.279;-230.521;-213.385;-236.966
5446605.821;-279.769;-288.971;-211.261;-330.694;-330.657;-281.371;-269.823;-283.122
5446605.829;-346.303;-351.965;-278.316;-398.830;-394.061;-342.764;-329.576;-340.343
5446605.837;-430.718;-434.071;-365.861;-478.737;-484.400;-423.267;-404.492;-421.405
5446605.845;-517.517;-518.225;-457.168;-559.799;-574.253;-502.616;-477.098;-500.232
5446605.870;-570.416;-568.740;-499.710;-613.332;-623.688;-547.878;-519.529;-545.308
5446605.878;-577.495;-588.596;-510.439;-631.846;-625.104;-567.548;-539.869;-563.823
5446605.886;-602.342;-612.922;-535.436;-655.465;-649.393;-602.938;-571.348;-598.431
5446605.894;-627.153;-631.139;-561.662;-669.397;-674.054;-634.044;-606.068;-622.794
5446605.902;-644.475;-650.957;-579.692;-683.218;-695.139;-652.410;-621.267;-638.030
5446605.910;-680.722;-666.380;-621.378;-712.350;-731.014;-691.116;-657.178;-674.240
5446605.918;-682.399;-676.401;-629.537;-723.898;-741.109;-711.419;-675.842;-701.025
5446605.926;-690.408;-693.947;-630.245;-750.534;-752.769;-721.477;-686.124;-710.227
5446605.934;-694.729;-698.008;-647.418;-753.775;-761.859;-724.420;-691.116;-717.714
5446605.942;-685.453;-687.279;-634.976;-747.554;-752.285;-707.731;-673.123;-698.715
5446605.950;-697.970;-701.807;-638.664;-762.232;-754.409;-715.293;-681.914;-702.590
5446605.958;-713.989;-723.563;-657.178;-785.701;-768.602;-744.164;-708.476;-731.424
5446605.966;-723.749;-728.555;-663.884;-793.859;-776.686;-767.186;-722.110;-759.065
5446605.974;-723.489;-723.042;-664.592;-786.297;-775.605;-765.845;-716.187;-758.767
5446605.982;-717.491;-715.181;-660.867;-768.788;-772.029;-761.189;-711.195;-755.414
5446605.990;-710.785;-710.897;-650.771;-765.398;-767.075;-767.112;-717.044;-762.679
5446605.998;-715.069;-714.734;-652.745;-772.998;-775.643;-773.221;-724.271;-769.943
5446606.006;-707.731;-713.691;-654.943;-773.408;-778.772;-773.594;-725.910;-772.700
5446606.014;-699.572;-705.868;-648.908;-766.888;-773.668;-790.060;-741.333;-788.160
5446606.022;-675.581;-677.183;-621.527;-740.662;-752.434;-778.288;-730.641;-779.405
5446606.030;-659.004;-657.663;-605.993;-726.096;-745.319;-786.334;-738.800;-786.744
5446606.038;-626.221;-620.335;-577.271;-689.924;-722.334;-788.309;-740.811;-791.065
5446606.046;-599.772;-591.055;-554.360;-664.666;-708.997;-790.060;-744.499;-792.816
5446606.054;-595.003;-582.822;-552.386;-656.471;-712.276;-798.665;-756.085;-806.823
5446606.020;-611.618;-595.115;-576.526;-668.392;-738.576;-814.237;-770.390;-821.128
5446606.028;-644.103;-626.259;-618.286;-700.243;-769.943;-834.577;-785.179;-838.824
5446606.036;-672.266;-660.680;-649.542;-733.100;-810.847;-868.514;-810.586;-877.418
5446606.044;-686.236;-677.928;-662.319;-749.826;-828.728;-874.512;-820.644;-880.957
5446606.052;-706.725;-701.323;-686.012;-773.668;-835.471;-894.144;-854.507;-926.964
5446606.060;-779.815;-774.637;-759.289;-846.088;-903.830;-943.728;-915.416;-985.749
5446606.068;-836.253;-832.602;-822.656;-902.563;-956.431;-973.865;-946.149;-1015.291
5446606.076;-860.840;-854.358;-855.848;-920.333;-984.930;-975.579;-945.963;-1011.565
5446606.084;-896.528;-887.997;-896.119;-951.327;-1010.597;-985.339;-953.302;-1021.624
5446606.092;-957.921;-951.476;-958.107;-1010.038;-1056.753;-1020.655;-989.586;-1055.039
5446606.100;-993.572;-991.598;-995.658;-1048.632;-1084.730;-1033.433;-999.942;-1070.425
5446606.108;-1017.377;-1017.675;-1022.741;-1073.815;-1108.460;-1041.964;-1009.256;-1075.827
5446606.116;-1038.201;-1045.093;-1038.872;-1096.614;-1135.766;-1063.906;-1031.905;-1097.061
5446606.124;-1066.104;-1068.562;-1062.527;-1123.026;-1151.264;-1098.514;-1064.464;-1138.337
5446606.132;-1099.035;-1105.554;-1099.184;-1160.614;-1179.278;-1119.785;-1091.696;-1159.087
5446606.140;-1124.255;-1138.337;-1122.579;-1184.903;-1196.265;-1145.713;-1119.897;-1186.729
5446606.148;-1158.938;-1165.606;-1162.887;-1219.660;-1227.185;-1164.898;-1144.260;-1210.049
5446606.156;-1173.466;-1174.807;-1175.515;-1224.168;-1238.808;-1154.207;-1138.859;-1205.616
5446606.164;-1200.475;-1204.647;-1206.845;-1249.872;-1265.816;-1165.643;-1155.958;-1219.362
5446606.172;-1246.259;-1255.162;-1244.135;-1304.969;-1302.808;-1188.852;-1186.244;-1242.310
5446606.180;-1324.862;-1331.195;-1316.033;-1378.693;-1379.214;-1256.652;-1253.672;-1316.033
5446606.188;-1353.659;-1362.786;-1342.185;-1406.521;-1412.630;-1289.025;-1283.400;-1352.094
5446606.196;-1380.481;-1390.129;-1361.892;-1428.314;-1430.474;-1334.474;-1330.674;-1395.084
5446606.204;-1530.424;-1536.422;-1513.101;-1572.557;-1576.543;-1476.146;-1472.309;-1542.755
5446606.246;-1583.174;-1592.860;-1577.549;-1638.532;-1638.494;-1536.496;-1535.527;-1611.672
5446606.254;-1579.076;-1588.650;-1572.147;-1628.883;-1637.265;-1507.401;-1517.572;-1587.011
5446606.262;-1591.034;-1594.163;-1575.425;-1630.262;-1634.397;-1496.784;-1509.003;-1578.778
5446606.270;-1593.456;-1592.375;-1578.033;-1625.605;-1622.178;-1496.226;-1508.296;-1575.500
5446606.278;-1618.341;-1625.270;-1606.308;-1661.777;-1656.003;-1525.581;-1535.639;-1608.431
5446606.286;-1628.436;-1636.669;-1599.900;-1669.042;-1657.046;-1536.049;-1552.068;-1612.715
5446606.294;-1451.597;-1452.453;-1429.208;-1483.820;-1477.562;-1351.535;-1371.838;-1428.425
5446606.302;-1307.242;-1311.265;-1296.885;-1350.492;-1347.438;-1217.686;-1236.387;-1300.536
5446606.310;-1378.618;-1370.534;-1361.072;-1411.289;-1419.000;-1289.733;-1311.488;-1367.107
5446606.318;-1522.936;-1508.631;-1501.068;-1548.566;-1550.056;-1428.090;-1448.095;-1505.203
5446606.326;-1670.979;-1659.505;-1656.003;-1696.050;-1694.076;-1580.231;-1598.708;-1665.503
5446606.334;-1868.606;-1853.854;-1852.997;-1891.665;-1890.436;-1789.741;-1812.801;-1876.131
5446606.342;-2023.280;-2006.218;-2007.112;-2045.818;-2053.752;-1957.491;-1983.233;-2040.490
5446606.350;-2379.715;-2359.301;-2359.301;-2402.216;-2412.349;-2339.259;-2365.000;-2428.964
5446606.358;-2743.639;-2713.613;-2724.379;-2765.320;-2783.611;-2724.379;-2747.588;-2821.870
5446606.366;-2808.794;-2771.653;-2795.309;-2829.470;-2857.931;-2821.945;-2845.600;-2916.977
5446606.374;-2793.260;-2751.201;-2777.465;-2812.445;-2848.059;-2835.765;-2862.960;-2924.427
5446606.382;-2787.374;-2739.728;-2774.447;-2804.026;-2846.159;-2847.277;-2875.812;-2935.938
5446606.390;-2677.403;-2628.379;-2681.315;-2693.236;-2734.959;-2726.540;-2753.995;-2818.517
5446606.398;-2560.280;-2505.816;-2562.031;-2584.159;-2617.948;-2612.658;-2644.062;-2706.870
5446606.406;-2467.148;-2424.233;-2472.885;-2499.260;-2533.793;-2514.794;-2554.841;-2611.689
5446606.414;-2340.674;-2286.062;-2345.964;-2371.743;-2402.142;-2367.757;-2418.868;-2467.036
5446606.422;-2185.591;-2129.599;-2200.305;-2220.497;-2236.105;-2198.741;-2254.471;-2304.837
5446606.430;-2143.458;-2091.750;-2165.474;-2181.940;-2190.396;-2147.146;-2205.670;-2266.765
5446606.440;-2225.042;-2169.460;-2251.864;-2255.589;-2256.110;-2207.048;-2263.673;-2325.475
5446606.448;-2190.880;-2137.273;-2224.371;-2222.322;-2214.126;-2169.982;-2228.431;-2276.786
5446606.456;-2102.628;-2057.627;-2144.240;-2143.458;-2123.192;-2071.224;-2128.482;-2173.744
5446606.464;-2058.819;-2013.668;-2101.399;-2101.995;-2072.081;-2016.239;-2072.081;-2108.440
5446606.472;-1992.658;-1937.598;-2029.538;-2027.340;-1994.930;-1946.427;-1991.428;-2027.266
5446606.480;-1942.851;-1889.318;-1979.619;-1967.773;-1932.643;-1878.999;-1917.183;-1958.236
5446606.488;-1982.823;-1929.365;-2023.913;-1999.587;-1971.535;-1898.594;-1938.045;-1986.027
5446606.496;-2001.189;-1947.284;-2043.769;-2022.572;-1983.941;-1903.623;-1946.203;-1992.509
5446606.504;-2005.212;-1948.066;-2053.268;-2020.597;-1989.305;-1906.455;-1948.141;-2000.108
5446606.512;-2060.532;-2003.871;-2102.144;-2061.613;-2026.036;-1944.192;-1991.205;-2035.648
5446606.520;-2122.931;-2065.189;-2164.356;-2121.478;-2083.219;-1987.591;-2040.528;-2078.526
5446606.528;-2189.912;-2138.391;-2231.225;-2191.812;-2154.745;-2039.336;-2095.103;-2139.695
5446606.536;-2434.328;-2375.133;-2469.197;-2432.466;-2392.568;-2263.375;-2320.670;-2375.543
5446606.544;-2592.020;-2525.561;-2625.696;-2588.071;-2544.485;-2397.373;-2459.288;-2506.860
5446606.552;-2707.355;-2652.667;-2743.825;-2714.656;-2657.808;-2515.912;-2580.807;-2620.854
5446606.560;-2780.520;-2725.124;-2809.428;-2789.497;-2721.771;-2597.049;-2658.591;-2701.134
5446606.568;-2830.625;-2766.848;-2850.406;-2833.307;-2771.616;-2639.033;-2697.185;-2744.310
5446606.576;-2888.180;-2820.455;-2912.283;-2884.455;-2830.625;-2684.221;-2742.931;-2789.870
5446606.584;-2910.383;-2847.128;-2930.462;-2913.177;-2844.520;-2705.865;-2766.922;-2807.192
5446606.592;-2913.997;-2855.957;-2925.433;-2922.155;-2846.084;-2709.217;-2772.920;-2803.914
5446606.600;-2941.377;-2881.661;-2950.169;-2941.676;-2875.924;-2735.518;-2799.071;-2837.144
5446606.608;-2898.425;-2833.083;-2905.689;-2895.631;-2836.809;-2698.340;-2760.999;-2802.350
5446606.616;-2876.707;-2810.135;-2878.122;-2864.897;-2809.279;-2678.595;-2741.441;-2785.213
5446606.624;-2851.635;-2775.006;-2856.739;-2841.726;-2789.721;-2670.064;-2735.853;-2778.917
5446606.666;-2818.517;-2738.163;-2823.733;-2806.149;-2773.441;-2660.453;-2728.030;-2770.424
5446606.674;-2771.728;-2688.169;-2764.352;-2755.672;-2727.062;-2641.417;-2711.415;-2753.138
5446606.682;-2721.101;-2630.875;-2714.358;-2702.288;-2684.966;-2615.154;-2685.636;-2727.993
5446606.690;-2675.950;-2589.449;-2673.343;-2664.588;-2649.836;-2585.389;-2655.760;-2706.237
5446606.698;-2626.032;-2523.810;-2630.167;-2607.889;-2611.987;-2565.533;-2640.560;-2692.230
5446606.706;-2558.306;-2455.674;-2559.573;-2543.926;-2554.469;-2528.802;-2607.740;-2652.630
5446606.714;-2545.640;-2444.349;-2552.941;-2535.731;-2544.858;-2530.701;-2609.007;-2653.785
5446606.722;-2545.938;-2438.500;-2562.106;-2537.295;-2543.740;-2532.899;-2612.323;-2651.513
5446606.730;-2523.176;-2420.656;-2540.797;-2514.124;-2520.084;-2493.858;-2573.803;-2611.764
5446606.738;-2588.220;-2495.572;-2606.660;-2584.942;-2578.497;-2543.107;-2623.424;-2658.367
5446606.746;-2561.062;-2469.234;-2576.150;-2550.743;-2550.743;-2497.807;-2578.273;-2617.352
5446606.754;-2579.726;-2484.880;-2599.545;-2564.117;-2563.260;-2492.666;-2571.531;-2623.499
5446606.762;-2635.866;-2534.017;-2651.550;-2616.122;-2610.311;-2527.870;-2606.772;-2655.834
5446606.770;-2657.473;-2563.149;-2671.331;-2638.213;-2629.273;-2536.513;-2621.338;-2656.877
5446606.778;-2687.909;-2597.086;-2708.137;-2664.588;-2650.805;-2537.593;-2625.585;-2659.746
5446606.786;-2713.092;-2627.373;-2726.391;-2688.281;-2658.144;-2539.940;-2633.184;-2665.110
5446606.794;-2689.250;-2612.695;-2707.914;-2674.460;-2634.712;-2517.924;-2611.801;-2635.159
5446606.802;-2660.565;-2588.257;-2676.100;-2650.656;-2608.858;-2494.417;-2585.128;-2608.225
5446606.810;-2678.000;-2615.526;-2688.356;-2682.805;-2624.355;-2527.423;-2619.624;-2635.270
5446606.818;-2713.129;-2650.321;-2716.035;-2717.599;-2650.954;-2567.209;-2658.218;-2679.117
5446606.826;-2742.484;-2683.997;-2744.570;-2743.639;-2687.722;-2590.828;-2681.576;-2705.082
5446606.834;-2766.698;-2713.092;-2768.710;-2770.349;-2715.774;-2619.661;-2708.845;-2724.901
5446606.842;-2782.717;-2733.543;-2782.010;-2781.898;-2727.285;-2624.057;-2713.092;-2731.159
5446606.850;-2810.955;-2756.864;-2793.074;-2797.507;-2743.229;-2614.595;-2703.555;-2721.362
5446606.920;-2826.564;-2786.666;-2806.708;-2835.132;-2771.765;-2647.489;-2733.916;-2755.560
5446606.928;-2843.067;-2815.090;-2827.085;-2860.576;-2802.610;-2675.839;-2759.062;-2778.992
5446606.936;-2817.474;-2788.641;-2790.056;-2827.719;-2769.530;-2646.036;-2724.081;-2741.292
5446606.944;-2839.193;-2803.244;-2800.599;-2846.830;-2790.466;-2669.021;-2740.137;-2769.716
5446606.952;-2852.343;-2818.257;-2812.929;-2862.401;-2804.063;-2685.227;-2753.809;-2781.302
5446606.960;-2830.438;-2799.109;-2789.572;-2838.932;-2786.368;-2664.439;-2730.824;-2746.806
5446606.968;-2811.290;-2784.021;-2764.836;-2820.752;-2769.567;-2645.440;-2709.590;-2729.371
5446606.976;-2794.303;-2771.690;-2744.496;-2810.731;-2755.746;-2641.082;-2701.990;-2720.281
5446606.984;-2758.577;-2739.802;-2698.936;-2779.514;-2713.800;-2606.884;-2669.692;-2667.680
5446606.992;-2726.354;-2712.719;-2662.055;-2749.041;-2681.352;-2570.450;-2635.941;-2629.049
5446607.000;-2722.368;-2708.770;-2658.889;-2745.017;-2684.780;-2575.032;-2636.164;-2638.884
5446607.008;-2679.639;-2669.096;-2615.116;-2705.827;-2647.601;-2537.407;-2597.868;-2598.129
5446607.016;-2605.617;-2604.164;-2541.207;-2643.094;-2582.483;-2477.467;-2532.676;-2539.642
5446607.024;-2566.986;-2565.943;-2502.278;-2604.239;-2547.949;-2444.535;-2495.051;-2501.756
5446607.032;-2515.130;-2519.451;-2448.484;-2556.927;-2495.386;-2402.999;-2452.433;-2452.508
5446607.040;-2449.155;-2460.927;-2379.939;-2500.489;-2433.173;-2354.384;-2403.520;-2394.691
5446607.048;-2406.798;-2422.631;-2336.316;-2459.139;-2397.113;-2318.844;-2368.316;-2360.717
5446607.056;-2391.152;-2410.635;-2318.732;-2444.945;-2382.547;-2300.106;-2351.664;-2341.680
5446607.064;-2327.338;-2353.378;-2250.262;-2390.556;-2318.248;-2243.258;-2297.200;-2282.299
5446607.072;-2331.585;-2356.842;-2250.858;-2394.095;-2325.512;-2255.589;-2309.084;-2294.444
5446607.080;-2294.630;-2322.011;-2209.283;-2351.552;-2292.804;-2233.870;-2280.772;-2269.298
5446607.088;-2225.079;-2255.663;-2140.254;-2294.630;-2235.100;-2184.547;-2229.959;-2218.448
5446607.096;-2218.112;-2252.162;-2132.542;-2296.045;-2233.796;-2184.622;-2223.924;-2213.903
5446607.104;-2172.291;-2210.177;-2081.804;-2250.895;-2184.659;-2156.124;-2185.106;-2171.509
5446607.087;-2135.523;-2177.767;-2041.981;-2216.063;-2150.014;-2130.568;-2159.849;-2139.770
5446607.095;-2134.331;-2180.934;-2040.640;-2219.826;-2154.410;-2137.125;-2165.623;-2147.742
5446607.103;-2111.569;-2164.021;-2014.488;-2202.019;-2133.623;-2114.065;-2144.612;-2131.574
5446607.111;-2073.459;-2125.427;-1974.851;-2170.503;-2099.350;-2083.555;-2118.498;-2100.766
5446607.119;-2030.320;-2084.672;-1928.844;-2135.672;-2057.739;-2054.609;-2089.925;-2069.548
5446607.127;-2027.489;-2083.816;-1923.516;-2127.066;-2054.907;-2046.414;-2076.142;-2060.384
5446607.135;-1951.419;-2004.765;-1852.848;-2038.032;-1991.615;-1988.523;-2012.849;-1998.022
5446607.143;-1918.785;-1971.386;-1822.151;-2005.808;-1962.222;-1954.399;-1979.359;-1957.938
5446607.151;-1898.594;-1950.823;-1803.972;-1986.548;-1943.968;-1936.667;-1958.236;-1943.260
5446607.159;-1870.356;-1922.473;-1775.138;-1957.230;-1911.372;-1913.495;-1934.432;-1924.448
5446607.167;-1853.965;-1910.962;-1752.786;-1944.527;-1892.559;-1900.196;-1921.095;-1907.609
5446607.175;-1837.611;-1897.290;-1735.277;-1932.047;-1877.621;-1880.936;-1899.786;-1880.154
5446607.183;-1801.625;-1858.361;-1700.968;-1891.181;-1844.727;-1841.970;-1859.851;-1843.721
5446607.191;-1804.046;-1863.055;-1707.151;-1894.347;-1840.591;-1833.774;-1852.140;-1837.499
5446607.199;-1796.558;-1856.983;-1701.340;-1889.802;-1833.439;-1823.045;-1844.130;-1818.724
5446607.207;-1769.327;-1833.662;-1669.638;-1864.508;-1801.364;-1800.507;-1819.842;-1797.900
5446607.215;-1758.970;-1826.026;-1660.511;-1856.647;-1787.096;-1777.634;-1794.547;-1763.254
5446607.223;-1635.552;-1702.048;-1538.880;-1733.154;-1661.591;-1656.227;-1669.228;-1634.546
5446607.231;-1615.211;-1678.281;-1522.899;-1707.785;-1644.604;-1635.700;-1642.890;-1629.703
5446607.239;-1642.555;-1704.134;-1552.850;-1728.758;-1674.220;-1656.115;-1666.658;-1653.545
5446607.247;-1622.178;-1686.588;-1536.161;-1711.622;-1652.576;-1635.440;-1645.535;-1623.295
5446607.255;-1593.977;-1660.697;-1509.339;-1686.290;-1624.189;-1597.628;-1605.451;-1589.954
5446607.263;-1589.730;-1654.141;-1507.513;-1674.034;-1618.937;-1579.896;-1593.381;-1576.021
5446607.271;-1542.755;-1604.669;-1460.016;-1620.129;-1566.596;-1539.849;-1552.664;-1537.502
5446607.221;-1511.984;-1572.743;-1429.729;-1581.497;-1534.149;-1489.036;-1505.464;-1482.293
5446607.229;-1501.888;-1559.965;-1422.875;-1563.244;-1524.985;-1467.504;-1484.267;-1463.369
5446607.237;-1461.133;-1518.466;-1386.814;-1522.675;-1484.901;-1433.007;-1444.407;-1427.494
5446607.245;-1439.340;-1497.231;-1369.640;-1499.765;-1469.515;-1418.591;-1418.032;-1418.665
5446607.253;-1474.395;-1532.175;-1406.260;-1535.527;-1508.929;-1451.448;-1436.062;-1451.634
5446607.261;-1547.262;-1601.167;-1479.425;-1608.394;-1584.142;-1517.236;-1492.202;-1512.989
5446607.269;-1594.350;-1644.529;-1530.089;-1651.980;-1629.777;-1540.855;-1521.669;-1548.082
5446607.277;-1560.338;-1608.878;-1497.008;-1619.235;-1598.299;-1497.641;-1483.858;-1514.331
5446607.285;-1556.501;-1601.018;-1494.959;-1610.182;-1596.138;-1495.779;-1477.115;-1514.778
5446607.293;-1576.319;-1617.223;-1523.122;-1630.336;-1619.495;-1521.930;-1498.088;-1542.531
5446607.301;-1566.559;-1606.420;-1520.589;-1627.281;-1609.363;-1520.142;-1496.673;-1539.215
5446607.309;-1586.229;-1621.842;-1548.082;-1648.627;-1628.883;-1552.626;-1528.338;-1573.600
5446607.317;-1574.308;-1606.680;-1540.706;-1633.987;-1613.796;-1551.136;-1521.893;-1567.341
5446607.325;-1550.801;-1581.684;-1525.246;-1613.125;-1592.226;-1529.492;-1496.561;-1543.984
5446607.333;-1545.660;-1573.600;-1529.120;-1609.027;-1589.730;-1523.867;-1485.869;-1534.522
5446607.341;-1551.248;-1577.474;-1535.602;-1613.833;-1593.679;-1523.569;-1482.368;-1533.814
5446607.349;-1535.751;-1560.450;-1522.154;-1599.602;-1575.313;-1511.499;-1469.180;-1517.944
5446607.357;-1537.129;-1557.618;-1528.263;-1603.179;-1571.775;-1521.558;-1480.021;-1520.440
5446607.365;-1515.374;-1532.473;-1508.072;-1580.752;-1541.637;-1505.353;-1465.082;-1503.378
5446607.373;-1484.677;-1500.286;-1481.473;-1554.191;-1511.276;-1490.898;-1450.069;-1486.130
5446607.381;-1464.747;-1479.499;-1463.555;-1538.806;-1489.408;-1481.585;-1443.774;-1469.552
5446607.389;-1415.126;-1426.376;-1419.708;-1487.583;-1442.395;-1435.727;-1402.348;-1424.253
5446607.397;-1392.439;-1402.497;-1403.317;-1467.168;-1421.496;-1414.791;-1389.272;-1404.807
5446607.405;-1350.604;-1357.310;-1361.854;-1423.731;-1377.314;-1372.993;-1356.602;-1360.588
5446607.406;-1296.066;-1302.026;-1306.981;-1371.205;-1313.873;-1316.331;-1306.832;-1301.281
5446607.414;-1262.613;-1267.456;-1276.359;-1336.671;-1280.606;-1275.018;-1273.379;-1258.813
5446607.422;-1237.728;-1240.708;-1256.093;-1308.396;-1259.930;-1239.292;-1244.396;-1225.695
5446607.430;-1206.584;-1210.310;-1233.406;-1278.631;-1235.120;-1214.854;-1219.101;-1199.432
5446607.438;-1189.485;-1191.124;-1218.840;-1259.930;-1217.611;-1203.865;-1203.530;-1185.760
5446607.446;-1127.757;-1129.210;-1147.203;-1200.102;-1153.089;-1146.458;-1148.097;-1119.077
5446607.454;-1074.783;-1076.646;-1097.396;-1147.874;-1101.047;-1092.665;-1098.849;-1067.854
5446607.462;-1025.535;-1026.765;-1049.526;-1095.831;-1050.420;-1033.135;-1043.268;-1005.344
5446607.470;-999.309;-994.280;-1026.802;-1070.984;-1024.455;-1008.362;-1019.351;-984.184
5446607.478;-954.606;-936.501;-976.548;-1025.386;-980.049;-967.346;-983.998;-947.751
5446607.486;-879.019;-846.200;-899.136;-946.410;-894.666;-880.212;-901.371;-860.468
5446607.494;-846.162;-786.856;-870.787;-916.608;-864.938;-848.174;-871.755;-826.567
5446607.502;-819.713;-728.928;-841.916;-888.594;-845.864;-819.899;-844.598;-796.020
5446607.510;-756.830;-657.141;-788.011;-829.175;-783.950;-767.745;-787.675;-732.057
5446607.518;-666.268;-565.872;-694.692;-736.490;-692.382;-675.879;-700.802;-636.354
5446607.526;-631.474;-534.914;-646.971;-699.908;-652.969;-645.444;-670.627;-618.324
5446607.534;-605.248;-508.316;-624.172;-672.005;-627.190;-613.108;-641.383;-572.205
5446607.542;-518.523;-419.021;-541.992;-581.704;-546.053;-527.799;-556.856;-494.011
5446607.550;-509.843;-411.347;-532.158;-575.557;-530.928;-518.225;-553.243;-490.285
5446607.558;-449.307;-352.301;-468.679;-514.500;-463.240;-449.866;-495.724;-404.082
5446607.566;-457.354;-359.453;-479.817;-520.013;-474.639;-465.885;-508.130;-433.996
5446607.574;-477.023;-376.031;-507.534;-533.350;-503.957;-486.672;-522.621;-471.771
5446607.582;-492.819;-394.098;-523.143;-549.443;-517.704;-499.859;-532.493;-479.668
5446607.590;-432.245;-339.299;-464.991;-490.919;-455.640;-449.270;-478.961;-419.579
5446607.552;-397.339;-305.437;-434.965;-455.864;-422.299;-415.556;-448.823;-385.717
5446607.560;-380.874;-285.618;-422.150;-436.790;-406.206;-402.108;-435.561;-371.821
5446607.568;-359.602;-265.948;-404.418;-413.992;-394.955;-394.546;-427.701;-359.640
5446607.576;-308.789;-215.732;-354.908;-361.353;-350.736;-362.843;-392.348;-330.880
5446607.584;-262.521;-169.463;-308.938;-318.326;-310.242;-353.605;-378.080;-319.183
5446607.592;-192.672;-96.820;-239.462;-246.391;-254.065;-311.136;-332.110;-273.809
5446607.600;-136.904;-42.580;-184.514;-196.919;-211.932;-300.258;-314.414;-260.621
5446607.608;-92.424;-4.098;-136.569;-160.597;-175.647;-301.041;-312.440;-257.790
5446607.616;-39.339;45.337;-77.076;-120.029;-122.599;-266.060;-276.975;-219.494
5446607.624;-0.782;78.902;-36.620;-85.011;-87.507;-234.321;-240.840;-185.445
5446607.632;-5.811;67.726;-40.568;-93.691;-92.499;-238.195;-244.938;-186.488
5446607.640;-17.211;50.776;-45.858;-111.908;-104.494;-245.683;-250.973;-191.815
5446607.648;4.545;65.900;-14.082;-91.121;-83.223;-212.044;-215.918;-170.805
5446607.656;20.787;75.139;8.494;-75.698;-58.487;-172.332;-176.616;-134.222
5446607.664;2.570;59.530;-11.623;-92.499;-74.506;-181.794;-182.204;-140.071
5446607.672;-15.907;41.798;-32.000;-107.065;-86.315;-182.651;-182.874;-142.157
5446607.680;26.003;78.343;8.643;-67.763;-44.443;-129.044;-128.374;-88.066
5446607.688;49.770;99.838;36.024;-42.617;-18.440;-95.107;-92.983;-52.080
5446607.696;34.533;81.584;23.432;-54.576;-26.599;-87.433;-84.937;-42.059
5446607.704;26.561;73.016;15.572;-61.281;-31.479;-82.776;-78.827;-30.324
5446607.712;13.560;60.610;2.459;-71.265;-43.474;-87.582;-84.043;-31.479
5446607.720;24.736;71.265;15.795;-59.754;-27.306;-70.706;-65.304;-12.890
5446607.728;22.016;65.342;20.638;-58.301;-21.644;-59.567;-53.607;1.900
5446607.736;4.061;47.535;0.671;-78.604;-42.729;-52.899;-49.397;4.396
5446607.778;21.756;63.702;18.105;-65.155;-16.131;-30.585;-26.971;19.372
5446607.786;19.819;67.428;16.019;-57.407;-14.156;-21.011;-18.887;24.885
5446607.794;-22.501;24.028;-27.828;-100.136;-55.544;-58.301;-55.097;-8.047
5446607.802;-4.992;38.184;-8.009;-82.478;-33.118;-49.584;-36.135;-5.290
5446607.810;31.628;72.606;27.642;-52.042;7.115;-13.262;-5.439;34.496
5446607.818;52.042;90.338;52.452;-32.522;28.387;14.082;21.644;69.104
5446607.826;54.538;97.640;54.166;-15.609;22.277;31.553;40.494;86.054
5446607.834;84.192;128.262;81.919;20.266;50.738;53.421;63.591;103.712
5446607.842;114.441;155.345;110.790;47.311;85.533;85.980;96.597;136.569
5446607.850;123.382;162.981;121.072;54.836;100.359;96.634;108.369;147.782
5446607.858;161.938;200.234;162.646;91.940;141.002;127.405;140.220;175.312
5446607.866;169.575;205.673;169.687;99.614;151.470;130.683;135.973;182.763
5446607.874;176.355;211.745;173.487;104.383;156.872;134.334;137.277;187.904
5446607.882;175.312;211.187;169.165;102.110;155.754;125.654;127.628;181.831
5446607.890;197.627;234.619;189.207;123.866;180.006;149.384;152.178;207.610
5446607.898;235.364;275.709;222.586;165.179;217.296;185.929;195.131;245.571
5446607.906;256.673;302.047;242.144;193.790;236.370;218.935;232.942;276.528
5446607.914;252.202;295.714;255.294;186.376;243.559;229.031;241.436;288.524
5446607.922;222.996;265.166;234.284;156.909;222.810;212.193;222.735;272.654
5446607.930;207.052;257.231;210.740;156.797;216.253;211.708;220.612;270.717
5446607.938;229.441;285.953;232.048;181.571;240.095;226.460;230.670;287.779
5446607.946;258.721;315.122;262.782;206.791;262.335;261.627;261.106;322.871
5446607.954;282.116;336.692;285.953;225.753;283.457;279.807;280.179;336.394
5446607.962;291.988;349.358;287.034;238.903;288.002;287.667;291.690;342.689
5446608.017;306.144;368.059;295.527;254.959;304.431;310.466;315.681;364.147
5446608.025;316.091;376.403;310.317;257.753;325.255;312.030;318.810;364.147
5446608.033;307.709;368.580;309.236;249.445;321.120;305.772;309.907;360.832
5446608.041;297.166;359.900;297.911;234.991;313.185;296.421;301.898;356.324
5446608.049;301.749;368.915;311.472;244.342;322.200;296.980;299.737;356.957
5446608.057;333.712;399.761;337.325;272.281;350.960;323.243;325.255;382.103
5446608.065;327.751;396.334;321.791;269.115;339.076;306.368;306.331;362.694
5446608.073;318.922;390.746;311.024;265.278;333.898;298.247;304.393;351.891
5446608.081;334.568;410.751;325.181;285.283;352.263;313.669;326.633;369.363
5446608.089;332.221;409.074;315.979;286.587;350.811;315.681;328.198;378.340
5446608.097;312.924;391.155;296.235;275.783;339.225;311.285;324.659;369.959
5446608.105;335.611;414.141;315.420;298.433;364.259;336.841;350.885;396.594
5446608.113;350.289;427.552;321.455;314.191;372.417;361.130;371.970;419.654
5446608.121;341.944;419.356;309.609;310.615;363.141;355.020;366.084;404.865
5446608.129;330.918;409.298;301.451;304.133;355.467;351.630;360.943;398.494
5446608.137;352.599;430.904;321.977;327.975;380.985;386.164;390.932;432.283
5446608.145;347.532;423.603;311.099;320.040;376.590;379.384;384.673;427.179
5446608.153;343.770;419.579;303.462;316.389;375.509;375.509;380.017;427.105
5446608.161;379.048;452.884;333.004;350.550;403.784;398.904;407.733;448.152
5446608.169;375.733;446.364;327.714;349.544;396.967;391.565;402.629;433.363
5446608.177;373.907;443.868;327.863;347.421;400.208;391.118;400.841;435.077
5446608.185;398.718;466.667;348.315;370.294;424.571;412.762;422.485;457.279
5446608.193;429.861;494.570;387.877;400.655;454.448;451.952;458.285;492.185
5446608.201;426.285;490.025;389.069;396.669;452.958;444.613;450.984;484.325
5446608.228;403.412;467.114;363.775;377.521;426.881;427.105;433.102;466.891
5446608.236;410.080;472.739;369.735;386.983;431.426;444.911;448.935;483.431
5446608.244;424.944;486.001;386.424;401.475;444.017;463.054;465.661;502.504
5446608.252;470.020;529.252;435.598;446.774;487.864;507.236;506.751;545.569
5446608.260;444.055;502.914;411.980;420.623;459.887;475.831;476.278;509.582
5446608.268;439.845;497.140;412.017;418.313;458.285;474.602;477.098;508.279
5446608.276;456.683;512.265;432.432;433.065;478.216;494.532;494.495;531.711
5446608.284;467.151;521.094;444.241;440.218;485.741;489.242;493.713;528.209
5446608.292;468.828;522.174;448.450;444.390;485.927;494.979;500.605;536.144
5446608.300;460.036;513.382;444.204;438.616;476.725;490.695;496.581;533.052
5446608.308;506.788;558.309;490.025;482.723;517.070;521.243;527.017;557.639
5446608.316;501.461;552.684;488.460;478.961;511.222;526.234;530.332;557.527
5446608.324;523.031;577.867;514.165;500.642;532.083;553.951;556.484;585.988
5446608.332;518.821;571.161;508.614;494.272;529.960;546.016;547.357;578.500
5446608.340;549.518;601.485;545.308;526.719;560.805;565.387;570.528;597.574
5446608.348;598.170;653.155;594.966;580.959;597.872;607.222;612.214;638.515
5446608.356;594.370;648.275;592.060;576.936;595.525;610.352;611.655;640.973
5446608.364;596.792;651.814;596.307;575.669;601.001;608.042;611.283;637.025
5446608.372;577.308;633.262;575.110;560.060;584.125;596.270;598.095;627.972
5446608.380;621.267;674.240;620.298;602.789;616.461;618.696;612.512;644.475
5446608.388;597.052;653.788;602.305;582.524;587.590;602.677;593.588;629.313
5446608.396;631.511;689.365;638.738;621.118;619.926;658.073;648.499;688.285
5446608.404;680.536;735.372;686.012;665.598;667.982;689.998;681.989;717.267
5446608.412;698.455;753.105;704.601;682.659;686.124;707.507;697.076;735.559
5446608.391;683.814;740.252;692.084;662.059;673.234;695.512;683.852;726.730
5446608.399;683.069;739.768;692.904;663.921;677.034;693.388;677.072;728.518
5446608.407;671.186;729.673;680.089;659.898;666.715;687.987;670.254;722.669
5446608.415;717.342;775.382;717.118;704.154;701.509;731.573;716.336;764.132
5446608.423;692.233;750.646;690.967;678.785;677.854;708.587;693.686;734.516
5446608.431;687.912;746.213;698.864;671.484;688.136;686.608;671.521;708.029
5446608.439;678.822;740.923;684.224;670.589;678.524;679.530;662.655;701.472
5446608.447;703.894;765.696;700.653;699.423;699.013;717.081;697.635;739.619
5446608.455;747.070;811.555;744.313;745.542;739.880;758.991;738.055;775.121
5446608.463;696.667;767.410;692.420;700.131;691.228;717.975;696.070;730.045
5446608.471;701.398;768.118;683.963;698.268;695.922;730.008;706.799;749.603
5446608.479;730.045;798.516;716.336;732.504;720.434;760.704;734.925;776.909
5446608.487;702.217;774.860;685.789;717.044;691.302;741.184;711.530;753.961
5446608.495;677.742;749.938;651.851;693.090;674.017;714.660;681.765;728.443
5446608.503;653.267;729.188;622.794;669.882;651.069;688.881;651.553;702.143
5446608.511;643.767;720.918;605.509;664.331;639.521;685.789;647.195;702.515
5446608.519;646.524;725.873;597.537;670.403;625.327;687.800;652.410;695.586
5446608.527;594.258;674.799;539.571;621.825;573.806;638.776;602.454;640.117
5446608.535;638.105;714.399;582.747;659.451;634.789;673.682;636.131;681.207
5446608.543;643.581;715.293;587.925;651.143;647.083;665.076;624.694;677.742
5446608.551;592.731;661.388;541.396;591.278;597.574;605.993;567.660;614.114
5446608.559;625.365;687.055;577.159;612.140;632.368;628.270;589.117;636.615
5446608.567;591.949;647.269;543.445;571.981;600.144;606.626;562.966;618.547
5446608.575;636.317;692.196;584.759;616.349;640.750;657.029;614.375;668.950
5446608.615;642.017;702.254;588.670;626.855;642.762;667.721;624.917;675.358
5446608.623;598.393;663.958;545.271;589.825;593.811;628.866;585.280;637.174
5446608.631;612.140;675.544;561.178;598.431;611.953;629.798;589.564;634.827
5446608.639;636.317;698.529;588.298;614.300;649.653;652.745;608.787;662.245
5446608.647;704.639;766.404;655.167;680.275;716.560;715.516;658.147;729.933
5446608.655;706.278;767.633;660.457;684.746;714.585;709.854;643.358;720.806
5446608.663;701.547;764.020;651.553;680.573;704.639;700.243;636.950;703.409
5446608.671;749.789;812.337;696.667;728.965;751.950;768.714;703.521;769.570
5446608.679;745.431;805.557;705.682;718.869;747.331;773.184;705.160;778.623
5446608.687;783.280;843.629;752.509;756.793;792.742;803.769;739.507;816.025
5446608.695;791.624;852.942;762.194;773.892;798.590;817.366;756.346;832.006
5446608.703;791.177;853.837;765.845;776.351;800.900;827.946;772.625;840.686
5446608.711;774.451;840.463;753.924;758.469;789.948;821.091;767.447;837.222
5446608.719;823.550;888.333;809.021;809.096;842.772;876.710;822.358;893.921
5446608.727;884.496;950.657;869.334;873.618;897.832;938.363;883.080;950.508
5446608.735;901.222;963.807;889.935;888.742;913.404;968.017;906.847;977.069
5446608.743;889.674;945.590;883.602;870.600;908.151;959.896;896.715;971.816
5446608.751;956.170;1014.769;954.084;935.830;973.269;1020.692;960.305;1034.662
5446608.759;988.320;1047.440;989.214;965.931;1001.582;1052.879;995.696;1064.278
5446608.767;983.700;1035.854;983.663;961.311;996.888;1047.440;995.025;1055.896
5446608.775;1002.699;1053.810;1006.126;974.908;1020.469;1066.178;1014.695;1076.087
5446608.783;1044.385;1098.625;1047.999;1020.059;1055.114;1104.660;1057.871;1117.624
5446608.791;1036.599;1089.796;1039.840;1018.122;1040.585;1087.599;1041.070;1105.033
5446608.799;1059.994;1107.343;1067.631;1041.219;1070.797;1102.127;1057.386;1121.722
5446608.814;1073.927;1116.172;1086.593;1054.332;1080.595;1111.589;1073.219;1126.155
5446608.822;1064.055;1110.435;1078.248;1041.964;1057.424;1103.319;1063.719;1117.140
5446608.830;1071.580;1113.638;1088.753;1040.958;1075.864;1111.031;1073.107;1130.551
5446608.838;1082.979;1120.083;1105.480;1054.257;1098.812;1116.432;1080.744;1140.796
5446608.846;1092.069;1127.049;1116.842;1065.061;1101.382;1120.642;1087.524;1141.764
5446608.854;1095.086;1125.187;1120.940;1061.969;1101.904;1117.885;1084.358;1144.745
5446608.862;1067.109;1095.198;1091.883;1032.948;1072.809;1095.869;1059.063;1122.057
5446608.870;1050.532;1075.156;1082.011;1015.179;1054.630;1078.583;1046.807;1096.986
5446608.878;1073.927;1095.980;1108.199;1037.978;1071.505;1098.029;1071.803;1118.071
5446608.886;1100.004;1126.490;1129.992;1065.172;1088.940;1130.477;1103.505;1149.513
5446608.894;1112.632;1141.317;1145.117;1080.446;1097.843;1134.761;1109.540;1155.660
5446608.902;1099.594;1124.181;1138.970;1070.797;1093.037;1121.946;1097.322;1143.515
5446608.910;1112.595;1138.449;1148.135;1080.409;1100.004;1128.353;1106.746;1147.911
5446608.918;1133.084;1153.909;1166.575;1099.221;1115.687;1135.096;1111.813;1163.557
5446608.926;1146.719;1167.133;1182.966;1111.440;1126.938;1152.568;1130.104;1184.121
5446608.934;1130.737;1156.144;1166.500;1090.318;1106.672;1139.641;1118.295;1172.423
5446608.942;1135.021;1159.757;1171.641;1099.184;1107.827;1137.182;1117.699;1167.282
5446608.950;1146.458;1169.741;1184.717;1108.795;1117.550;1139.119;1122.691;1165.867
5446608.958;1146.011;1168.996;1185.723;1111.738;1117.773;1143.813;1127.943;1171.157
5446608.966;1121.722;1144.782;1163.147;1090.616;1100.265;1131.110;1113.526;1158.752
5446608.974;1103.505;1126.900;1145.676;1072.474;1084.730;1115.650;1099.780;1144.223
5446608.982;1105.182;1128.763;1149.625;1073.405;1085.773;1124.479;1108.684;1151.264
5446608.990;1138.113;1162.514;1179.725;1104.735;1114.123;1159.534;1143.366;1183.562
5446608.998;1147.315;1171.976;1185.462;1113.787;1119.152;1165.606;1149.960;1186.058
5446608.975;1180.358;1208.186;1215.190;1145.601;1151.748;1203.008;1185.499;1223.348
5446608.983;1213.662;1243.241;1246.929;1185.834;1181.290;1230.873;1210.086;1253.635
5446608.991;1185.089;1212.507;1222.007;1154.244;1157.038;1188.144;1163.669;1211.837
5446608.999;1169.182;1196.452;1204.982;1133.904;1141.429;1170.412;1147.203;1194.552
5446609.007;1171.976;1199.134;1202.002;1136.102;1139.268;1171.604;1151.860;1199.730
5446609.015;1148.432;1173.690;1181.252;1118.109;1119.934;1151.673;1134.016;1180.358
5446609.023;1167.692;1193.173;1197.793;1141.056;1143.180;1173.206;1157.969;1201.257
5446609.031;1229.197;1253.933;1256.578;1203.157;1204.610;1247.935;1230.463;1276.098
5446609.039;1204.051;1236.126;1233.034;1177.862;1178.682;1217.611;1200.885;1245.998
5446609.047;1173.951;1209.900;1197.755;1153.536;1151.338;1183.636;1167.804;1210.682
5446609.055;1146.160;1177.974;1165.606;1125.336;1131.482;1158.603;1140.758;1180.731
5446609.063;1088.493;1113.079;1105.741;1063.868;1078.062;1102.649;1080.371;1129.843
5446609.071;1112.372;1147.240;1124.665;1088.642;1099.147;1139.194;1110.323;1169.890
5446609.079;1165.196;1205.318;1171.790;1148.246;1144.893;1197.234;1168.698;1211.576
5446609.087;1141.541;1180.805;1145.974;1130.328;1124.442;1173.876;1142.770;1190.379
5446609.095;1112.111;1148.619;1107.603;1102.276;1092.814;1141.317;1114.570;1158.230
5446609.103;1149.923;1185.015;1147.911;1143.180;1144.745;1182.780;1165.494;1198.836
5446609.111;1132.116;1173.392;1132.265;1121.946;1132.637;1177.900;1161.471;1193.881
5446609.119;1100.898;1140.684;1095.086;1095.086;1103.468;1150.891;1132.041;1176.558
5446609.127;1121.685;1163.036;1108.609;1121.797;1118.556;1180.917;1162.961;1204.722
5446609.135;1098.663;1140.535;1084.469;1098.849;1098.886;1168.996;1153.611;1187.623
5446609.143;1097.098;1139.529;1085.103;1093.484;1106.746;1151.636;1138.337;1174.994
5446609.151;1104.884;1143.254;1093.186;1095.980;1116.581;1152.493;1137.704;1175.627
5446609.159;1143.925;1179.613;1132.228;1123.697;1158.863;1191.907;1175.217;1213.662
5446609.126;1133.457;1183.152;1119.971;1114.123;1147.725;1190.081;1172.349;1209.378
5446609.134;1095.906;1142.621;1083.426;1075.491;1111.738;1151.413;1131.780;1172.349
5446609.142;1098.141;1135.766;1088.195;1071.990;1119.599;1143.478;1122.393;1166.761
5446609.150;1108.535;1146.495;1100.078;1081.675;1128.092;1149.252;1125.671;1169.927
5446609.158;1069.084;1114.011;1056.418;1044.236;1091.547;1114.011;1095.049;1132.228
5446609.166;1044.348;1091.734;1032.799;1022.667;1068.152;1087.934;1067.407;1104.474
5446609.174;1023.225;1070.090;1010.038;998.192;1044.534;1069.643;1047.552;1081.042
5446609.182;1043.417;1090.057;1032.539;1018.755;1068.935;1088.716;1070.909;1106.970
5446609.190;1038.015;1087.040;1033.954;1019.090;1068.376;1087.710;1073.368;1102.835
5446609.198;1023.151;1073.815;1023.561;1006.164;1056.492;1083.948;1072.064;1091.249
5446609.206;1016.147;1071.170;1013.130;995.658;1048.148;1079.366;1066.104;1087.971
5446609.214;1015.849;1077.242;1011.677;1007.617;1043.975;1082.867;1067.966;1093.894
5446609.222;1012.906;1076.013;1002.029;1012.795;1037.903;1081.415;1066.960;1095.347
5446609.230;993.982;1055.598;980.757;992.529;1023.188;1068.935;1054.145;1082.420
5446609.238;986.494;1050.308;968.911;992.641;1016.743;1066.029;1052.655;1081.713
5446609.246;969.023;1034.066;948.645;979.081;1002.215;1052.693;1040.362;1066.923
5446609.254;981.875;1048.408;960.566;993.349;1018.718;1069.792;1058.616;1082.271
5446609.262;960.380;1028.627;936.836;975.989;996.292;1050.793;1043.417;1058.951
5446609.270;968.911;1033.917;944.324;977.479;1001.358;1064.688;1054.294;1075.864
5446609.278;983.775;1048.557;955.947;994.205;1011.826;1085.177;1072.623;1093.037
5446609.286;989.027;1055.151;956.543;1005.083;1015.551;1087.524;1075.044;1091.808
5446609.294;978.969;1042.411;950.173;1002.289;1006.946;1078.323;1066.960;1083.128
5446609.302;963.733;1024.753;939.779;982.657;996.217;1066.551;1056.157;1076.870
5446609.310;965.595;1027.212;943.728;985.563;1001.433;1070.723;1059.994;1080.334
5446609.292;947.416;1006.313;919.402;967.607;978.261;1045.726;1034.625;1051.724
5446609.300;944.883;1001.805;914.820;964.813;971.556;1039.579;1025.498;1047.626
5446609.308;971.109;1027.100;941.381;989.735;996.366;1059.137;1044.013;1069.866
5446609.316;962.354;1017.414;932.291;978.820;984.296;1038.127;1025.796;1043.193
5446609.324;963.882;1020.916;934.452;984.408;979.677;1040.362;1027.212;1046.248
5446609.332;937.618;991.747;908.971;956.096;948.347;1011.156;997.409;1017.898
5446609.340;942.722;996.664;914.074;962.876;955.760;1011.603;996.739;1022.406
5446609.348;973.642;1029.708;945.330;999.384;987.425;1047.179;1030.453;1056.083
5446609.356;984.706;1041.219;966.601;1011.528;992.902;1055.785;1043.193;1058.802
5446609.364;954.047;1005.121;937.171;976.026;960.417;1028.441;1014.136;1032.688
5446609.372;941.791;995.211;926.182;960.231;940.114;1019.873;1004.450;1030.005
5446609.380;950.694;1013.577;934.452;986.941;942.200;1033.284;1020.394;1042.075
5446609.388;912.361;969.917;897.981;945.292;916.421;1002.289;990.257;1009.107
5446609.396;930.317;982.806;920.333;954.755;941.530;1017.153;1001.023;1033.843
5446609.404;918.098;970.177;912.510;944.622;919.811;1006.313;989.176;1018.010
5446609.412;900.626;951.104;898.466;923.984;895.560;980.422;967.495;985.116
5446609.420;906.102;954.196;907.592;928.938;903.048;974.350;959.560;984.184
5446609.428;943.691;992.194;945.292;965.856;941.232;1020.916;1008.175;1022.369
5446609.436;934.079;983.290;936.612;959.821;928.678;1015.812;1005.307;1021.214
5446609.444;884.682;934.042;889.413;910.126;875.257;954.121;941.828;968.687
5446609.452;896.715;945.218;901.483;925.772;879.467;964.850;952.333;980.087
5446609.460;975.728;1025.684;979.491;1007.505;951.327;1047.142;1036.562;1054.034
5446609.468;1010.261;1060.292;1013.391;1039.915;979.155;1081.862;1071.468;1081.415
5446609.476;990.890;1037.717;996.701;1016.930;968.091;1057.461;1049.005;1062.378
5446609.574;970.326;1015.663;976.808;992.417;949.353;1027.919;1016.557;1030.341
5446609.582;945.702;989.251;952.594;960.380;920.929;1009.181;993.460;1015.514
5446609.590;980.012;1025.237;988.282;1014.844;950.098;1043.789;1024.939;1058.355
5446609.598;934.303;983.924;942.275;975.914;906.028;1002.550;981.502;1014.508
5446609.606;910.051;961.944;920.854;949.129;885.949;978.634;960.603;982.471
5446609.614;940.487;988.692;949.390;977.702;908.449;1012.012;992.045;1013.130
5446609.622;921.637;971.742;929.534;961.497;890.866;1000.501;979.975;1004.338
5446609.630;922.307;975.095;935.458;963.509;901.483;1008.473;989.288;1014.918
5446609.638;955.798;1010.336;966.191;993.349;929.981;1039.729;1023.076;1039.840
5446609.646;977.665;1035.295;977.367;1021.028;935.718;1054.220;1038.499;1053.102
5446609.654;977.218;1037.717;978.708;1028.888;946.112;1047.589;1029.000;1048.222
5446609.662;934.191;996.031;935.309;987.202;911.206;1010.969;987.947;1018.532
5446609.670;941.642;1004.711;935.048;997.633;914.372;1021.177;995.137;1036.748
5446609.678;963.882;1029.111;953.712;1021.996;937.283;1040.213;1011.193;1048.595
5446609.686;928.901;994.056;916.012;982.396;899.285;1001.991;971.667;1003.332
5446609.694;839.233;907.220;825.711;896.528;815.690;932.850;900.552;933.930
5446609.702;903.308;968.464;893.585;958.145;889.450;986.643;955.351;990.368
5446609.710;928.156;993.200;913.069;978.969;920.147;1003.034;970.624;1007.542
5446609.718;893.846;956.729;874.586;938.103;887.997;957.400;921.525;961.311
5446609.726;955.202;1019.239;930.801;993.386;948.645;1008.138;970.624;1009.069
5446609.734;962.652;1022.890;933.036;993.870;959.039;1008.473;969.097;1007.393
5446609.742;989.139;1050.979;950.955;1005.083;985.041;1026.914;987.425;1027.286
5446609.750;1041.368;1105.294;1005.568;1050.383;1044.385;1074.411;1035.780;1076.572
5446609.758;1015.626;1076.832;979.863;1027.584;1027.472;1050.420;1011.230;1045.465
5446609.757;997.595;1056.865;959.262;1005.121;1015.589;1041.032;998.452;1033.992
5446609.765;963.435;1017.079;920.445;955.127;982.173;1025.908;977.330;1021.177
5446609.773;966.564;1019.128;925.213;964.142;991.598;1048.669;995.658;1043.677
5446609.781;935.905;992.566;894.517;957.362;965.297;1034.103;981.539;1027.770
5446609.789;918.955;977.479;877.194;942.014;948.310;1035.407;983.141;1030.155
5446609.797;933.781;992.380;892.952;955.425;964.850;1060.963;1007.877;1057.647
5446609.805;898.540;958.033;863.634;929.534;940.636;1042.411;987.053;1031.384
5446609.813;886.023;945.590;850.931;918.843;929.348;1032.762;976.548;1020.730
5446609.821;917.874;974.610;880.435;943.281;960.417;1053.847;999.980;1042.672
5446609.829;940.897;992.902;905.283;958.256;983.737;1062.751;1008.287;1055.598
5446609.837;926.778;981.726;891.201;949.576;966.005;1046.322;992.231;1045.167
5446609.845;954.084;1012.273;919.588;976.622;989.996;1071.170;1020.767;1074.076
5446609.853;998.415;1044.422;955.909;1004.636;1023.933;1108.535;1061.372;1111.999
5446609.861;989.437;1036.562;959.411;996.813;1021.922;1089.014;1044.050;1092.181
5446609.869;987.239;1042.672;963.286;1005.344;1007.430;1079.366;1037.046;1084.171
5446609.877;1020.096;1072.884;996.776;1036.972;1047.850;1105.443;1063.906;1110.770
5446609.885;1007.132;1059.137;985.973;1027.808;1041.852;1095.533;1055.524;1100.339
5446609.893;964.589;1014.546;946.336;984.669;997.335;1057.722;1019.128;1064.464
5446609.901;930.801;979.528;915.751;954.568;960.194;1027.733;989.661;1032.986
5446609.909;929.013;973.269;917.725;951.178;956.096;1039.952;1004.338;1048.185
5446609.917;978.038;1023.375;973.903;1000.017;1006.350;1085.103;1054.630;1095.012
5446609.925;1010.671;1054.891;1011.491;1030.192;1040.734;1114.085;1086.593;1123.473
5446609.933;1004.860;1041.964;1010.001;1017.414;1036.264;1103.208;1078.062;1118.816
5446609.941;980.496;1006.015;991.896;983.141;1009.703;1072.735;1048.185;1092.739
5446609.951;1008.399;1037.940;1025.572;1000.538;1031.607;1097.694;1074.076;1117.662
5446609.959;1018.308;1052.245;1041.852;1006.722;1044.758;1098.439;1075.268;1119.859
5446609.967;997.446;1022.704;1031.086;978.559;1029.670;1080.707;1057.722;1102.649
5446609.975;981.018;997.856;1024.380;953.078;1016.930;1056.902;1033.098;1082.793
5446609.983;1001.619;1010.485;1053.140;965.185;1042.262;1064.911;1039.505;1097.582
5446609.991;992.641;994.615;1054.183;947.490;1033.209;1050.048;1030.564;1070.909
5446609.999;1002.811;1005.530;1065.470;955.388;1035.705;1054.294;1039.542;1074.448
5446610.007;1018.383;1022.555;1079.962;975.989;1047.701;1071.021;1057.349;1097.284
5446610.015;1015.551;1019.537;1087.002;978.224;1045.726;1070.574;1056.232;1094.677
5446610.023;1007.915;1008.734;1079.552;959.188;1030.229;1057.424;1041.628;1080.297
5446610.031;1037.419;1040.734;1110.286;993.349;1054.369;1082.346;1063.570;1106.411
5446610.039;1041.144;1039.393;1113.974;995.323;1062.565;1076.423;1059.845;1101.531
5446610.047;1030.080;1030.900;1104.102;986.792;1044.907;1061.559;1047.179;1086.444
5446610.055;1040.883;1050.308;1119.971;1012.944;1052.842;1071.468;1059.845;1093.708
5446610.063;1024.529;1029.111;1104.549;991.113;1034.215;1055.002;1044.348;1079.328
5446610.071;1031.309;1035.184;1111.031;998.750;1037.903;1053.251;1045.056;1078.285
5446610.079;1038.909;1042.709;1118.518;1008.697;1040.660;1064.725;1057.237;1097.769
5446610.087;1018.159;1016.893;1099.221;980.459;1018.830;1056.679;1048.259;1100.972
5446610.095;1012.534;1011.044;1095.012;970.140;1012.720;1038.909;1036.525;1075.938
5446610.103;986.829;980.608;1069.047;944.957;981.912;1011.603;1011.938;1046.807
5446610.111;1023.896;1028.962;1101.829;989.400;1010.522;1051.240;1051.724;1082.085
5446610.119;1056.232;1062.118;1130.700;1029.149;1034.588;1073.033;1071.803;1109.429
5446610.127;1067.109;1076.795;1145.154;1036.003;1056.492;1069.196;1068.860;1105.107
5446610.135;1003.705;1009.889;1081.377;972.673;994.876;1011.267;1010.597;1047.179
5446610.116;970.103;973.195;1046.695;940.301;963.621;970.438;971.816;1009.628
5446610.124;1077.913;1078.397;1146.011;1052.506;1060.069;1080.409;1087.487;1113.974
5446610.132;1063.757;1057.908;1122.355;1031.533;1039.579;1071.393;1076.944;1112.930
5446610.140;1035.891;1024.976;1105.405;995.398;1010.150;1025.535;1029.521;1069.233
5446610.148;1031.570;1018.979;1106.262;984.930;1019.649;1022.331;1025.163;1066.104
5446610.156;1055.449;1056.977;1128.316;1007.095;1043.975;1049.154;1048.893;1094.267
5446610.164;1042.411;1036.972;1119.450;985.712;1031.384;1036.227;1037.382;1074.895
5446610.172;1033.954;1026.131;1112.856;979.118;1026.839;1024.455;1024.865;1065.321
5446610.180;996.925;982.024;1075.044;937.432;987.649;982.657;981.353;1030.080
5446610.188;968.650;959.188;1046.136;907.108;964.068;954.531;953.414;1005.903
5446610.196;1030.900;1016.520;1101.829;954.866;1020.767;999.235;1001.991;1044.571
5446610.204;1104.511;1084.059;1178.570;1022.704;1096.204;1057.051;1059.696;1100.339
5446610.212;1122.691;1096.763;1199.245;1029.931;1112.856;1069.605;1071.952;1119.263
5446610.220;1097.247;1068.451;1172.386;1004.078;1083.426;1044.571;1049.712;1090.094
5446610.228;1091.771;1062.118;1163.818;997.297;1075.305;1038.648;1046.062;1079.328
5446610.236;1091.659;1059.733;1163.222;997.707;1068.860;1040.213;1048.073;1083.501
5446610.244;1057.275;1022.220;1139.268;963.435;1047.403;1011.826;1017.228;1058.951
5446610.252;1019.575;983.365;1100.488;917.800;1010.373;972.338;974.908;1025.833
5446610.260;1024.678;986.159;1099.259;927.076;999.980;954.680;956.655;1008.548
5446610.268;1037.791;997.521;1118.444;943.653;1027.584;957.176;966.191;999.458
5446610.276;1036.078;995.882;1124.553;944.212;1034.811;969.954;980.310;1015.626
5446610.284;1050.346;1006.797;1134.276;955.164;1041.181;975.803;987.127;1020.655
5446610.292;1053.177;1008.324;1141.802;955.909;1045.912;970.997;978.559;1026.094
5446610.300;1024.157;982.396;1111.776;930.391;1015.924;945.739;952.892;999.048
5446610.341;1039.431;996.403;1131.669;943.989;1023.449;966.899;978.336;1018.345
5446610.349;1058.243;1014.136;1152.679;961.870;1038.611;982.322;997.893;1031.533
5446610.357;1013.950;972.450;1106.858;925.586;1003.183;938.736;954.047;987.314
5446610.365;990.629;947.975;1087.301;893.660;987.612;920.631;935.346;970.773
5446610.373;1007.468;965.595;1103.915;905.767;996.180;943.355;958.964;989.623
5446610.381;985.004;947.118;1082.048;889.376;963.546;919.849;939.667;966.638
5446610.389;998.825;964.403;1094.341;909.306;979.304;941.083;960.715;989.512
5446610.397;1047.626;1017.228;1147.352;962.019;1024.008;994.839;1008.585;1031.645
5446610.405;1026.988;987.835;1136.251;925.921;1005.456;963.099;971.071;1001.172
5446610.413;998.080;956.468;1111.217;897.348;978.149;924.245;930.578;966.676
5446610.421;961.348;920.184;1077.913;855.252;944.547;886.358;893.287;925.027
5446610.429;956.804;918.210;1074.821;841.916;942.387;872.836;882.633;913.627
5446610.437;925.772;890.531;1043.044;809.021;909.902;837.110;850.670;881.292
5446610.445;915.229;878.535;1033.246;794.865;901.297;817.552;836.365;863.112
5446610.453;901.222;861.958;1020.841;777.878;890.903;798.516;819.974;844.114
5446610.461;878.274;840.835;997.521;753.365;870.936;777.021;798.479;825.487
5446610.469;862.442;829.920;979.230;738.874;854.991;765.622;789.464;815.652
5446610.477;882.968;849.590;997.297;757.948;876.859;783.391;809.506;834.204
5446610.485;881.813;851.713;995.286;757.389;884.980;778.995;806.339;829.324
5446610.493;863.448;839.867;974.946;747.368;869.259;771.992;798.888;818.484
5446610.501;834.316;813.752;937.805;725.426;836.886;756.942;785.850;806.749
5446610.509;882.112;865.385;970.066;780.933;880.286;811.778;841.394;858.456
5446610.517;892.952;879.802;970.140;799.522;886.023;827.722;857.711;870.116
5446610.525;864.752;854.209;948.310;779.778;860.840;809.357;839.420;847.429
5446610.536;847.466;839.941;922.568;768.416;845.157;809.915;838.824;844.300
5446610.544;862.516;856.295;926.256;784.472;856.668;832.155;859.872;862.591
5446610.552;861.511;858.679;917.241;795.797;855.699;835.359;864.081;861.138
5446610.560;815.950;815.913;863.560;757.128;811.182;805.892;831.522;828.132
5446610.568;843.517;843.331;878.945;785.440;831.597;851.899;874.400;868.663
5446610.576;836.626;836.961;863.075;783.280;821.203;855.848;874.288;873.022
5446610.584;826.046;825.524;849.143;774.115;812.933;847.653;861.734;865.795
5446610.592;844.449;839.196;864.975;791.214;835.881;863.820;876.486;880.994
5446610.600;825.748;823.885;841.767;777.617;821.017;847.913;862.516;865.646
5446610.608;779.033;774.600;791.661;725.612;771.396;805.370;824.556;819.191
5446610.616;815.354;807.941;825.822;769.831;799.894;841.245;858.791;851.676
5446610.624;787.005;783.913;794.455;762.641;767.112;820.830;836.179;834.167
5446610.632;715.889;716.373;720.732;695.959;697.821;754.595;765.659;768.378
5446610.640;790.134;781.827;798.367;758.991;767.261;814.237;827.275;820.123
5446610.648;879.019;868.812;891.276;841.133;850.037;885.502;900.999;887.141
5446610.656;901.595;881.217;919.700;857.748;887.513;909.343;923.760;908.859
5446610.664;871.532;850.447;891.499;814.907;862.889;877.045;891.499;875.294
5446610.672;874.847;864.640;891.536;829.212;856.109;871.755;887.029;870.116
5446610.680;884.384;871.755;903.904;834.018;864.379;876.896;891.350;878.833
5446610.688;866.503;850.223;888.631;807.494;849.068;851.899;868.179;854.395
5446610.696;867.099;847.131;891.238;801.943;848.398;845.827;856.407;853.390
5446610.704;856.109;832.751;883.751;791.959;840.835;831.969;843.965;832.491
5446610.712;866.950;846.833;891.350;808.388;843.294;837.110;852.644;831.895
5446610.720;865.906;847.392;891.238;812.039;837.259;837.035;851.154;836.104
5446610.760;896.230;879.653;926.517;844.821;869.110;866.093;882.484;867.210
5446610.768;893.101;879.988;924.803;846.647;856.407;864.901;883.155;858.940
5446610.776;867.024;854.842;895.485;822.172;826.605;848.882;868.402;841.320
5446610.784;842.512;829.361;870.302;789.352;803.135;827.536;845.380;825.524
5446610.792;804.588;790.991;830.777;754.893;764.467;802.539;817.999;799.187
5446610.800;847.243;836.365;868.440;813.529;795.871;863.336;876.077;853.986
5446610.808;942.200;929.832;963.211;906.624;886.843;945.926;951.551;931.509
5446610.816;884.682;867.620;905.469;840.798;826.940;863.187;870.079;844.821
5446610.824;855.587;837.818;872.016;811.666;785.105;827.610;833.645;814.386
5446610.832;891.127;876.486;909.865;858.754;811.443;869.706;879.355;859.201
5446610.840;903.048;885.613;924.394;872.426;833.161;879.243;889.339;870.973
5446610.848;898.279;882.298;915.974;859.573;820.346;868.104;879.019;860.468
5446610.856;879.169;868.216;899.136;844.449;792.444;848.472;857.003;842.065
5446610.864;893.585;880.696;916.682;865.273;815.205;858.940;865.348;855.699
5446610.872;895.895;885.241;918.880;876.114;813.976;873.543;880.882;865.608
5446610.880;835.061;824.109;861.324;810.437;755.899;806.078;810.213;798.069
5446610.888;838.488;831.708;859.611;817.403;760.071;808.872;810.400;805.818
5446610.896;797.883;794.642;819.638;775.717;713.728;763.312;765.063;763.722
5446610.904;763.349;762.604;787.266;743.307;675.842;726.320;728.071;719.614
5446610.912;827.238;833.757;848.807;817.888;741.854;790.916;790.991;778.995
5446610.920;879.914;890.270;896.640;877.902;787.377;849.552;848.286;836.924
5446610.928;871.718;886.358;883.266;872.239;777.990;850.819;845.715;842.586
5446610.936;831.000;851.937;839.829;838.935;744.536;827.499;820.085;812.151
5446610.944;815.243;836.737;824.891;819.191;739.396;803.210;792.481;790.991
5446610.955;808.127;831.187;816.137;807.010;733.733;792.518;778.548;784.770
5446610.963;803.359;824.518;804.923;799.373;728.592;782.125;767.782;773.482
5446610.971;804.029;830.330;793.897;804.029;723.638;776.537;762.194;765.361
5446610.979;808.276;844.449;789.315;813.566;733.063;778.995;763.759;774.972
5446610.987;792.183;828.169;756.681;795.014;708.178;756.234;741.966;748.225
5446610.995;770.353;803.694;732.765;770.427;686.832;739.321;724.010;726.245
5446611.003;748.299;785.403;717.528;754.856;675.321;734.180;716.597;721.104
5446611.011;676.252;714.920;631.958;690.036;604.577;680.462;656.769;672.527
5446611.019;654.645;691.563;599.511;672.825;590.347;663.772;640.266;653.937
5446611.027;688.657;723.079;632.815;713.132;632.368;706.650;687.130;692.979
5446611.035;813.641;860.132;752.546;842.772;751.130;826.418;812.225;796.318
5446611.043;814.460;864.156;748.523;853.203;753.328;832.193;815.094;796.989
5446611.051;771.657;821.017;702.441;816.099;714.213;803.582;783.466;772.029
5446611.059;735.819;784.956;662.841;783.987;677.668;784.062;758.097;757.687
5446611.067;714.362;762.865;640.638;767.559;658.482;790.283;760.853;766.926
5446611.075;715.666;759.549;642.277;774.190;659.674;803.657;777.654;769.421
5446611.083;699.908;741.668;624.098;758.469;641.756;788.234;760.183;760.332
5446611.091;688.173;733.398;609.122;747.070;641.607;784.546;753.105;761.002
5446611.099;729.002;775.792;649.542;783.987;683.069;813.678;782.609;789.389
5446611.107;705.570;753.105;623.725;764.057;657.178;783.242;753.552;763.126
5446611.115;726.245;765.473;630.133;779.033;666.119;775.829;749.081;758.916
5446611.123;738.800;759.810;648.946;763.796;668.727;748.076;725.947;729.747
5446611.131;770.055;801.012;683.293;789.799;698.790;763.685;743.605;746.585
5446611.139;779.107;821.278;700.355;800.379;708.029;757.240;740.327;740.625
5446611.122;852.644;892.542;770.278;872.985;772.998;807.531;793.152;791.512
5446611.130;869.893;897.013;785.366;883.453;779.815;811.480;798.069;797.436
5446611.138;846.833;868.738;761.300;853.799;747.293;775.382;763.908;765.212
5446611.146;872.500;891.089;788.271;877.380;762.902;793.673;783.876;786.893
5446611.154;861.473;876.747;782.348;865.161;751.838;797.026;786.744;786.483
5446611.162;828.989;842.139;757.240;833.534;721.663;782.348;770.092;776.164
5446611.170;835.583;845.790;768.341;840.537;727.065;800.677;786.893;796.840
5446611.178;821.985;827.722;761.636;821.464;708.550;781.044;771.433;769.459
5446611.186;810.102;812.113;757.910;806.227;697.412;773.557;766.441;762.455
5446611.194;834.279;833.757;786.223;830.963;718.273;795.126;795.498;778.101
5446611.202;848.509;842.586;810.996;839.755;729.635;804.178;807.345;788.830
5446611.210;832.863;824.258;799.857;824.071;713.542;794.865;798.814;782.236
5446611.218;844.151;833.571;812.188;832.602;716.746;793.412;797.883;784.434
5446611.226;852.570;843.443;827.797;839.010;722.706;791.363;797.622;784.136
5446611.234;864.305;851.229;847.615;849.329;734.739;797.100;808.612;788.197
5446611.242;883.006;863.746;871.643;863.671;752.322;802.837;816.882;800.304
5446611.250;881.478;858.568;871.494;861.436;746.138;792.630;807.568;796.877
5446611.258;889.041;863.038;881.404;865.757;753.514;793.226;808.612;800.528
5446611.266;865.012;838.600;857.748;841.990;724.532;768.676;784.174;768.118
5446611.274;872.053;842.251;867.993;844.635;727.214;778.511;794.753;777.617
5446611.282;852.719;820.868;851.341;826.083;705.719;753.924;771.731;751.577
5446611.290;855.364;822.023;855.066;830.032;711.083;752.211;770.129;760.294
5446611.298;904.649;866.875;902.228;873.394;755.899;791.959;810.660;796.728
5446611.306;872.239;831.485;867.993;841.059;718.385;761.487;780.635;760.220
5446611.314;845.492;808.276;837.706;817.440;688.210;736.676;755.228;732.802
5446611.322;836.141;794.716;832.118;802.912;683.144;727.922;745.580;730.716
5446611.330;844.486;800.043;844.784;810.958;693.612;749.044;770.837;758.320
5446611.338;847.951;802.241;845.306;813.007;691.153;734.776;759.289;745.282
5446611.346;829.697;783.913;823.028;797.398;670.999;692.196;716.969;701.882
5446611.354;825.822;777.096;823.140;788.532;668.503;693.388;718.720;705.905
5446611.362;854.805;800.230;855.774;809.804;698.790;717.938;744.239;734.776
5446611.370;833.832;778.697;832.193;794.008;671.968;689.961;721.291;702.404
5446611.378;818.036;765.659;815.727;780.746;656.433;677.742;710.972;692.680
5446611.386;828.877;777.394;824.518;794.157;664.629;691.526;727.102;709.072
5446611.394;840.165;787.713;836.328;804.067;674.874;699.498;738.129;717.342
5446611.402;835.285;781.082;829.920;795.722;668.280;692.159;731.051;713.021
5446611.410;843.555;790.395;833.832;807.121;668.913;697.896;738.725;715.554
5446611.418;851.825;799.634;840.984;813.678;674.576;701.025;741.109;718.012
5446611.426;834.726;782.013;823.662;797.845;665.151;682.026;719.428;699.684
5446611.434;841.096;787.973;824.593;806.153;668.541;695.959;732.988;708.140
5446611.442;851.452;797.771;832.528;814.833;678.934;694.245;727.326;709.817
5446611.450;823.326;770.502;802.390;790.320;648.014;669.397;701.547;683.404
5446611.458;834.614;777.543;810.884;797.957;655.353;679.977;710.450;699.013
5446611.466;842.772;785.142;819.229;807.717;663.735;680.983;708.736;708.178
5446611.474;844.076;785.924;817.776;810.176;670.589;688.098;717.677;711.530
5446611.482;829.659;775.978;801.384;798.590;663.027;675.954;712.238;696.219
5446611.490;826.605;773.184;794.791;793.934;664.257;676.662;716.932;695.996
5446611.498;831.969;776.164;807.457;798.628;667.050;681.318;722.222;701.137
5446611.546;823.699;770.241;806.972;791.661;664.555;681.467;720.248;705.719
5446611.554;799.894;749.417;775.605;770.167;645.518;658.333;698.045;681.728
5446611.562;778.139;726.283;750.199;746.623;634.715;645.816;684.597;670.068
5446611.570;771.619;716.746;744.872;738.092;634.529;642.873;677.593;658.035
5446611.578;759.847;707.991;725.314;728.965;616.834;630.915;662.021;644.140
5446611.586;719.316;671.968;676.587;693.575;577.346;574.961;598.766;596.866
5446611.594;714.101;662.170;671.633;682.585;580.326;566.654;595.227;588.782
5446611.602;777.319;726.506;737.458;744.984;646.971;638.366;670.627;655.986
5446611.610;754.483;704.415;714.548;724.159;624.955;617.169;653.490;631.958
5446611.618;755.191;703.298;709.407;720.657;615.306;606.440;644.810;620.149
5446611.626;753.514;703.596;705.123;724.755;619.739;611.879;647.828;627.972
5446611.634;749.119;704.527;693.575;729.337;615.157;619.180;653.379;635.982
5446611.642;734.329;688.545;676.811;712.313;600.852;605.807;637.770;622.310
5446611.650;734.776;687.875;675.507;711.866;602.640;605.509;639.558;615.343
5446611.658;738.502;693.314;674.054;714.958;605.769;598.058;632.219;607.409
5446611.666;733.621;690.147;674.129;715.852;610.426;601.038;634.342;608.861
5446611.674;738.986;697.710;677.109;727.139;618.398;618.473;652.485;624.768
5446611.682;744.052;704.415;680.648;732.020;629.015;621.080;656.210;630.468
5446611.690;712.685;673.979;647.753;700.951;597.462;589.155;624.247;597.835
5446611.698;716.560;680.275;649.020;703.484;603.273;584.573;619.479;597.686
5446611.706;740.662;705.905;668.317;729.039;630.356;608.750;643.469;623.800
5446611.714;717.007;683.069;637.807;704.788;608.005;579.767;614.636;592.098
5446611.722;700.690;668.131;616.349;688.620;590.831;564.828;599.436;575.446
5446611.730;720.844;690.930;632.554;715.181;614.114;588.894;619.628;601.858
5446611.751;679.716;650.696;582.933;674.687;572.093;553.131;581.406;568.740
5446611.759;657.663;628.755;553.578;653.304;545.681;535.436;563.934;542.849
5446611.767;685.342;657.327;578.687;682.101;580.810;566.021;594.445;570.826
5446611.775;672.601;643.954;559.762;669.286;570.975;557.490;584.722;563.674
5446611.783;628.643;599.064;512.227;628.196;531.003;521.652;546.128;527.799
5446611.791;679.679;649.206;557.415;677.779;583.790;577.606;599.623;578.202
5446611.799;662.357;633.188;534.095;667.088;569.895;575.893;594.705;574.589
5446611.807;630.133;600.442;504.516;635.311;540.577;550.449;566.654;543.147
5446611.815;603.050;574.738;476.502;609.644;513.494;525.564;544.228;512.339
5446611.823;591.315;563.413;459.291;601.895;505.932;528.246;547.767;515.617
5446611.831;596.829;566.766;460.818;604.354;516.698;531.934;550.821;526.086
5446611.839;610.575;580.959;469.908;619.367;528.172;548.512;566.952;541.247
5446611.847;590.719;560.805;446.960;597.574;506.490;530.891;547.804;516.474
5446611.855;609.644;579.320;462.942;615.530;527.017;550.449;565.015;533.648
5446611.863;619.777;587.590;472.590;626.668;541.769;571.795;585.951;556.968
5446611.871;583.455;549.555;434.481;587.851;505.224;538.081;552.684;526.309
5446611.879;583.790;547.357;435.673;586.323;505.485;539.906;555.925;526.533
5446611.887;576.079;536.740;426.397;577.122;498.518;528.581;543.594;517.145
5446611.895;573.769;532.605;422.262;573.620;496.730;522.956;535.995;516.586
5446611.903;609.495;567.921;457.615;612.773;529.252;557.601;571.236;542.402
5446611.911;586.733;543.296;434.071;586.882;502.430;528.693;542.477;509.284
5446611.919;564.344;519.268;412.166;564.456;480.674;508.986;523.143;488.348
5446611.927;593.364;544.116;443.123;590.496;511.445;539.385;554.845;516.735
5446611.935;566.728;512.488;419.058;559.278;487.901;515.059;529.699;494.383
5446611.886;581.034;524.856;436.045;576.042;502.318;537.559;552.200;518.300
5446611.894;585.318;527.948;441.037;579.506;498.965;547.208;562.742;522.584
5446611.902;554.360;495.724;414.401;548.512;467.151;523.925;536.852;503.473
5446611.910;565.760;507.124;429.898;559.315;482.388;508.167;526.868;489.764
5446611.918;554.472;494.830;424.795;548.363;470.355;490.807;514.910;468.083
5446611.926;568.330;504.628;443.980;559.986;483.692;507.534;530.221;483.990
5446611.934;574.216;505.485;451.133;558.309;484.400;505.112;527.166;484.139
5446611.942;594.668;525.229;480.525;580.363;514.165;524.111;546.426;504.702
5446611.950;618.249;547.916;510.141;603.125;539.981;544.451;566.058;536.777
5446611.958;599.995;529.029;492.521;584.722;511.669;528.023;552.647;517.704
5446611.966;561.960;490.248;456.274;548.810;466.183;504.442;528.768;483.878
5446611.974;588.186;515.990;485.554;571.981;501.238;520.535;539.906;505.075
5446611.982;561.886;491.068;461.414;547.804;476.502;504.218;521.876;487.827
5446611.990;546.053;474.639;448.152;534.318;458.881;495.575;509.284;485.145
5446611.998;555.553;482.835;460.781;538.751;464.655;478.439;494.570;462.122
5446612.006;581.890;507.459;490.844;562.891;487.901;481.866;498.034;459.813
5446612.014;610.277;535.920;520.162;584.424;513.531;500.716;521.205;478.551
5446612.022;587.367;519.417;498.146;568.964;482.723;494.160;519.454;464.357
5446612.030;564.791;499.226;477.210;549.927;460.222;476.800;501.499;450.350
5446612.038;576.861;512.823;490.136;566.952;480.562;487.342;514.798;466.853
5446612.046;588.819;525.750;506.602;584.386;500.903;513.531;536.330;497.028
5446612.054;554.174;491.589;471.883;547.692;467.971;491.515;511.408;478.290
5446612.062;521.503;461.787;437.610;522.844;438.839;472.814;489.652;455.305
5446612.070;510.029;448.227;424.609;509.396;431.277;463.761;475.794;441.894
5446612.050;496.916;436.567;406.951;496.656;415.891;456.646;464.767;435.114
5446612.058;521.913;464.730;429.004;525.452;442.564;489.168;495.836;459.664
5446612.066;528.246;469.908;432.581;528.768;448.972;497.885;504.293;464.357
5446612.074;483.133;423.528;385.828;481.792;404.902;460.818;464.991;431.687
5446612.082;434.779;372.119;338.145;431.165;363.886;398.606;404.604;373.684
5446612.090;437.610;375.211;335.053;435.598;363.030;406.876;415.556;381.917
5446612.098;463.240;402.406;358.671;467.077;384.934;453.703;465.475;419.728
5446612.106;471.734;410.117;370.108;474.043;410.192;461.005;472.926;435.896
5446612.114;463.948;401.624;361.800;468.567;407.286;444.464;456.907;416.078
5446612.122;426.061;361.688;325.963;430.271;373.684;396.967;407.621;377.372
5446612.130;354.834;290.461;254.437;358.783;306.554;320.710;333.004;294.149
5446612.138;324.324;262.074;220.127;333.600;266.656;297.204;313.371;263.788
5446612.146;399.500;336.953;292.957;406.243;344.291;370.480;387.952;344.403
5446612.154;321.120;260.025;211.410;332.221;271.015;305.027;321.269;278.465
5446612.162;237.711;175.722;125.729;247.434;187.010;224.672;236.034;193.454
5446612.170;216.849;155.121;102.110;226.051;166.446;200.719;209.771;173.487
5446612.178;156.909;99.093;42.878;171.326;108.890;147.447;157.729;120.588
5446612.186;125.766;68.322;8.531;135.079;76.927;106.208;118.539;87.246
5446612.194;144.355;87.768;24.140;155.196;85.533;129.230;144.914;106.171
5446612.202;119.880;62.287;0.596;131.726;69.626;106.543;120.066;79.125
5446612.210;82.105;23.469;-34.869;88.699;38.259;65.193;77.039;44.256
5446612.218;78.455;22.314;-40.121;84.229;29.616;56.885;67.018;34.757
5446612.226;81.770;26.040;-38.669;80.131;34.012;32.932;42.729;13.597
5446612.234;101.104;43.921;-18.589;93.877;53.756;50.440;55.060;37.402
5446612.245;73.910;14.976;-45.411;60.573;27.791;26.003;27.753;12.554
5446612.253;90.674;34.645;-29.728;75.884;45.672;32.559;35.502;17.807
5446612.261;42.543;-9.611;-75.847;33.602;1.378;0.745;0.708;-11.288
5446612.269;58.599;4.657;-57.854;45.747;18.440;11.586;7.823;9.686
5446612.277;62.063;9.760;-55.768;53.160;20.079;16.429;10.543;7.972
5446612.285;45.374;-7.078;-74.916;34.049;2.310;8.307;1.341;1.676
5446612.293;85.682;31.926;-31.851;66.832;44.480;34.273;27.977;29.318
5446612.301;85.831;33.714;-27.716;69.439;49.733;40.568;34.049;33.192
5446612.309;119.843;69.812;6.035;102.073;83.894;73.500;67.391;67.838
5446612.317;195.652;147.484;79.684;177.175;151.508;129.193;123.009;119.209
5446612.325;200.868;148.006;86.650;173.785;154.264;121.556;115.447;113.100
5446612.333;196.397;137.612;90.003;156.090;160.970;111.274;105.388;110.306
5446612.341;213.310;158.176;109.337;178.702;180.975;139.363;131.279;136.197
5446612.349;217.445;164.323;114.739;184.514;184.700;143.796;135.377;143.237
5446612.357;217.184;164.844;119.023;187.829;188.984;157.356;149.868;156.350
5446612.365;216.998;163.689;121.333;188.015;191.815;159.778;152.513;158.362
5446612.373;235.699;180.677;142.306;206.418;215.471;181.198;175.238;182.576
5446612.381;274.330;215.881;184.625;247.546;257.231;235.513;230.335;230.074
5446612.389;289.902;228.658;200.532;261.478;273.325;246.875;245.199;242.367
5446612.397;284.314;220.984;197.068;255.331;268.929;247.471;245.236;245.571
5446612.405;312.179;246.242;227.951;280.701;300.854;278.689;276.938;279.322
5446612.413;331.104;263.229;250.340;299.960;322.089;294.112;294.149;297.613
5446612.421;353.940;283.271;272.729;326.745;341.088;326.112;326.298;324.734
5446612.429;342.131;267.774;259.727;311.807;327.528;311.211;315.122;311.770
5446612.381;344.366;266.992;265.352;312.999;331.141;319.257;327.602;319.555
5446612.389;378.937;299.029;301.898;347.607;362.471;355.728;366.122;358.708
5446612.397;386.983;303.127;309.087;351.518;366.531;362.545;375.584;371.262
5446612.405;356.175;267.476;284.612;321.083;341.162;345.819;360.161;351.705
5446612.413;344.887;253.841;279.061;304.654;335.872;319.108;334.978;328.459
5446612.421;380.836;288.337;318.885;336.841;367.984;329.018;345.260;339.486
5446612.429;388.920;294.223;326.969;339.784;364.110;323.579;339.188;335.798
5446612.437;437.796;341.088;374.392;382.699;401.735;352.934;368.394;370.666
5446612.445;441.745;343.285;381.060;383.407;400.469;365.824;377.409;383.072
5446612.453;447.594;347.011;387.318;381.581;399.835;358.932;372.715;369.288
5446612.461;438.131;336.356;380.836;370.555;387.728;349.693;368.468;353.009
5446612.469;443.384;341.497;387.654;379.197;394.732;368.021;390.448;376.627
5446612.477;454.374;352.897;402.220;393.279;410.974;371.225;398.606;375.397
5446612.485;438.504;336.878;388.101;383.556;392.757;356.622;386.238;363.104
5446612.493;445.992;339.188;397.898;384.040;397.936;351.779;380.613;370.741
5446612.501;462.793;354.573;416.525;397.265;412.762;363.253;391.603;380.874
5446612.509;481.233;371.374;437.237;412.986;424.497;371.784;398.830;386.834
5446612.517;486.076;373.088;442.415;414.737;430.979;372.119;400.096;383.444
5446612.525;459.962;344.813;418.834;390.373;408.553;345.521;372.641;352.822
5446612.533;511.259;392.087;471.212;434.928;453.107;367.276;394.173;379.719
5446612.541;511.892;390.597;473.075;436.753;450.909;373.870;404.157;387.169
5446612.549;496.022;373.535;462.197;419.281;440.702;355.355;387.169;374.690
5446612.557;516.586;395.104;485.666;441.261;462.122;361.651;393.242;392.348
5446612.565;535.026;416.227;505.522;469.387;478.216;396.743;431.836;423.081
5446612.548;513.419;394.136;482.164;447.147;452.064;378.527;417.605;397.004
5446612.556;490.174;373.088;459.701;428.781;428.930;361.800;402.741;374.317
5446612.564;485.890;370.517;463.836;425.763;433.698;364.780;404.753;381.805
5446612.572;501.610;387.356;482.872;439.361;456.050;358.187;403.337;373.572
5446612.580;456.013;342.242;436.306;393.838;407.808;315.979;362.061;325.292
5446612.588;438.802;325.963;420.697;375.584;391.305;304.542;347.085;322.461
5446612.596;497.475;382.215;480.562;436.008;449.307;367.984;408.590;382.513
5446612.604;503.249;387.095;486.970;442.490;455.827;369.474;409.037;384.264
5446612.612;487.827;372.380;472.851;425.726;441.000;350.587;392.236;366.569
5446612.620;513.159;397.563;497.252;449.866;469.163;378.974;422.262;390.187
5446612.628;520.162;402.257;501.871;454.895;474.192;387.020;432.283;404.753
5446612.636;483.356;366.904;467.598;423.826;440.180;346.601;393.093;357.442
5446612.644;466.332;349.954;448.897;407.919;419.468;319.891;364.408;336.431
5446612.652;481.606;364.482;463.650;420.362;430.569;333.339;380.129;356.883
5446612.660;482.574;365.339;469.014;420.064;438.392;345.707;391.416;368.021
5446612.668;450.127;332.296;438.690;383.668;409.260;300.817;350.364;323.616
5446612.676;447.258;327.416;439.286;376.888;406.988;297.278;346.452;326.484
5446612.684;411.160;293.925;402.629;344.366;363.588;262.931;314.862;284.836
5446612.692;362.210;250.041;352.934;304.431;317.954;216.290;268.519;233.799
5446612.700;380.203;269.189;376.143;331.588;349.395;261.702;308.454;270.605
5446612.708;305.735;193.119;304.617;257.343;276.677;183.322;221.170;194.125
5446612.716;242.293;130.720;238.791;194.944;211.447;110.045;140.369;123.233
5446612.724;284.389;175.759;273.064;240.467;247.397;158.548;192.225;165.924
5446612.732;301.041;194.348;284.836;256.673;260.659;183.955;222.959;186.488
5446612.785;256.002;149.570;241.362;216.216;220.463;158.288;202.097;160.336
5446612.793;213.496;107.288;203.550;173.599;189.394;118.576;165.291;126.995
5446612.801;167.228;62.846;158.846;128.895;144.579;82.552;128.038;91.121
5446612.809;115.074;14.976;107.512;82.366;97.230;63.740;110.120;63.851
5446612.817;110.380;15.460;102.632;82.068;100.471;84.005;128.597;82.329
5446612.825;90.376;-2.757;82.441;64.373;81.435;85.868;123.903;75.735
5446612.833;60.126;-32.969;51.856;27.530;56.699;62.399;80.839;37.476
5446612.841;31.814;-58.077;22.128;2.831;27.940;46.901;42.319;16.578
5446612.849;45.784;-40.829;36.247;20.303;47.758;67.987;48.839;40.419
5446612.857;51.036;-37.886;36.098;20.303;53.309;70.110;42.431;40.829
5446612.865;25.630;-61.281;10.543;3.278;26.450;45.486;14.603;19.148
5446612.873;-18.924;-105.426;-29.430;-39.898;0.373;2.868;-24.922;-8.047
5446612.881;-71.153;-155.903;-84.117;-92.052;-49.211;-37.737;-61.467;-58.077
5446612.889;-92.275;-174.604;-110.716;-108.816;-77.151;-57.928;-80.578;-85.719
5446612.897;-83.409;-161.901;-99.428;-97.007;-56.885;-48.913;-65.193;-74.506
5446612.905;-121.891;-194.721;-133.179;-128.113;-85.682;-72.345;-83.856;-99.801
5446612.913;-103.116;-169.054;-124.574;-105.724;-71.079;-72.569;-82.627;-96.187
5446612.921;-80.988;-142.865;-114.255;-81.956;-58.040;-56.773;-68.918;-74.618
5446612.929;-79.609;-139.289;-119.954;-75.549;-59.344;-55.507;-70.930;-72.755
5446612.937;-25.444;-80.578;-75.772;-19.968;-3.465;-17.621;-35.167;-33.975
5446612.945;-50.962;-103.302;-108.778;-41.835;-22.426;-32.187;-52.042;-57.481
5446612.953;-45.188;-95.069;-113.212;-32.969;-24.550;-28.685;-49.993;-55.358
5446612.961;-44.219;-93.170;-122.152;-26.114;-28.014;-23.767;-45.933;-52.229
5446612.969;-37.067;-89.146;-119.992;-23.395;-11.660;-21.048;-43.474;-46.268
5446612.967;-10.356;-62.920;-96.336;0.596;23.395;-0.596;-23.209;-21.793
5446612.975;13.337;-35.353;-79.498;34.198;41.351;37.551;16.317;14.715
5446612.983;50.887;2.980;-48.243;74.171;74.990;70.632;51.446;46.268
5446612.991;57.891;6.668;-43.772;76.368;87.619;76.629;58.450;57.742
5446612.999;47.497;-2.384;-59.083;71.339;75.884;58.822;54.017;46.305
5446613.007;42.133;-5.998;-68.024;69.551;72.606;53.681;51.111;47.535
5446613.015;66.347;17.360;-47.348;95.628;94.771;89.742;87.284;82.366
5446613.023;142.455;92.536;21.048;170.879;170.097;173.524;166.371;169.277
5446613.031;178.255;124.872;62.287;208.430;206.307;201.277;192.262;192.001
5446613.039;175.200;125.058;62.659;209.548;204.965;195.391;190.251;181.533
5446613.047;216.812;170.916;106.394;256.002;250.004;238.419;234.768;227.578
5446613.055;249.781;206.083;138.767;291.467;285.767;283.308;281.744;268.593
5446613.063;216.290;174.120;101.700;262.000;245.795;259.876;261.478;245.646
5446613.071;197.329;155.829;91.717;244.714;237.785;254.475;258.237;242.367
5446613.079;239.871;195.801;136.942;279.956;274.591;282.079;285.245;271.089
5446613.087;234.991;180.900;127.703;257.492;261.068;258.982;260.361;249.557
5446613.095;288.337;233.240;184.998;305.772;311.844;307.746;305.064;296.012
5446613.103;311.285;261.664;209.026;332.482;331.923;314.601;309.274;298.843
5446613.111;290.796;238.530;190.809;307.858;313.446;294.633;290.163;276.864
5446613.119;251.904;195.839;152.551;263.639;272.915;254.586;249.445;236.407
5446613.127;245.161;188.388;146.702;253.022;268.929;249.185;244.752;234.284
5446613.135;270.493;213.869;173.897;281.930;290.908;287.406;283.681;264.682
5446613.143;265.390;209.846;170.730;283.495;284.091;280.440;279.956;249.371
5446613.151;238.046;183.433;149.943;263.564;259.243;269.152;269.152;237.897
5446613.131;207.648;152.625;125.840;233.129;234.842;251.196;253.022;223.704
5446613.139;246.316;189.096;167.601;272.021;269.189;290.088;292.249;266.656
5446613.147;246.353;191.033;171.997;275.299;269.786;300.892;304.468;264.831
5446613.155;222.400;164.062;153.780;246.651;253.804;275.783;278.987;238.605
5446613.163;199.080;136.457;133.589;222.698;226.535;256.784;254.847;222.698
5446613.171;228.547;165.105;168.905;254.437;247.695;293.478;287.294;260.025
5446613.179;219.382;157.207;163.838;249.296;238.493;274.032;265.464;241.064
5446613.187;178.665;115.409;124.574;208.952;198.483;234.284;224.337;197.478
5446613.195;208.132;142.381;154.749;231.862;223.033;260.286;253.096;223.368
5446613.203;203.066;137.538;154.078;233.054;212.230;258.386;255.257;221.208
5446613.211;183.545;117.160;141.449;218.377;188.686;239.499;240.281;203.624
5446613.219;191.033;124.462;153.035;224.486;193.641;245.012;248.365;210.144
5446613.227;155.158;89.705;120.923;191.145;154.451;218.004;223.331;182.129
5446613.235;142.753;75.772;113.994;176.989;141.822;206.120;211.187;181.273
5446613.243;168.830;100.322;141.859;207.685;156.350;231.154;236.146;205.263
5446613.251;149.682;78.790;126.772;185.519;129.342;210.293;214.726;179.633
5446613.259;131.764;56.773;116.490;162.050;119.247;196.397;203.252;165.440
5446613.267;154.451;78.082;140.667;186.376;149.608;216.030;222.065;189.394
5446613.275;186.935;119.209;166.893;226.125;167.601;225.753;241.175;185.631
5446613.283;173.971;121.258;157.654;230.409;142.567;217.371;240.542;173.785
5446613.291;203.699;150.166;192.001;260.919;170.134;239.760;262.745;203.326
5446613.299;212.304;153.035;198.483;268.109;177.175;236.928;256.225;205.860
5446613.307;212.677;153.296;200.011;273.399;178.106;259.243;276.603;229.552
5446613.315;191.927;131.205;179.261;252.463;149.645;233.538;254.847;209.697
5446613.341;160.374;103.973;151.619;228.956;119.917;204.369;225.231;189.655
5446613.349;153.854;93.728;150.055;214.539;116.751;181.161;200.309;168.458
5446613.357;206.120;142.157;205.263;247.359;163.354;213.422;236.109;201.948
5446613.365;176.094;110.455;181.124;205.524;134.520;177.734;204.071;164.360
5446613.373;209.026;143.126;216.030;224.672;160.560;160.523;186.488;144.206
5446613.381;349.768;285.991;356.473;361.018;291.839;260.808;295.378;232.682
5446613.389;423.417;355.430;438.243;421.144;369.176;296.719;332.519;268.519
5446613.397;417.307;343.882;439.137;398.643;366.792;266.209;299.700;240.803
5446613.405;431.016;353.754;454.485;400.990;376.403;256.859;286.885;228.174
5446613.413;447.147;367.463;473.298;390.932;391.155;239.722;265.539;222.661
5446613.421;467.338;385.419;500.306;381.544;415.184;231.415;254.326;232.384
5446613.429;500.195;412.501;526.421;394.508;448.786;225.864;255.667;222.214
5446613.437;473.708;380.129;512.376;369.884;426.136;178.739;212.379;176.840
5446613.445;483.394;386.983;539.795;372.529;442.006;194.870;228.249;186.190
5446613.453;533.313;445.209;583.455;426.881;488.721;246.540;276.566;226.274
5446613.461;478.476;389.591;530.370;370.182;444.427;215.545;241.436;198.744
5446613.469;407.137;315.495;454.597;293.255;367.835;177.287;199.825;156.909
5446613.477;345.074;254.773;402.443;235.550;334.196;156.164;175.983;134.632
5446613.485;241.995;157.245;291.020;137.575;237.003;94.138;104.047;62.771
5446613.493;87.954;7.749;144.951;-21.011;97.044;-24.475;-24.959;-49.919
5446613.501;-27.604;-105.798;37.700;-97.267;8.382;-113.472;-117.347;-126.325
5446613.509;-175.461;-250.749;-109.971;-247.844;-132.434;-228.621;-235.438;-237.376
5446613.517;-304.691;-374.354;-234.544;-376.739;-253.655;-324.808;-320.598;-324.957
5446613.525;-334.494;-391.379;-267.588;-404.268;-277.832;-332.706;-299.364;-328.533
5446613.537;-321.083;-377.484;-261.962;-395.738;-269.860;-328.496;-280.999;-340.343
5446613.545;-325.665;-378.340;-275.001;-395.179;-276.603;-329.763;-288.673;-343.621
5446613.553;-274.107;-318.997;-229.478;-339.709;-224.076;-256.076;-225.492;-267.662
5446613.561;-325.926;-362.620;-291.802;-382.252;-283.644;-280.999;-271.313;-295.229
5446613.569;-411.458;-444.800;-386.089;-461.042;-370.629;-363.104;-372.156;-390.820
5446613.577;-430.010;-459.887;-414.029;-473.708;-393.875;-388.026;-410.192;-412.129
5446613.585;-409.111;-436.343;-403.114;-450.797;-378.862;-368.543;-390.671;-384.636
5446613.593;-388.809;-410.564;-388.734;-427.775;-354.685;-358.038;-378.378;-370.108
5446613.601;-334.010;-355.467;-338.070;-374.429;-310.987;-313.856;-325.553;-324.883
5446613.609;-373.945;-390.522;-378.340;-403.784;-353.940;-356.734;-361.949;-365.488
5446613.617;-326.931;-341.758;-338.554;-352.338;-316.240;-318.214;-317.059;-325.628
5446613.625;-325.069;-339.001;-345.483;-351.369;-321.381;-316.463;-310.577;-314.377
5446613.633;-312.589;-321.940;-342.205;-337.772;-301.674;-299.141;-289.269;-295.937
5446613.641;-314.564;-319.593;-350.922;-326.037;-309.832;-288.598;-279.322;-286.661
5446613.649;-265.352;-269.152;-310.913;-274.666;-266.396;-232.793;-227.466;-223.964
5446613.657;-241.846;-239.834;-292.212;-247.657;-247.732;-215.471;-208.095;-208.840
5446613.665;-237.264;-234.768;-286.065;-238.381;-251.494;-225.976;-224.821;-220.649
5446613.673;-173.301;-168.458;-233.054;-168.420;-201.687;-179.112;-179.559;-181.384
5446613.681;-164.099;-158.474;-221.394;-161.342;-186.898;-155.941;-152.960;-158.213
5446613.689;-169.910;-171.028;-212.453;-177.100;-168.048;-162.609;-162.981;-152.476
5446613.697;-157.654;-161.827;-195.950;-170.730;-148.565;-142.567;-146.218;-126.399
5446613.705;-147.484;-153.407;-180.416;-168.122;-130.162;-119.060;-124.760;-107.363
5446613.713;-141.375;-150.166;-168.495;-171.624;-112.578;-105.500;-112.019;-97.230
5446613.721;-153.668;-170.469;-172.257;-197.627;-111.200;-119.470;-124.983;-107.922
5446613.702;-147.745;-169.612;-157.543;-201.091;-93.579;-114.441;-118.613;-106.990
5446613.710;-134.632;-160.374;-135.340;-197.329;-68.508;-107.363;-108.033;-103.638
5446613.718;-131.987;-162.162;-124.723;-202.693;-53.570;-104.085;-107.661;-86.166
5446613.726;-125.989;-160.486;-112.318;-199.974;-39.637;-95.405;-101.998;-78.753
5446613.734;-103.042;-136.420;-86.464;-179.000;-14.491;-62.883;-70.482;-44.331
5446613.742;-59.307;-91.754;-40.829;-136.159;26.077;-23.618;-32.000;-1.192
5446613.750;-80.355;-113.733;-62.175;-158.437;-0.410;-39.078;-46.641;-22.352
5446613.758;-130.348;-163.652;-112.094;-204.444;-55.134;-77.598;-85.719;-65.006
5446613.766;-77.486;-108.667;-58.375;-148.863;-12.219;-23.618;-30.920;-20.638
5446613.774;-24.587;-53.458;-9.649;-91.866;28.685;28.573;17.062;36.135
5446613.782;-2.049;-31.441;14.193;-68.061;52.303;48.690;32.261;55.581
5446613.790;12.964;-19.222;31.181;-58.413;63.479;48.131;33.416;46.715
5446613.798;-3.949;-36.880;15.236;-71.041;42.580;24.624;10.580;23.730
