Timestamp,AFz,AF3,AF4,AF7,AF8,Pz,P3,P4,2024-05-08 11:49:37.841,fs=125
4754190.261;210.032;264.905;229.478;240.505;277.124;375.360;356.548;247.248
4754190.269;197.925;250.526;217.967;224.672;270.456;370.182;352.375;235.960
4754190.277;205.301;257.678;224.598;233.129;278.428;382.029;352.897;241.175
4754190.285;203.252;252.984;224.188;226.796;282.228;384.040;348.538;240.505
4754190.293;191.256;236.817;212.826;209.883;273.138;373.013;338.927;234.433
4754190.301;176.057;217.594;194.609;192.896;256.598;358.336;321.195;215.173
4754190.309;185.482;225.864;200.197;205.450;262.968;373.274;335.760;219.159
4754190.317;197.068;234.284;210.851;212.938;275.895;391.640;348.501;236.332
4754190.325;204.332;240.169;214.763;221.357;277.534;401.512;357.032;244.714
4754190.333;208.244;239.871;217.780;219.271;280.589;410.490;372.492;252.798
4754190.341;218.675;248.700;229.478;231.117;296.086;415.333;371.374;261.962
4754190.349;215.322;244.379;225.864;228.658;285.357;403.225;355.318;247.508
4754190.357;220.388;249.818;227.727;235.476;281.148;395.738;349.544;238.568
4754190.365;241.585;273.287;245.869;260.770;295.974;397.563;349.991;243.187
4754190.373;265.539;300.370;270.158;289.865;312.515;411.049;363.030;257.529
4754190.381;305.809;338.368;312.626;325.255;344.366;407.025;357.218;256.933
4754190.389;360.236;393.316;370.480;376.627;387.467;411.347;364.967;258.349
4754190.397;409.968;431.612;429.749;406.466;433.363;410.154;363.030;256.151
4754190.405;453.964;460.744;485.927;420.585;487.417;413.731;366.531;262.223
4754190.413;461.228;460.669;500.306;410.564;501.983;412.688;355.840;267.364
4754190.421;445.023;435.710;493.415;378.825;505.820;402.294;349.283;254.884
4754190.429;426.844;410.043;480.600;344.440;499.934;404.865;358.857;258.237
4754190.437;409.670;386.164;473.633;317.246;513.345;412.129;362.434;269.264
4754190.445;382.364;356.957;449.121;285.618;491.105;412.501;355.653;272.244
4754190.410;347.309;320.971;414.178;247.732;461.787;416.636;357.553;278.018
4754190.418;319.481;294.112;388.697;220.165;441.745;413.842;357.367;274.517
4754190.426;299.625;272.952;373.013;200.048;433.773;408.404;350.289;265.650
4754190.434;297.762;268.146;373.088;196.695;438.616;428.110;371.672;285.357
4754190.442;279.322;248.998;346.415;179.186;401.363;433.326;374.950;289.083
4754190.450;277.460;245.310;343.807;180.043;405.237;439.584;380.911;295.565
4754190.458;261.292;228.435;324.175;167.117;384.636;429.526;371.300;279.397
4754190.466;248.142;211.634;306.591;151.992;367.686;423.826;362.210;278.093
4754190.474;246.242;209.101;303.090;151.768;368.543;429.116;372.827;284.500
4754190.482;245.944;209.995;303.164;153.519;368.990;441.335;392.087;294.149
4754190.490;247.806;211.261;311.881;154.190;386.685;458.844;410.303;311.062
4754190.498;222.549;189.207;285.655;133.701;361.428;450.425;401.624;296.123
4754190.506;207.126;176.653;270.978;124.872;355.951;448.115;402.443;297.911
4754190.514;211.708;180.639;276.938;129.975;368.059;459.515;414.141;318.103
4754190.522;196.323;165.775;260.323;114.888;354.089;449.903;401.624;309.534
4754190.530;176.057;146.255;242.032;95.628;343.025;430.681;382.327;288.896
4754190.538;193.380;163.689;263.900;112.951;375.435;446.923;397.190;310.354
4754190.546;206.567;177.026;277.944;123.829;394.732;458.322;409.000;321.940
4754190.554;205.189;177.473;273.436;122.190;399.239;457.875;412.501;321.306
4754190.562;206.456;178.963;278.577;117.943;413.582;457.354;409.223;320.040
4754190.570;194.609;168.644;266.954;106.469;408.888;454.187;402.257;317.805
4754190.578;192.598;165.924;269.227;101.514;428.222;450.425;393.577;316.314
4754190.586;195.988;171.810;274.219;106.618;440.851;458.919;405.014;325.739
4754190.594;202.246;176.914;282.153;111.721;453.144;469.573;415.407;336.953
4754190.545;205.673;178.292;291.727;113.584;476.092;476.278;421.107;344.180
4754190.553;205.934;179.559;282.675;114.664;470.318;485.145;432.655;356.026
4754190.561;209.399;179.447;287.257;115.186;492.819;488.199;440.255;357.777
4754190.569;191.554;159.554;269.227;96.820;492.185;479.370;427.365;344.813
4754190.577;195.689;157.319;270.158;95.554;505.596;477.917;421.628;344.329
4754190.585;214.949;168.458;297.539;104.643;570.193;487.864;431.240;357.963
4754190.593;211.522;163.987;281.334;102.222;574.030;490.434;440.143;361.763
4754190.601;214.279;163.801;279.918;101.104;621.192;489.876;443.310;366.233
4754190.609;208.505;160.597;270.493;98.385;639.334;483.282;441.112;356.920
4754190.617;210.516;160.448;273.027;99.726;680.983;482.537;436.567;357.591
4754190.625;219.233;167.303;283.830;107.177;727.698;489.838;438.914;366.084
4754190.633;222.512;170.134;291.690;110.790;773.966;493.191;441.708;368.655
4754190.641;217.482;167.266;276.938;110.120;780.746;493.564;443.459;371.784
4754190.649;209.808;163.242;262.745;108.853;804.961;487.715;435.598;368.692
4754190.657;207.983;161.007;266.731;107.698;853.390;483.356;435.151;365.227
4754190.665;214.167;166.595;278.167;114.441;895.970;488.870;436.232;371.039
4754190.673;212.751;166.558;278.279;115.968;932.217;494.197;440.739;373.796
4754190.681;219.047;170.432;288.971;119.545;967.421;498.220;441.633;378.564
4754190.689;212.193;168.756;274.889;122.562;985.861;503.585;449.195;382.401
4754190.697;207.461;160.262;278.950;116.266;1031.868;500.418;446.960;375.472
4754190.705;206.716;161.044;278.577;119.805;1070.350;507.124;448.786;382.997
4754190.713;207.685;164.360;284.202;127.107;1116.172;509.731;451.133;381.060
4754190.721;211.634;169.650;291.988;134.893;1154.393;511.929;457.726;377.968
4754190.729;213.720;178.181;291.616;145.957;1183.413;520.423;464.953;386.611
4754190.710;200.421;168.607;277.050;139.810;1216.382;514.351;457.913;381.172
4754190.718;195.988;163.987;282.936;136.755;1273.230;513.569;462.756;382.289
4754190.726;190.325;160.076;277.311;137.314;1305.342;512.637;457.950;380.501
4754190.734;194.833;162.385;288.934;141.226;1361.072;517.145;459.924;383.072
4754190.742;203.364;171.736;296.943;151.619;1408.942;529.326;477.284;391.491
4754190.750;200.346;171.773;282.526;153.072;1432.486;531.599;476.539;391.230
4754190.758;198.930;173.263;278.577;155.605;1476.817;535.995;479.557;393.614
4754190.766;201.836;174.567;285.283;158.809;1532.175;537.783;479.072;397.302
4754190.774;202.768;175.349;287.145;160.523;1571.104;533.499;476.465;393.800
4754190.782;203.326;177.920;287.406;163.279;1596.287;533.983;477.023;397.004
4754190.790;204.556;181.235;290.647;169.054;1634.918;539.087;484.884;401.549
4754190.798;206.865;185.631;297.688;176.542;1666.695;544.637;489.466;407.472
4754190.806;208.803;191.145;304.356;183.582;1697.466;552.163;495.575;411.347
4754190.814;207.424;190.958;311.658;184.961;1717.545;553.317;498.258;410.713
4754190.822;205.413;192.821;310.093;189.878;1733.191;556.000;498.593;413.768
4754190.830;204.518;192.821;312.626;189.990;1746.006;556.484;496.879;414.401
4754190.838;209.250;196.956;320.598;196.099;1765.974;561.401;496.060;420.883
4754190.846;206.195;192.449;319.742;193.566;1767.688;559.241;493.340;420.138
4754190.854;200.719;181.869;321.791;183.471;1765.862;552.684;487.342;417.978
4754190.862;190.996;174.530;310.950;178.143;1772.717;558.719;495.166;425.093
4754190.870;187.606;168.830;315.309;175.983;1774.579;558.794;485.927;426.359
4754190.878;180.565;162.534;309.981;172.667;1763.701;557.862;482.202;427.850
4754190.886;172.332;154.413;299.588;167.713;1735.091;553.317;483.356;420.697
4754190.894;180.639;161.380;320.412;177.510;1738.556;559.390;494.458;424.162
4754190.980;180.081;160.374;325.814;179.335;1731.440;564.866;501.014;429.712
4754190.988;173.114;152.774;322.200;176.542;1719.967;563.823;494.532;428.371
4754190.996;168.793;147.969;321.232;172.891;1697.503;565.387;497.699;427.589
4754191.004;169.948;147.596;328.869;175.200;1679.435;564.083;500.344;426.210
4754191.012;178.255;154.413;339.486;185.855;1657.456;567.399;508.279;429.898
4754191.020;179.149;155.568;343.621;189.096;1645.982;573.881;512.227;435.859
4754191.028;173.859;149.459;344.329;184.476;1621.768;569.411;505.410;432.134
4754191.036;175.834;151.545;353.083;186.488;1597.740;570.118;504.926;433.996
4754191.044;180.863;157.878;359.900;195.689;1575.984;573.546;509.620;438.429
4754191.052;185.296;161.119;371.300;200.719;1570.806;571.348;505.000;439.137
4754191.060;187.196;159.033;381.768;197.366;1560.003;568.591;501.946;437.945
4754191.068;178.553;151.396;367.425;192.337;1512.617;562.333;494.979;433.102
4754191.076;170.358;146.367;359.565;189.170;1493.655;563.823;494.607;435.002
4754191.084;174.642;149.272;371.933;194.274;1483.038;572.912;502.393;445.582
4754191.092;171.140;142.939;377.521;187.866;1474.768;572.056;496.916;445.209
4754191.100;171.587;142.381;382.997;186.861;1469.031;576.638;500.306;446.551
4754191.108;173.524;141.561;387.654;189.282;1448.207;575.073;501.126;442.751
4754191.116;179.447;143.610;394.993;193.529;1426.600;570.938;495.240;439.174
4754191.124;180.528;142.902;396.818;194.535;1402.311;574.216;500.567;444.725
4754191.132;178.106;140.816;392.646;195.466;1386.106;577.942;497.624;452.884
4754191.140;187.568;146.516;409.223;201.724;1380.295;587.776;507.236;464.395
4754191.148;188.015;147.223;409.707;204.667;1357.198;586.100;506.863;462.271
4754191.156;186.525;143.573;409.074;202.321;1348.630;584.424;504.218;464.059
4754191.164;183.024;135.489;400.133;201.389;1320.243;580.959;500.903;458.397
4754191.160;183.098;129.677;404.976;199.564;1318.157;579.283;498.854;455.566
4754191.168;191.219;130.087;415.444;199.787;1326.613;586.547;506.453;464.395
4754191.176;190.437;126.697;408.813;197.850;1294.017;586.919;506.006;467.412
4754191.184;185.259;121.519;399.947;195.354;1268.014;579.320;496.507;460.297
4754191.192;185.333;119.507;400.841;192.076;1258.440;577.569;495.352;460.334
4754191.200;187.308;121.146;404.157;195.503;1250.990;576.824;497.624;458.844
4754191.208;192.076;126.101;409.670;199.825;1249.015;584.125;507.832;464.618
4754191.216;195.988;128.634;415.780;201.650;1247.711;586.212;504.889;465.289
4754191.224;196.844;125.393;426.620;195.988;1241.229;582.151;499.971;458.248
4754191.232;186.376;120.103;401.698;188.425;1207.404;580.288;493.266;460.781
4754191.240;194.423;127.591;420.436;192.225;1225.285;585.429;496.171;469.722
4754191.248;193.417;128.746;417.233;191.703;1212.247;590.757;498.034;476.427
4754191.256;185.780;121.035;411.943;185.035;1199.916;587.851;491.813;471.696
4754191.264;170.060;101.924;395.477;162.758;1172.535;583.865;490.509;466.034
4754191.272;172.220;108.592;393.204;173.375;1159.459;588.112;497.438;470.951
4754191.280;194.050;133.999;405.200;205.338;1162.700;590.943;500.381;478.625
4754191.288;199.825;143.535;403.225;220.351;1140.982;588.037;498.891;475.422
4754191.296;187.606;136.010;381.544;221.580;1103.841;579.879;489.950;467.524
4754191.304;172.257;122.748;359.789;215.396;1068.152;574.850;487.827;461.042
4754191.312;172.481;123.940;357.032;222.139;1047.477;580.922;489.727;470.579
4754191.320;164.062;119.694;338.480;225.343;1014.061;583.678;492.483;477.433
4754191.328;142.939;101.663;314.266;211.000;973.828;577.942;490.621;467.747
4754191.336;141.226;103.377;311.844;219.494;953.972;586.472;504.255;476.427
4754191.344;142.120;107.959;312.999;227.243;935.532;596.903;510.588;488.944
4754191.355;141.785;107.400;313.744;225.566;915.155;600.182;515.729;489.391
4754191.363;131.093;97.342;304.580;216.253;879.169;592.098;514.798;482.425
4754191.371;123.084;89.929;298.135;207.499;839.494;589.639;514.053;482.649
4754191.379;113.584;79.647;291.541;197.515;788.569;580.400;503.212;469.126
4754191.387;115.037;79.423;297.986;196.733;747.591;583.306;505.783;470.541
4754191.395;112.988;74.059;298.135;190.213;689.514;588.186;506.863;474.900
4754191.403;119.396;77.710;308.380;193.566;649.020;598.766;521.913;486.858
4754191.411;113.286;68.955;306.554;182.129;599.176;594.258;512.488;486.560
4754191.419;104.904;56.513;304.095;169.277;550.449;581.592;496.395;477.545
4754191.427;107.549;57.369;311.360;170.469;516.027;575.595;491.738;474.192
4754191.435;116.862;65.006;323.355;180.341;489.280;578.128;496.954;478.439
4754191.443;112.318;58.785;320.263;173.934;444.539;572.838;493.862;470.877
4754191.451;111.312;58.562;321.269;176.653;405.014;572.503;500.567;465.699
4754191.459;109.635;53.532;324.175;172.034;372.007;570.826;500.865;468.232
4754191.467;108.071;49.956;326.000;165.924;336.021;571.199;499.450;472.590
4754191.475;102.520;45.598;321.530;163.242;297.390;571.832;500.716;472.888
4754191.483;99.316;42.394;322.349;162.311;274.070;570.193;501.610;467.375
4754191.491;104.047;47.237;331.402;167.266;262.298;573.322;506.863;471.957
4754191.499;113.957;55.395;345.632;175.126;258.349;578.873;510.029;481.568
4754191.507;118.501;60.014;353.977;180.975;252.575;576.936;502.504;478.700
4754191.515;131.987;68.843;371.821;186.898;251.532;587.143;510.216;487.268
4754191.523;140.145;76.927;377.223;196.137;244.342;598.021;521.280;497.587
4754191.531;131.838;69.514;370.666;189.357;226.051;599.176;525.750;501.536
4754191.539;118.390;54.650;362.694;176.281;209.548;584.573;511.222;487.454
4754191.549;115.260;49.435;361.577;168.420;199.303;580.661;506.863;485.070
4754191.557;115.260;48.727;362.508;169.538;192.970;576.861;503.771;481.084
4754191.565;111.684;45.262;358.038;167.005;181.720;570.528;498.593;472.069
4754191.573;115.521;48.839;362.918;168.905;178.777;573.099;498.146;476.651
4754191.581;118.054;53.570;369.661;173.822;181.720;578.165;503.398;480.227
4754191.589;121.333;58.711;376.739;177.100;181.608;585.206;515.096;484.064
4754191.597;121.854;58.934;377.446;176.691;167.713;584.461;521.354;483.580
4754191.605;118.800;57.332;378.154;176.579;158.250;580.102;516.847;481.717
4754191.613;107.251;49.025;368.021;168.718;138.953;577.904;512.414;483.096
4754191.621;98.385;43.064;361.837;164.025;126.027;575.371;511.855;480.451
4754191.629;127.554;72.531;392.459;192.672;139.736;579.022;516.511;484.027
4754191.637;147.223;89.370;411.980;209.846;141.077;579.543;511.482;487.827
4754191.645;159.852;100.397;422.634;219.904;137.277;573.993;506.006;484.064
4754191.653;176.914;117.049;439.398;235.774;141.747;574.477;510.290;482.500
4754191.661;188.276;127.554;450.313;248.887;141.636;585.169;521.019;492.111
4754191.669;173.412;111.312;437.275;231.266;122.003;576.749;507.794;486.746
4754191.677;160.746;99.652;427.626;220.686;104.904;569.560;501.424;478.327
4754191.685;161.119;99.801;430.569;222.698;102.594;573.993;512.116;482.723
4754191.693;158.139;94.771;426.732;219.271;94.213;570.938;506.453;479.482
4754191.701;156.015;91.903;423.975;219.792;88.438;572.503;506.714;483.654
4754191.709;150.837;86.538;419.542;213.012;80.876;568.628;501.312;482.500
4754191.717;149.235;86.948;420.548;213.869;77.598;571.460;506.565;481.419
4754191.725;145.324;83.819;420.399;212.789;74.543;572.540;500.791;483.878
4754191.733;140.481;78.790;416.897;209.883;70.222;571.609;503.212;481.307
4754191.792;138.730;75.698;416.227;206.903;68.396;570.975;501.461;481.419
4754191.800;141.747;80.392;417.680;214.875;67.167;568.517;501.834;480.600
4754191.808;139.363;76.331;417.568;208.616;63.889;562.333;497.363;476.129
4754191.816;135.228;72.531;414.141;207.387;58.971;559.799;498.891;474.639
4754191.824;129.193;68.583;406.578;204.705;47.944;559.390;503.175;474.975
4754191.832;124.834;63.665;401.102;198.595;39.414;552.163;491.664;469.871
4754191.840;126.660;66.794;404.343;204.369;41.090;551.641;494.346;470.728
4754191.848;118.949;58.599;394.955;193.492;28.424;541.285;483.952;459.887
4754191.856;121.742;62.026;395.142;199.564;24.363;543.818;487.231;461.340
4754191.864;130.162;68.545;404.082;205.785;37.253;552.908;495.464;468.530
4754191.872;127.219;64.671;401.102;203.587;34.608;548.698;493.564;463.948
4754191.880;122.152;58.189;393.428;199.415;20.787;538.379;476.539;457.205
4754191.888;122.488;55.656;393.875;196.174;20.973;539.012;479.035;457.093
4754191.896;129.677;63.106;400.096;204.742;26.599;544.377;482.537;463.910
4754191.904;133.216;67.949;402.555;209.771;27.493;548.549;489.280;468.716
4754191.912;120.588;56.922;391.155;198.036;16.466;552.498;494.160;474.378
4754191.920;127.852;56.624;403.896;193.641;24.177;541.918;486.597;460.222
4754191.928;148.304;68.769;430.793;197.627;49.472;533.201;477.806;452.362
4754191.936;158.995;75.400;449.941;195.839;71.637;537.261;482.611;458.211
4754191.944;161.603;72.941;461.303;179.820;85.160;527.799;470.243;453.442
4754191.952;162.981;71.302;471.175;168.681;98.720;521.466;461.638;450.052
4754191.960;164.211;71.675;481.643;159.964;117.458;522.435;462.495;453.591
4754191.968;158.511;66.012;479.743;149.645;120.252;525.899;469.498;455.119
4754191.976;150.129;57.332;471.883;133.626;114.068;527.389;470.020;458.770
4754191.971;141.338;52.527;463.314;127.666;106.432;521.913;463.352;453.107
4754191.979;135.303;46.678;459.217;119.321;103.787;513.084;455.491;440.776
4754191.987;136.979;48.950;459.664;121.482;104.494;516.698;463.538;445.321
4754191.995;133.328;47.237;454.821;118.501;96.411;519.864;468.232;448.599
4754192.003;131.689;45.449;454.225;115.745;92.909;515.468;458.956;443.272
4754192.011;134.781;48.690;455.640;118.390;90.078;515.617;457.019;442.714
4754192.019;136.010;51.819;455.044;123.084;85.086;517.592;459.328;444.241
4754192.027;139.698;55.693;460.297;124.909;92.983;526.234;465.624;453.368
4754192.035;136.457;53.197;456.981;118.949;86.986;523.627;460.073;455.529
4754192.043;128.858;45.635;448.115;113.435;74.618;513.718;455.976;444.800
4754192.051;132.583;48.466;452.809;115.894;78.194;513.643;460.297;447.556
4754192.059;135.973;51.372;457.093;118.092;83.521;514.872;464.953;452.511
4754192.067;136.718;53.942;457.130;121.146;76.815;514.202;466.369;454.038
4754192.075;140.518;59.642;462.607;126.623;84.750;518.076;471.361;454.038
4754192.083;143.498;62.808;463.724;128.224;86.017;515.319;463.612;448.786
4754192.091;147.261;68.098;464.991;133.514;84.825;515.282;464.879;445.619
4754192.099;150.762;71.749;469.387;135.638;89.668;513.867;461.824;444.539
4754192.107;149.086;72.457;469.349;134.259;92.722;513.010;456.348;447.929
4754192.115;148.118;71.079;467.412;129.230;88.364;518.300;459.701;455.417
4754192.123;131.801;54.538;447.966;116.192;63.404;504.181;449.456;435.561
4754192.131;133.216;56.587;450.164;117.831;69.700;506.006;451.766;437.200
4754192.139;133.775;57.817;450.648;116.862;72.084;506.416;453.033;440.329
4754192.147;125.021;51.670;441.708;111.051;62.063;497.289;440.367;434.853
4754192.155;123.903;52.005;440.031;114.217;58.115;491.068;432.171;430.010
4754192.150;128.597;56.699;444.800;119.917;61.132;491.403;433.549;430.830
4754192.158;131.913;59.903;450.313;119.507;69.849;493.117;437.535;433.289
4754192.166;128.672;57.667;447.109;118.688;64.671;485.331;424.236;428.632
4754192.174;127.330;59.009;444.651;122.450;61.616;481.717;421.442;426.136
4754192.182;127.368;58.897;444.278;121.854;62.995;484.847;426.471;428.595
4754192.190;125.505;58.115;441.447;121.780;60.797;480.972;419.244;425.167
4754192.198;129.752;64.597;444.315;127.517;65.342;480.339;421.442;423.789
4754192.206;131.503;67.391;444.017;131.577;64.299;478.253;421.368;421.777
4754192.214;127.479;63.889;439.659;125.505;60.797;474.788;414.103;418.127
4754192.222;123.382;60.014;433.736;121.295;56.550;471.957;412.688;413.470
4754192.230;126.772;64.224;436.492;126.436;60.797;473.186;416.636;414.103
4754192.238;133.552;70.669;444.427;132.993;70.184;474.304;420.734;415.780
4754192.246;133.812;70.557;442.863;134.669;68.210;468.567;412.650;412.799
4754192.254;135.191;73.873;444.166;141.710;70.930;465.624;407.509;411.868
4754192.262;132.844;70.706;440.218;136.979;69.253;460.483;403.635;408.441
4754192.270;125.058;62.957;429.973;130.460;59.567;448.711;393.465;398.010
4754192.278;125.468;62.436;429.712;127.479;62.138;444.539;388.287;395.589
4754192.286;126.176;65.230;429.042;132.583;59.269;447.817;396.147;399.053
4754192.294;122.003;62.138;423.640;130.683;53.905;439.920;386.722;395.738
4754192.302;124.015;63.069;423.417;132.024;58.189;437.573;387.467;394.359
4754192.310;125.058;64.336;421.777;134.334;54.464;433.959;389.740;390.075
4754192.318;123.009;63.404;418.834;132.620;50.962;433.400;390.112;386.462
4754192.326;121.780;63.851;415.891;134.483;49.993;437.237;392.571;389.926
4754192.334;125.095;67.912;417.158;139.549;53.793;439.249;392.236;396.110
4754192.314;128.709;70.594;420.250;142.381;60.499;441.149;395.477;397.861
4754192.322;122.450;65.602;412.278;138.991;52.787;430.457;384.860;390.075
4754192.330;122.376;65.938;409.596;138.655;49.695;428.595;388.436;388.362
4754192.338;127.703;70.855;414.364;143.759;57.817;432.953;394.508;393.242
4754192.346;131.801;75.251;416.376;149.794;61.169;436.194;394.769;394.136
4754192.354;130.646;73.500;413.433;148.118;59.232;434.741;391.006;390.448
4754192.362;130.199;74.245;410.788;150.204;58.450;432.692;383.295;389.740
4754192.370;127.479;71.526;405.610;150.464;56.811;429.042;376.403;385.717
4754192.378;123.419;66.496;399.016;142.679;54.054;426.397;372.939;383.109
4754192.386;128.709;73.165;402.331;149.123;60.685;427.999;375.621;384.971
4754192.394;131.503;76.965;400.133;155.792;58.785;426.471;375.435;383.407
4754192.402;134.818;80.355;400.133;160.076;58.040;424.460;375.807;380.725
4754192.410;135.787;78.864;401.847;160.448;64.708;421.964;372.119;377.893
4754192.418;131.056;69.141;396.073;155.084;63.144;420.995;370.368;378.005
4754192.426;125.654;61.430;387.877;148.118;54.985;407.584;349.544;364.929
4754192.434;128.485;65.975;388.920;153.817;58.264;403.896;343.062;359.118
4754192.442;130.087;69.030;387.207;160.225;53.979;404.641;344.254;357.628
4754192.450;131.056;69.439;386.089;163.354;54.240;406.913;343.248;359.341
4754192.458;132.620;69.179;387.467;161.603;61.467;410.825;347.532;362.471
4754192.466;127.964;63.404;382.401;152.811;56.662;407.398;344.217;360.608
4754192.474;124.648;60.089;378.415;148.863;55.358;403.449;337.474;359.267
4754192.482;125.431;63.665;378.117;154.972;58.040;402.555;338.219;356.324
4754192.490;125.431;65.044;376.254;157.468;59.158;401.177;335.351;354.834
4754192.498;123.829;60.983;373.200;152.625;55.060;402.704;334.345;357.889
4754192.539;125.766;63.926;375.360;155.643;59.269;410.825;343.509;364.445
4754192.547;118.837;57.332;365.898;150.129;50.329;406.504;337.288;361.353
4754192.555;112.802;50.664;358.298;143.833;47.386;396.259;329.465;352.375
4754192.563;111.684;50.217;355.616;142.269;46.045;390.187;325.702;347.868
4754192.571;111.870;50.142;352.263;142.232;43.996;385.828;323.430;342.317
4754192.579;117.868;55.283;356.808;148.863;51.185;382.662;319.481;340.454
4754192.587;116.304;54.352;354.871;148.974;52.415;380.874;316.352;341.274
4754192.595;115.372;51.819;350.736;146.292;48.876;377.037;311.099;337.251
4754192.603;118.725;54.054;352.487;147.782;51.297;372.231;304.133;333.227
4754192.611;126.101;61.467;356.548;158.697;58.338;377.335;313.073;336.356
4754192.619;124.313;59.679;351.109;156.611;52.266;381.209;318.028;337.176
4754192.627;120.439;55.656;347.197;154.600;52.564;378.713;318.661;333.451
4754192.635;115.484;50.142;340.864;150.464;49.435;371.262;310.652;328.422
4754192.643;118.539;53.383;342.652;153.072;54.128;369.102;309.907;328.198
4754192.651;115.149;49.733;337.139;150.874;48.652;360.869;302.978;317.581
4754192.659;118.390;51.782;337.884;152.662;51.409;362.992;306.368;320.524
4754192.667;122.152;54.240;340.268;152.774;57.295;363.030;306.256;322.275
4754192.675;122.823;55.879;339.560;151.806;54.687;357.106;301.301;319.667
4754192.683;126.176;62.361;340.194;155.941;53.570;355.132;300.892;318.401
4754192.691;124.462;62.995;338.145;152.923;56.364;353.158;302.531;315.718
4754192.699;120.327;61.318;333.600;147.074;55.134;352.710;302.829;315.048
4754192.707;111.125;52.787;320.226;136.532;38.408;350.028;300.109;313.036
4754192.715;101.551;46.045;309.348;130.534;30.212;344.627;292.026;307.672
4754192.723;115.708;66.869;319.220;154.786;37.253;343.844;285.767;307.523
4754192.782;126.623;79.237;325.702;168.718;44.703;349.209;287.779;315.383
4754192.790;129.975;83.223;323.690;168.458;37.551;348.426;286.773;313.520
4754192.798;124.797;79.200;317.618;164.881;34.943;343.733;282.228;306.331
4754192.806;122.935;77.635;314.936;162.199;34.496;348.166;289.343;309.013
4754192.814;128.224;80.168;322.685;161.268;45.039;350.587;289.604;315.309
4754192.822;126.548;77.151;325.777;156.537;54.725;347.123;291.392;311.323
4754192.830;123.084;73.239;322.759;148.602;49.025;339.374;288.710;303.164
4754192.838;125.989;75.325;327.453;147.372;56.922;335.164;282.191;298.508
4754192.846;125.840;76.145;327.118;150.129;57.593;327.155;267.513;290.684
4754192.854;128.038;79.796;327.639;152.178;57.556;330.098;271.276;292.733
4754192.862;130.758;81.062;328.422;151.210;59.865;334.084;275.001;295.714
4754192.870;127.405;79.051;322.871;152.402;54.799;330.172;276.268;290.535
4754192.878;123.307;74.133;318.773;145.622;51.670;322.238;271.499;284.947
4754192.886;123.195;75.288;319.295;147.931;54.650;318.699;266.023;283.718
4754192.894;121.072;72.867;316.389;143.871;52.750;318.736;262.819;286.028
4754192.902;119.731;70.073;314.638;140.481;54.874;321.008;268.407;289.120
4754192.910;112.765;66.236;305.846;134.967;44.703;318.475;266.917;285.506
4754192.918;110.976;63.851;302.829;128.597;44.070;315.234;261.739;284.463
4754192.926;110.827;62.175;302.792;125.319;47.423;309.832;253.916;281.483
4754192.934;111.237;64.820;302.941;125.505;46.715;315.011;266.507;281.818
4754192.942;112.578;67.092;303.686;130.162;47.721;308.566;254.139;280.999
4754192.950;117.570;71.228;308.380;135.712;52.527;307.485;256.635;282.004
4754192.958;118.166;70.184;308.827;134.483;53.123;305.921;259.615;278.130
4754192.966;116.341;68.136;307.560;133.626;54.240;302.866;257.567;272.729
4754193.020;114.217;66.981;304.393;130.907;51.223;298.619;246.055;266.694
4754193.028;114.851;69.104;303.090;135.228;49.323;299.737;246.204;265.241
4754193.036;111.796;67.018;300.407;133.179;46.268;302.866;251.643;266.023
4754193.044;114.106;69.402;302.382;133.291;48.131;307.895;257.455;270.940
4754193.052;111.610;66.422;299.104;130.087;47.311;303.313;252.910;269.674
4754193.060;101.179;54.874;289.790;116.453;43.474;294.298;241.846;265.911
4754193.068;101.775;57.742;288.114;121.146;41.537;293.367;241.958;266.880
4754193.076;110.716;68.694;293.404;134.818;44.703;292.473;241.548;266.992
4754193.084;107.214;63.926;287.257;128.821;40.904;292.957;244.491;265.613
4754193.092;105.612;61.654;284.538;128.672;41.425;300.296;255.890;269.599
4754193.100;104.010;61.877;281.557;126.027;37.141;298.508;253.916;266.097
4754193.108;102.893;61.318;281.483;126.325;38.370;293.739;252.947;259.131
4754193.116;106.618;66.645;282.824;133.030;37.439;284.053;243.038;250.153
4754193.124;108.965;68.806;284.836;134.818;42.766;276.752;236.742;246.689
4754193.132;102.855;61.467;278.279;124.983;40.047;268.631;227.541;244.156
4754193.140;95.926;56.177;267.513;119.098;26.487;265.762;224.523;244.156
4754193.148;94.920;53.309;265.725;115.484;26.561;265.501;221.469;246.838
4754193.156;96.448;55.358;266.060;121.035;30.249;266.656;226.460;248.253
4754193.164;95.405;56.885;263.862;123.233;26.710;265.129;226.162;246.949
4754193.172;94.362;56.960;261.739;122.860;25.630;264.086;224.933;245.795
4754193.180;92.387;54.650;258.088;118.986;22.314;263.713;223.592;244.044
4754193.188;93.281;54.054;258.908;119.507;29.281;262.409;221.096;241.697
4754193.196;88.140;49.062;252.202;113.659;21.532;255.033;211.895;233.166
4754193.204;84.080;45.747;245.199;111.461;12.144;251.867;209.399;231.527
4754193.169;77.970;38.743;238.679;106.581;8.717;247.322;209.436;230.446
4754193.177;72.718;33.304;234.060;100.769;5.215;238.568;195.950;223.815
4754193.185;76.480;36.061;237.636;103.600;7.004;240.728;202.619;222.735
4754193.193;82.590;41.276;241.399;108.145;9.947;244.454;206.493;219.420
4754193.201;88.885;48.093;246.428;115.857;18.105;248.142;203.811;221.096
4754193.209;82.478;42.580;238.791;112.914;11.623;240.505;198.856;214.800
4754193.217;77.300;38.296;234.060;106.767;6.184;234.507;197.478;209.063
4754193.225;79.870;38.743;234.991;104.755;6.855;235.103;208.765;205.003
4754193.233;82.366;42.245;236.221;111.498;9.537;219.680;179.298;195.764
4754193.241;91.977;51.893;245.050;118.874;19.930;222.921;185.631;199.787
4754193.249;96.262;56.438;246.987;124.462;20.899;227.913;194.944;203.699
4754193.257;93.468;55.544;243.001;124.983;17.248;224.002;188.760;199.340
4754193.265;97.491;59.344;246.353;126.921;21.681;226.125;194.237;199.936
4754193.273;104.122;66.981;252.984;137.985;24.997;225.492;190.064;199.601
4754193.281;105.128;65.342;252.835;132.546;27.046;225.492;193.045;199.638
4754193.289;105.798;65.193;251.830;127.517;25.816;221.133;195.727;194.646
4754193.297;104.755;65.044;250.451;129.826;24.214;213.198;179.447;189.990
4754193.305;103.414;69.067;247.806;145.473;22.948;211.671;181.012;191.033
4754193.313;91.642;51.856;236.928;114.106;13.858;203.177;175.498;184.253
4754193.321;88.774;47.646;234.060;106.245;14.715;195.801;158.809;179.671
4754193.329;93.393;56.177;236.258;121.705;17.248;204.518;175.647;185.743
4754193.337;88.885;52.229;229.031;115.372;7.935;199.080;173.189;177.994
4754193.345;91.270;54.352;228.845;121.556;5.774;198.223;171.326;178.367
4754193.353;91.828;54.725;230.484;122.003;10.543;193.231;161.156;175.834
4754193.336;89.742;54.762;227.727;125.766;9.090;192.486;163.727;175.126
4754193.344;80.839;45.225;219.047;112.280;4.359;183.620;152.849;170.060
4754193.352;73.910;34.831;215.843;91.046;6.668;181.124;149.906;167.228
4754193.360;75.139;40.904;214.130;102.036;1.490;183.098;149.533;168.905
4754193.368;81.286;50.478;217.035;120.923;2.608;192.262;174.232;171.922
4754193.376;80.504;48.354;216.402;118.166;4.917;187.568;168.420;167.489
4754193.384;76.480;43.325;213.124;110.045;3.092;172.891;143.163;158.548
4754193.392;75.251;42.580;211.336;103.787;1.043;176.765;151.694;163.428
4754193.400;69.290;36.731;204.183;94.995;-5.551;176.504;153.780;161.976
4754193.408;69.439;39.265;201.985;99.652;-6.109;171.401;140.965;159.256
4754193.416;77.523;47.833;207.499;108.331;0.671;178.628;153.258;163.801
4754193.424;83.074;53.272;210.963;118.203;5.029;171.326;145.510;158.399
4754193.432;85.942;55.358;213.496;117.160;9.835;175.945;159.815;160.784
4754193.440;87.358;55.134;213.198;112.765;9.015;177.175;158.548;161.566
4754193.448;85.719;54.948;209.473;115.223;7.004;174.195;156.499;157.543
4754193.456;76.778;46.827;199.564;105.575;-0.559;160.299;133.440;149.608
4754193.464;71.898;46.194;193.641;102.818;-8.792;155.456;132.136;146.218
4754193.472;75.325;51.744;197.664;103.787;-4.247;161.342;147.112;151.470
4754193.480;76.815;54.911;198.707;109.524;-1.341;159.182;144.504;152.849
4754193.488;72.196;49.621;193.194;91.791;-3.912;154.003;131.913;148.043
4754193.496;70.855;54.017;189.282;96.709;-9.537;153.482;133.030;145.361
4754193.504;67.428;48.764;186.786;76.666;-9.052;149.235;131.242;139.587
4754193.512;70.035;54.091;188.649;85.346;-6.221;140.928;118.837;135.750
4754193.520;76.815;67.353;193.343;113.174;-4.061;143.759;131.838;138.879
4754193.560;67.316;48.950;185.966;72.867;-8.829;124.648;98.683;127.368
4754193.568;70.147;54.240;186.041;79.200;-7.600;129.864;115.111;129.193
4754193.576;71.898;60.201;185.706;94.995;-8.009;131.540;123.419;129.640
4754193.584;72.680;59.493;188.872;84.192;1.229;135.303;122.450;133.812
4754193.592;67.204;57.518;181.012;82.962;-10.580;130.907;120.029;130.944
4754193.600;62.436;47.684;176.877;62.659;-14.901;118.166;96.075;123.084
4754193.608;69.737;55.246;184.178;71.041;-6.519;127.368;115.037;125.952
4754193.616;74.729;61.616;186.972;80.541;-5.513;124.425;107.475;123.791
4754193.624;81.733;74.767;190.474;104.271;-5.774;126.287;116.602;123.493
4754193.632;74.692;57.630;185.296;62.138;-8.978;121.184;108.220;119.805
4754193.640;77.970;65.975;187.233;79.982;-6.370;129.491;126.362;125.207
4754193.648;71.414;58.450;181.645;68.285;-9.760;126.660;120.774;124.872
4754193.656;71.414;62.548;179.484;79.460;-13.746;119.694;107.512;118.911
4754193.664;78.566;70.781;186.265;93.877;-6.892;124.909;117.905;119.656
4754193.672;64.224;50.254;171.140;61.728;-20.266;111.833;90.562;111.312
4754193.680;58.003;51.558;162.460;71.749;-27.716;120.029;114.329;115.931
4754193.688;62.436;52.005;165.515;66.049;-24.326;122.450;123.419;119.507
4754193.696;71.637;60.350;172.667;77.300;-16.801;115.931;113.919;114.478
4754193.704;73.649;64.708;176.169;89.034;-11.362;104.979;86.352;109.226
4754193.712;70.632;60.499;174.493;83.521;-12.890;105.947;97.752;107.922
4754193.720;66.496;53.085;171.363;76.145;-10.021;100.657;93.542;102.818
4754193.728;59.381;38.669;166.744;46.156;-11.362;96.634;90.748;100.173
4754193.736;62.212;46.343;167.303;64.708;-13.523;94.250;88.029;98.385
4754193.744;64.634;58.673;167.042;105.537;-15.572;87.842;75.102;93.207
4754193.831;58.562;47.237;162.125;80.541;-17.807;85.682;75.065;89.779
4754193.839;48.950;28.312;152.402;40.084;-25.220;84.601;77.561;86.762
4754193.847;47.870;29.542;150.651;49.844;-24.587;76.406;66.198;81.733
4754193.855;46.939;34.198;149.794;68.806;-25.593;76.778;72.643;82.739
4754193.863;51.074;43.325;152.588;82.627;-23.469;73.761;56.811;83.670
4754193.871;41.761;22.724;147.633;31.553;-23.805;74.022;66.869;82.105
4754193.879;34.124;15.981;138.618;30.100;-35.316;61.877;50.776;72.047
4754193.887;45.449;36.210;145.249;72.308;-29.653;64.299;49.099;76.443
4754193.895;49.323;36.396;147.931;63.553;-24.363;73.537;67.949;84.899
4754193.903;46.231;31.963;144.728;56.513;-25.667;74.506;75.139;85.086
4754193.911;45.784;37.514;143.461;74.431;-24.177;65.230;63.479;75.884
4754193.919;39.265;19.670;137.612;28.126;-30.473;58.338;49.099;73.127
4754193.927;51.260;41.015;146.963;68.247;-18.589;67.428;62.361;78.902
4754193.935;44.070;35.353;140.034;68.620;-26.263;64.448;70.110;74.469
4754193.943;44.107;29.467;140.108;48.950;-24.252;57.332;51.148;70.408
4754193.951;46.045;29.542;141.822;43.698;-22.352;57.369;46.790;68.881
4754193.959;36.657;17.732;134.893;25.555;-25.257;54.054;40.121;65.640
4754193.967;36.806;23.767;130.907;47.125;-32.671;48.876;26.599;65.006
4754193.975;45.896;41.313;135.787;82.888;-29.653;69.141;72.755;75.065
4754193.983;28.498;12.219;119.060;23.618;-44.368;48.839;40.047;61.058
4754193.991;32.075;23.507;118.725;49.807;-44.964;41.202;32.969;55.209
4754193.999;30.175;15.162;118.539;33.155;-42.580;43.176;41.276;54.426
4754194.007;34.124;23.544;119.954;51.856;-41.053;41.015;28.573;54.054
4754194.015;38.855;25.779;125.058;50.068;-37.141;45.113;35.837;59.344
4754194.057;35.502;22.165;121.221;39.339;-42.133;47.386;48.280;58.077
4754194.065;26.152;10.878;109.114;24.065;-49.919;31.926;25.593;46.492
4754194.073;33.379;27.418;115.000;65.081;-40.047;35.577;36.657;47.795
4754194.081;28.312;9.015;114.106;13.299;-32.820;27.753;18.328;43.772
4754194.089;36.061;22.352;118.241;43.884;-32.634;31.330;27.493;45.113
4754194.097;33.490;17.583;115.596;38.631;-34.273;28.349;20.526;43.288
4754194.105;28.089;13.411;108.257;34.757;-42.915;26.785;19.893;42.133
4754194.113;37.104;29.765;113.547;64.820;-35.390;35.278;39.041;47.274
4754194.121;30.026;9.201;109.673;13.709;-34.347;27.791;27.604;42.357
4754194.129;28.163;9.537;107.251;25.518;-33.937;24.922;27.455;39.749
4754194.137;21.197;1.788;97.528;15.199;-43.176;16.093;13.113;35.763
4754194.145;26.822;14.268;100.806;39.786;-41.649;20.415;21.420;37.961
4754194.153;14.938;2.496;88.923;29.616;-51.409;7.339;-1.825;28.946
4754194.161;12.107;-2.123;85.980;20.340;-53.123;14.082;17.919;31.032
4754194.169;11.437;-8.158;85.644;0.224;-49.137;10.692;16.168;27.753
4754194.177;14.417;-4.433;87.209;8.680;-45.113;15.050;24.661;29.020
4754194.185;19.372;17.732;88.364;71.600;-48.019;15.125;26.561;27.008
4754194.193;3.725;-16.168;76.219;-7.935;-55.544;8.419;15.572;22.203
4754194.201;11.362;-1.863;80.168;20.675;-52.527;15.348;26.636;26.897
4754194.209;2.906;-10.952;71.488;15.311;-60.461;-2.347;-1.006;16.838
4754194.217;4.061;-8.754;71.935;15.460;-58.040;-3.055;5.588;15.087
4754194.225;0.037;-16.391;65.900;-4.210;-63.144;-9.239;-12.740;10.692
4754194.233;6.147;2.161;66.571;39.898;-64.448;-3.353;0.037;13.113
4754194.241;3.725;-1.006;64.969;29.840;-68.210;3.129;21.160;15.758
4754194.266;-5.923;-17.993;58.375;-0.782;-69.514;-8.829;3.800;7.451
4754194.274;-1.825;-5.737;61.058;26.561;-69.551;-10.841;-3.986;4.284
4754194.282;-2.794;-12.740;59.307;6.482;-69.216;-16.764;-13.933;-0.522
4754194.290;5.849;1.341;65.304;32.969;-64.895;-16.727;-13.076;-0.186
4754194.298;1.937;-6.296;63.181;16.540;-62.250;-11.064;-2.235;4.657
4754194.306;-11.064;-25.667;49.323;-13.262;-72.382;-21.756;-20.713;-3.055
4754194.314;-1.155;-10.319;55.768;16.242;-68.657;-20.936;-20.489;-1.714
4754194.322;8.382;4.582;62.622;45.747;-65.267;-14.380;-7.637;2.384
4754194.330;-2.645;-9.350;50.925;22.091;-74.580;-12.107;-1.527;2.198
4754194.338;-15.013;-34.496;42.133;-26.748;-75.623;-11.995;-0.559;2.310
4754194.346;3.204;-13.076;60.499;14.342;-52.974;-22.575;-20.266;-3.800
4754194.354;0.522;-16.764;62.957;13.709;-45.970;-24.661;-23.879;-3.576
4754194.362;-13.523;-36.396;51.297;-18.887;-52.601;-32.820;-24.214;-10.915
4754194.370;-21.607;-46.901;45.039;-34.310;-54.240;-45.970;-38.706;-22.091
4754194.378;-19.483;-44.703;48.354;-28.089;-46.678;-42.096;-32.447;-19.893
4754194.386;-11.809;-34.347;54.277;-14.603;-39.823;-39.004;-30.287;-17.285
4754194.394;-13.709;-36.433;52.489;-24.810;-41.164;-39.227;-31.926;-16.168
4754194.402;-14.193;-38.594;49.919;-34.459;-44.890;-37.588;-27.120;-15.832
4754194.410;-14.976;-30.696;47.237;-9.611;-48.429;-41.462;-38.743;-19.893
4754194.418;-9.090;-21.793;53.048;-2.459;-45.188;-34.645;-25.705;-17.807
4754194.426;-12.293;-32.969;50.515;-36.955;-46.529;-37.849;-30.324;-19.968
4754194.434;-8.345;-26.412;48.801;-24.475;-48.205;-33.490;-21.346;-17.248
4754194.442;-9.723;-31.851;45.300;-38.072;-49.397;-43.958;-46.715;-22.277
4754194.450;-12.070;-32.820;41.761;-35.241;-52.527;-42.804;-42.245;-21.197
4754194.444;-12.331;-30.585;40.196;-29.765;-53.570;-43.996;-36.284;-23.544
4754194.452;-23.842;-45.635;29.132;-57.034;-63.665;-54.128;-44.443;-32.559
4754194.460;-22.203;-38.035;30.063;-41.611;-60.871;-57.146;-45.486;-32.410
4754194.468;-18.291;-33.714;32.596;-37.327;-57.779;-57.071;-37.514;-31.516
4754194.476;-18.366;-31.814;32.149;-34.980;-60.685;-62.324;-44.927;-35.577
4754194.484;-24.624;-38.669;27.530;-43.437;-64.485;-71.451;-62.399;-41.649
4754194.492;-23.469;-34.422;29.318;-30.398;-60.126;-72.122;-60.089;-43.884
4754194.500;-16.019;-29.244;37.439;-33.863;-53.085;-66.310;-51.484;-39.451
4754194.508;-4.917;-14.566;45.225;-11.213;-52.303;-65.640;-53.756;-41.164
4754194.516;14.380;6.557;65.267;9.015;-39.414;-61.654;-49.695;-37.886
4754194.524;37.886;31.702;88.140;32.708;-25.742;-54.277;-47.088;-30.994
4754194.532;58.450;54.352;109.226;58.487;-13.672;-58.524;-50.738;-36.135
4754194.540;100.695;98.608;152.290;106.543;20.526;-63.665;-53.197;-40.047
4754194.548;129.044;125.766;178.702;130.609;31.255;-63.851;-55.246;-40.121
4754194.556;157.729;156.611;203.736;162.683;43.325;-60.834;-54.464;-37.402
4754194.564;191.815;189.804;235.252;198.409;62.808;-60.238;-51.223;-36.880
4754194.572;218.302;213.943;260.584;227.466;78.827;-63.255;-54.948;-38.259
4754194.580;240.915;231.303;281.073;244.789;86.762;-62.548;-52.601;-38.967
4754194.588;249.408;235.848;288.449;249.557;92.238;-60.871;-52.080;-40.457
4754194.596;252.202;236.593;289.753;254.326;83.931;-65.379;-57.705;-45.262
4754194.604;256.188;234.246;299.029;253.506;95.442;-59.642;-50.776;-39.786
4754194.612;251.457;227.168;291.020;249.594;84.825;-62.808;-51.148;-42.841
4754194.620;241.883;216.700;277.907;241.436;67.353;-63.628;-50.217;-42.617
4754194.628;234.134;208.355;267.029;237.152;69.030;-62.138;-46.678;-42.915
4754194.642;225.902;205.040;250.824;241.287;55.432;-61.058;-43.660;-44.033
4754194.650;208.430;190.847;223.257;232.346;21.122;-66.012;-50.776;-49.174
4754194.658;196.099;179.335;209.585;227.913;21.681;-68.061;-54.948;-49.807
4754194.666;173.450;162.013;175.014;215.806;-13.933;-72.122;-63.777;-50.515
4754194.674;160.076;151.955;155.270;215.247;-7.711;-73.053;-61.356;-52.340
4754194.682;136.904;135.191;118.725;204.891;-24.289;-79.721;-64.373;-58.301
4754194.690;126.362;129.826;101.700;208.132;2.943;-78.529;-59.865;-57.034
4754194.698;110.678;116.006;80.615;198.968;22.128;-83.111;-68.583;-60.089
4754194.706;102.855;110.678;66.198;197.627;58.003;-84.974;-72.904;-63.442
4754194.714;93.468;102.408;56.364;193.194;118.650;-85.942;-69.998;-68.061
4754194.722;74.208;87.768;22.165;181.906;134.371;-85.793;-65.379;-67.316
4754194.730;68.769;84.154;22.054;179.261;213.273;-88.476;-65.155;-65.416
4754194.738;65.565;79.349;21.644;175.498;291.876;-104.755;-82.068;-75.921
4754194.746;54.538;68.955;12.666;164.844;357.106;-120.327;-95.889;-89.072
4754194.754;39.116;56.624;-5.923;154.078;430.383;-122.748;-95.963;-98.832
4754194.762;26.412;46.380;-23.171;145.659;502.206;-111.274;-89.258;-90.264
4754194.770;23.730;43.511;-24.065;143.610;558.719;-98.124;-80.951;-75.549
4754194.778;19.856;40.904;-26.636;145.026;614.561;-95.554;-81.286;-74.431
4754194.786;20.489;40.717;-26.487;143.312;661.500;-100.546;-86.166;-79.162
4754194.794;19.930;41.425;-35.353;146.963;700.019;-101.998;-85.942;-83.447
4754194.802;14.193;37.327;-42.394;143.684;735.037;-107.624;-88.289;-90.674
4754194.810;10.133;32.485;-46.827;139.624;753.738;-108.443;-80.019;-91.903
4754194.818;13.076;35.092;-49.248;144.243;770.949;-105.724;-70.259;-87.097
4754194.826;13.560;33.155;-49.137;140.853;782.721;-107.996;-73.686;-85.607
4754194.820;14.789;33.192;-47.125;142.232;785.701;-105.277;-73.947;-82.180
4754194.828;15.981;34.608;-46.864;144.057;799.261;-101.030;-71.675;-80.578
4754194.836;17.844;35.651;-46.603;144.951;802.912;-94.883;-69.775;-74.543
4754194.844;12.405;28.647;-55.432;138.916;777.952;-98.720;-69.849;-77.859
4754194.852;3.837;17.993;-63.144;128.411;760.965;-105.351;-72.606;-83.558
4754194.860;8.941;18.738;-52.974;129.342;764.094;-107.437;-75.288;-83.335
4754194.868;6.035;16.727;-60.648;128.783;732.392;-111.386;-81.994;-84.788
4754194.876;4.992;14.901;-65.081;126.399;710.003;-114.925;-86.576;-85.868
4754194.884;0.447;7.749;-72.382;120.550;691.004;-113.547;-84.527;-84.415
4754194.892;-5.290;-0.373;-74.841;113.174;680.760;-114.888;-85.421;-88.513
4754194.900;-12.480;-8.047;-85.346;106.618;655.986;-117.719;-87.284;-93.207
4754194.908;-17.285;-13.486;-91.679;102.557;639.483;-111.423;-84.005;-89.705
4754194.916;-20.601;-16.391;-96.746;102.334;620.671;-107.400;-81.211;-84.937
4754194.924;-3.651;3.204;-84.899;128.932;612.177;-111.274;-83.447;-88.327
4754194.932;0.037;11.735;-86.837;144.914;589.751;-111.200;-79.758;-88.215
4754194.940;-1.602;9.090;-91.344;145.622;560.619;-114.590;-82.478;-91.977
4754194.948;-10.617;2.459;-105.873;141.263;533.611;-116.304;-83.521;-94.920
4754194.956;-21.793;-10.133;-117.607;129.417;498.779;-122.003;-89.630;-100.546
4754194.964;-26.859;-15.683;-123.568;125.244;466.667;-125.766;-94.213;-103.228
4754194.972;-26.748;-16.131;-118.762;124.387;454.858;-128.001;-97.305;-104.383
4754194.980;-28.200;-19.632;-118.501;121.072;436.194;-131.875;-103.749;-104.718
4754194.988;-34.198;-27.269;-123.754;110.939;410.266;-137.463;-108.294;-108.220
4754194.996;-37.923;-30.994;-125.691;107.363;390.112;-131.764;-99.577;-104.271
4754195.004;-44.368;-37.178;-129.230;100.434;368.580;-135.601;-106.916;-108.592
4754194.984;-42.394;-35.986;-126.064;99.503;347.272;-134.893;-106.581;-109.859
4754194.992;-42.133;-37.737;-126.995;98.869;323.877;-137.091;-109.784;-113.584
4754195.000;-46.380;-43.996;-127.442;92.499;300.668;-142.679;-119.433;-117.384
4754195.008;-52.936;-51.185;-133.552;84.527;283.793;-140.630;-120.364;-110.604
4754195.016;-50.887;-50.329;-130.385;86.017;269.339;-135.228;-114.255;-102.669
4754195.024;-50.403;-50.254;-127.219;86.278;251.904;-134.930;-111.274;-105.388
4754195.032;-48.950;-49.882;-125.393;85.756;240.505;-135.489;-106.879;-107.773
4754195.040;-47.460;-47.535;-122.413;90.376;232.197;-137.798;-101.924;-113.435
4754195.048;-52.750;-53.905;-129.081;83.633;212.155;-143.759;-106.208;-119.209
4754195.056;-53.011;-55.023;-128.448;82.739;209.697;-149.682;-110.380;-123.493
4754195.064;-48.876;-51.260;-121.854;87.060;202.879;-149.347;-108.071;-124.276
4754195.072;-53.085;-56.624;-125.952;82.850;187.717;-153.892;-112.839;-128.448
4754195.080;-57.332;-62.138;-128.970;77.449;182.502;-153.035;-112.243;-127.144
4754195.088;-59.232;-63.069;-131.503;73.053;172.183;-150.576;-111.237;-125.095
4754195.096;-52.229;-55.917;-125.132;79.311;166.930;-146.925;-108.667;-122.376
4754195.104;-50.813;-53.532;-120.476;77.598;161.268;-150.874;-114.329;-129.491
4754195.112;-51.893;-55.283;-120.066;71.600;151.433;-156.239;-123.307;-133.738
4754195.120;-58.338;-62.771;-124.648;59.046;143.722;-158.884;-131.279;-130.795
4754195.128;-64.448;-67.540;-129.864;50.142;124.946;-158.623;-133.440;-127.442
4754195.136;-67.018;-67.912;-131.689;46.603;107.549;-158.399;-132.173;-127.405
4754195.144;-69.216;-69.067;-133.663;39.935;90.972;-158.735;-136.606;-127.293
4754195.152;-66.869;-67.204;-127.740;39.227;89.370;-155.121;-131.316;-125.654
4754195.160;-64.597;-61.318;-127.666;42.766;73.165;-152.849;-123.605;-125.431
4754195.168;-56.997;-51.521;-118.613;49.733;70.482;-151.172;-116.341;-125.468
4754195.151;-55.097;-49.062;-113.882;51.111;65.602;-153.892;-115.223;-127.777
4754195.159;-57.928;-49.919;-119.507;49.993;47.684;-157.058;-120.103;-130.311
4754195.167;-64.000;-57.220;-123.791;42.729;30.734;-161.268;-125.654;-135.489
4754195.175;-73.425;-67.204;-132.620;32.298;10.952;-165.738;-128.709;-141.375
4754195.183;-78.306;-72.718;-134.520;25.481;4.619;-166.818;-131.391;-140.294
4754195.191;-85.793;-79.498;-141.077;17.546;-9.015;-171.214;-136.793;-142.567
4754195.199;-81.807;-75.884;-135.377;18.626;-10.654;-167.601;-133.254;-138.730
4754195.207;-76.704;-72.159;-127.964;20.415;-7.376;-161.454;-127.442;-132.583
4754195.215;-72.196;-66.124;-124.201;25.034;-18.030;-159.070;-123.270;-129.938
4754195.223;-69.290;-64.187;-121.556;23.618;-25.444;-167.415;-130.162;-137.985
4754195.231;-68.210;-64.559;-117.198;22.501;-30.883;-173.785;-134.259;-141.338
4754195.239;-68.396;-65.789;-116.341;16.689;-38.110;-176.020;-138.544;-140.592
4754195.247;-69.141;-65.155;-115.857;15.944;-43.511;-174.604;-133.552;-141.487
4754195.255;-68.992;-63.181;-115.223;17.770;-51.185;-175.089;-131.726;-143.051
4754195.263;-72.792;-67.353;-119.135;12.442;-63.367;-180.490;-137.947;-151.135
4754195.271;-66.720;-62.957;-111.200;18.105;-58.338;-179.410;-137.165;-149.645
4754195.279;-66.794;-62.771;-111.870;19.446;-65.565;-179.112;-137.538;-148.714
4754195.287;-70.073;-66.832;-115.819;15.125;-77.784;-182.912;-143.461;-151.061
4754195.295;-66.608;-64.559;-109.598;17.360;-73.425;-187.308;-149.384;-155.047
4754195.303;-63.404;-63.591;-104.047;17.583;-72.010;-187.941;-150.241;-155.233
4754195.311;-65.789;-66.943;-105.128;14.938;-78.753;-188.760;-149.906;-157.468
4754195.319;-68.545;-71.377;-107.922;9.239;-87.284;-188.462;-149.272;-158.697
4754195.327;-64.448;-69.961;-103.638;9.350;-86.837;-184.551;-148.565;-153.482
4754195.335;-66.869;-72.345;-104.979;8.270;-94.622;-189.953;-158.101;-154.003
4754195.285;-73.574;-78.119;-110.008;2.310;-102.855;-194.237;-163.950;-155.531
4754195.293;-76.778;-81.807;-111.386;-3.353;-112.951;-195.391;-166.260;-157.803
4754195.301;-73.351;-79.833;-105.798;-2.719;-113.286;-191.554;-164.583;-153.109
4754195.309;-67.651;-74.469;-100.248;5.066;-115.149;-182.614;-153.258;-146.329
4754195.317;-69.924;-75.549;-104.457;3.725;-127.219;-180.006;-147.410;-148.192
4754195.325;-70.259;-74.804;-103.861;2.980;-130.795;-180.602;-149.906;-153.147
4754195.333;-76.108;-79.907;-111.833;-0.037;-149.347;-188.462;-158.772;-160.187
4754195.341;-71.451;-77.374;-106.730;1.229;-147.894;-187.680;-159.629;-158.250
4754195.349;-67.763;-74.171;-101.477;4.061;-142.716;-187.717;-160.486;-156.946
4754195.357;-72.941;-77.188;-109.859;1.527;-160.784;-187.755;-160.597;-156.611
4754195.365;-76.704;-79.498;-113.547;-2.049;-170.954;-189.207;-163.056;-159.256
4754195.373;-75.027;-78.902;-111.759;-1.453;-173.002;-191.294;-161.752;-162.274
4754195.381;-69.290;-74.394;-104.792;4.470;-172.891;-191.219;-158.027;-162.572
4754195.389;-68.471;-74.655;-103.824;1.304;-177.026;-192.449;-160.895;-162.721
4754195.397;-69.961;-74.655;-106.841;2.012;-185.482;-195.391;-163.838;-165.775
4754195.405;-74.394;-78.194;-109.524;-1.118;-191.033;-194.572;-166.483;-166.222
4754195.413;-84.564;-88.625;-120.364;-10.431;-204.667;-195.988;-168.569;-169.016
4754195.421;-90.525;-95.628;-125.989;-17.844;-215.061;-199.936;-172.965;-172.853
4754195.429;-90.562;-96.224;-124.499;-18.291;-218.190;-198.819;-170.507;-172.481
4754195.437;-85.905;-92.648;-119.843;-15.795;-215.247;-195.503;-163.577;-169.687
4754195.445;-80.690;-87.656;-113.919;-10.543;-210.628;-195.093;-163.838;-169.501
4754195.453;-78.678;-86.948;-111.535;-10.356;-215.061;-197.403;-165.626;-169.873
4754195.461;-78.231;-84.043;-115.074;-7.972;-222.772;-196.137;-164.472;-168.718
4754195.469;-90.897;-93.989;-127.666;-17.919;-234.693;-193.976;-165.701;-168.271
4754195.510;-89.481;-97.938;-121.109;-24.959;-228.547;-193.380;-165.179;-168.346
4754195.518;-73.053;-89.854;-96.150;-23.693;-202.991;-198.483;-173.114;-173.077
4754195.526;-73.351;-96.187;-87.097;-38.780;-186.190;-199.266;-176.318;-172.928
4754195.534;-79.870;-106.283;-85.458;-58.785;-186.376;-208.095;-187.568;-177.473
4754195.542;-87.880;-118.576;-83.819;-79.423;-174.455;-216.141;-197.366;-182.427
4754195.550;-97.044;-133.589;-79.609;-104.047;-159.442;-225.604;-209.175;-189.394
4754195.558;-102.259;-144.020;-77.635;-121.295;-153.258;-230.558;-214.912;-191.554
4754195.566;-109.226;-154.153;-76.592;-137.128;-145.286;-233.985;-217.482;-192.784
4754195.574;-114.851;-160.858;-74.357;-147.596;-139.847;-229.366;-211.671;-190.437
4754195.582;-115.372;-165.887;-66.608;-156.909;-133.030;-227.652;-212.640;-191.033
4754195.590;-127.554;-179.708;-74.841;-172.108;-137.426;-231.788;-217.259;-192.896
4754195.598;-141.636;-192.150;-88.178;-185.519;-152.402;-234.358;-218.600;-195.578
4754195.606;-145.584;-194.870;-94.101;-187.382;-163.913;-238.568;-222.474;-198.297
4754195.614;-147.820;-196.546;-96.075;-188.537;-170.469;-239.685;-223.368;-200.793
4754195.622;-150.986;-200.495;-99.204;-192.523;-179.484;-240.281;-224.672;-202.544
4754195.630;-145.286;-195.727;-94.883;-186.451;-176.542;-229.627;-214.204;-190.511
4754195.638;-143.461;-193.976;-91.717;-183.843;-174.604;-220.947;-204.779;-184.216
4754195.646;-148.378;-199.825;-96.522;-187.531;-181.757;-218.898;-205.114;-183.024
4754195.654;-151.098;-201.315;-99.987;-186.451;-190.772;-216.626;-204.816;-179.410
4754195.662;-140.816;-190.884;-91.493;-173.487;-183.508;-206.977;-197.925;-167.638
4754195.670;-134.856;-188.649;-86.762;-171.587;-181.980;-210.404;-196.509;-170.916
4754195.678;-129.379;-184.029;-84.229;-166.781;-183.880;-208.095;-187.121;-169.761
4754195.686;-134.297;-188.537;-90.040;-170.246;-194.162;-214.502;-188.090;-175.796
4754195.694;-126.883;-181.794;-82.962;-164.658;-191.182;-208.057;-178.181;-166.781
4754195.750;-121.742;-176.691;-78.715;-159.778;-190.586;-205.785;-174.120;-161.640
4754195.758;-127.479;-182.055;-85.980;-163.913;-204.407;-209.659;-180.043;-164.397
4754195.766;-131.913;-187.457;-88.289;-167.154;-206.791;-206.009;-180.341;-164.174
4754195.774;-134.595;-191.256;-92.052;-170.954;-215.508;-204.593;-184.439;-165.254
4754195.782;-134.110;-188.425;-94.175;-169.314;-224.970;-201.948;-185.519;-164.434
4754195.790;-134.297;-190.288;-95.963;-170.730;-232.272;-199.713;-185.557;-163.205
4754195.798;-127.330;-184.476;-88.140;-163.913;-225.157;-194.758;-179.186;-157.282
4754195.806;-127.666;-185.594;-88.997;-165.068;-228.882;-197.701;-182.018;-158.288
4754195.814;-137.053;-195.652;-98.981;-175.834;-239.834;-209.287;-191.629;-167.750
4754195.822;-133.067;-192.225;-95.963;-174.046;-240.058;-210.926;-192.262;-168.495
4754195.830;-129.640;-187.978;-93.244;-170.581;-241.138;-206.754;-188.351;-164.211
4754195.838;-129.901;-186.227;-94.920;-171.624;-246.614;-207.387;-187.606;-165.589
4754195.846;-125.654;-180.006;-92.760;-169.538;-246.949;-208.057;-186.935;-166.968
4754195.854;-122.152;-173.710;-88.550;-166.148;-243.634;-209.399;-190.213;-167.377
4754195.862;-125.058;-173.561;-91.456;-169.799;-251.383;-209.250;-192.188;-167.899
4754195.870;-122.339;-171.885;-89.370;-170.618;-247.955;-204.667;-189.804;-161.789
4754195.878;-122.488;-170.618;-89.481;-172.257;-253.655;-203.289;-189.953;-160.523
4754195.886;-126.436;-171.773;-95.293;-175.014;-263.229;-204.407;-190.996;-161.193
4754195.894;-135.861;-179.783;-105.239;-182.092;-277.013;-213.087;-196.509;-170.283
4754195.902;-132.285;-174.940;-99.987;-178.926;-274.628;-212.155;-197.254;-168.122
4754195.910;-129.528;-173.338;-97.938;-180.528;-277.720;-209.734;-195.689;-165.887
4754195.918;-126.883;-169.575;-96.299;-174.455;-280.403;-205.860;-190.698;-163.056
4754195.926;-125.356;-169.352;-93.468;-176.132;-277.162;-199.936;-185.408;-158.623
4754195.934;-129.528;-173.114;-96.299;-178.777;-282.414;-207.126;-193.790;-164.211
4754195.945;-136.718;-177.845;-102.073;-182.651;-294.372;-216.775;-201.687;-173.710
4754195.953;-130.683;-172.853;-95.628;-177.585;-288.486;-214.465;-197.776;-169.501
4754195.961;-123.903;-165.477;-89.742;-171.289;-285.767;-210.479;-192.449;-165.179
4754195.969;-126.213;-166.520;-94.324;-173.189;-299.960;-218.116;-201.054;-173.934
4754195.977;-118.054;-158.399;-84.937;-164.621;-293.590;-217.222;-198.334;-172.630
4754195.985;-109.449;-150.427;-74.729;-159.070;-283.383;-211.485;-189.096;-168.793
4754195.993;-107.102;-148.341;-74.022;-155.419;-284.985;-211.522;-186.749;-169.687
4754196.001;-108.778;-150.762;-76.815;-156.388;-288.561;-212.863;-188.872;-172.146
4754196.009;-114.813;-157.692;-82.925;-165.030;-299.625;-215.583;-194.162;-173.524
4754196.017;-110.827;-152.811;-78.455;-158.139;-298.247;-209.622;-189.021;-167.415
4754196.025;-112.690;-153.594;-81.025;-157.058;-303.946;-208.840;-187.382;-166.446
4754196.033;-111.759;-154.823;-80.243;-158.176;-302.456;-209.324;-185.817;-168.681
4754196.041;-113.696;-159.480;-82.664;-161.864;-307.485;-212.230;-188.425;-172.555
4754196.049;-119.507;-163.652;-88.476;-163.987;-316.799;-214.130;-190.325;-174.195
4754196.057;-128.709;-173.151;-96.373;-173.077;-324.771;-215.881;-193.678;-176.318
4754196.065;-125.132;-170.916;-91.195;-169.799;-318.922;-210.479;-189.953;-169.985
4754196.073;-128.597;-176.728;-93.430;-177.361;-319.369;-214.241;-195.466;-172.555
4754196.081;-132.732;-179.000;-98.422;-179.224;-327.304;-213.832;-195.950;-171.587
4754196.089;-131.465;-173.599;-98.832;-173.002;-331.439;-207.573;-191.368;-165.291
4754196.097;-129.007;-171.401;-95.330;-169.538;-325.218;-206.269;-190.400;-165.068
4754196.105;-126.511;-170.246;-91.791;-170.618;-320.859;-206.232;-190.772;-165.626
4754196.113;-123.940;-166.893;-91.791;-166.669;-324.734;-207.052;-190.064;-164.844
4754196.121;-120.476;-163.317;-88.885;-164.658;-320.747;-209.846;-192.150;-167.526
4754196.129;-116.266;-160.262;-85.495;-161.603;-320.524;-211.261;-193.566;-169.240
4754196.082;-114.590;-157.170;-85.086;-155.605;-322.014;-207.014;-190.660;-166.036
4754196.090;-109.337;-153.556;-79.311;-153.184;-316.352;-201.054;-185.817;-159.591
4754196.098;-113.733;-159.293;-84.974;-160.635;-323.392;-202.879;-189.990;-158.735
4754196.106;-118.613;-164.099;-88.476;-165.887;-322.089;-209.250;-194.944;-164.248
4754196.114;-122.078;-167.415;-91.568;-169.612;-325.665;-212.267;-197.813;-165.552
4754196.122;-115.968;-160.709;-87.693;-160.262;-324.659;-208.393;-190.437;-163.727
4754196.130;-116.527;-162.609;-87.619;-165.328;-320.971;-210.479;-193.976;-165.254
4754196.138;-120.811;-168.048;-93.058;-170.022;-327.006;-213.124;-198.483;-168.048
4754196.146;-110.976;-157.319;-83.037;-156.239;-318.326;-202.321;-184.849;-158.697
4754196.154;-115.074;-160.001;-88.029;-158.511;-325.404;-201.128;-182.129;-160.336
4754196.162;-121.370;-167.415;-96.560;-165.030;-334.270;-210.293;-190.288;-169.352
4754196.170;-117.533;-163.801;-94.846;-159.070;-332.221;-210.255;-187.717;-167.862
4754196.178;-116.974;-165.142;-95.107;-161.417;-331.476;-212.789;-193.045;-168.905
4754196.186;-112.318;-160.821;-91.195;-156.835;-326.410;-210.516;-192.858;-165.962
4754196.194;-113.137;-160.635;-94.175;-155.903;-333.227;-211.373;-190.362;-167.228
4754196.202;-113.659;-163.466;-93.617;-159.554;-330.322;-213.422;-189.021;-169.389
4754196.210;-113.547;-161.342;-95.591;-156.052;-335.723;-212.789;-183.731;-171.512
4754196.218;-114.478;-162.348;-96.634;-155.419;-334.457;-216.179;-183.545;-173.226
4754196.226;-118.166;-166.856;-100.695;-161.864;-339.784;-217.296;-186.451;-171.214
4754196.234;-111.796;-161.380;-94.436;-156.239;-334.419;-210.777;-182.912;-163.540
4754196.242;-104.606;-154.302;-87.954;-147.931;-326.931;-206.381;-181.235;-157.617
4754196.250;-103.228;-154.078;-87.805;-149.757;-329.465;-203.140;-182.316;-154.264
4754196.258;-102.445;-153.147;-90.376;-148.267;-334.643;-201.613;-180.975;-158.139
4754196.266;-117.719;-167.601;-106.022;-163.577;-347.830;-200.868;-179.335;-159.815
4754196.245;-93.654;-138.469;-86.725;-129.901;-333.004;-195.317;-173.226;-153.482
4754196.253;-64.485;-111.386;-67.838;-100.322;-327.975;-193.305;-170.432;-151.098
4754196.261;-42.394;-87.284;-55.134;-70.147;-327.863;-191.666;-166.632;-151.061
4754196.269;-25.555;-71.563;-43.139;-54.166;-321.977;-191.554;-167.824;-152.141
4754196.277;-16.950;-62.287;-41.611;-43.884;-329.725;-193.194;-172.816;-152.625
4754196.285;-22.464;-69.588;-50.887;-49.956;-338.256;-190.586;-172.146;-151.806
4754196.293;-22.501;-71.824;-52.005;-52.005;-334.382;-185.147;-164.919;-150.502
4754196.301;-19.409;-67.391;-49.435;-45.858;-331.514;-181.720;-159.480;-147.857
4754196.309;-14.119;-60.722;-44.666;-36.843;-324.138;-176.430;-152.811;-144.653
4754196.317;-21.122;-67.316;-51.670;-43.474;-329.241;-182.465;-160.150;-150.986
4754196.325;-24.922;-68.992;-57.891;-43.884;-335.909;-183.545;-161.156;-152.364
4754196.333;-20.936;-65.416;-51.707;-38.445;-323.467;-175.647;-153.035;-143.684
4754196.341;-32.634;-77.076;-64.299;-49.770;-339.411;-181.086;-159.889;-148.006
4754196.349;-46.864;-92.797;-78.902;-65.453;-350.475;-190.660;-172.555;-156.388
4754196.357;-50.589;-94.771;-84.899;-65.714;-351.965;-188.388;-172.332;-153.370
4754196.365;-54.426;-99.875;-88.513;-72.196;-353.605;-185.706;-167.303;-151.396
4754196.373;-53.644;-100.769;-87.731;-72.941;-351.332;-186.376;-165.738;-151.470
4754196.381;-48.727;-93.021;-84.005;-64.708;-347.160;-181.682;-158.139;-147.671
4754196.389;-42.655;-87.880;-78.268;-59.903;-341.125;-183.098;-156.499;-151.619
4754196.397;-40.345;-87.358;-75.623;-59.642;-336.058;-181.682;-156.723;-150.837
4754196.405;-40.047;-86.948;-75.325;-60.797;-332.259;-178.479;-156.611;-149.533
4754196.413;-47.907;-94.585;-83.968;-67.055;-341.646;-184.774;-163.279;-156.835
4754196.421;-47.870;-94.213;-84.303;-65.230;-340.529;-185.631;-163.838;-154.227
4754196.429;-47.833;-93.170;-85.160;-62.510;-337.437;-186.488;-163.987;-152.811
4754196.546;-45.449;-91.754;-81.696;-61.132;-331.774;-186.861;-166.893;-150.874
4754196.554;-47.721;-93.207;-85.086;-62.287;-335.388;-184.439;-163.354;-151.582
4754196.562;-50.552;-98.012;-89.183;-66.981;-333.004;-187.196;-167.005;-154.711
4754196.570;-51.185;-97.565;-89.146;-67.540;-332.184;-186.674;-166.595;-153.221
4754196.578;-51.446;-95.665;-90.674;-67.279;-335.164;-189.841;-165.999;-155.382
4754196.586;-45.337;-89.221;-83.335;-64.448;-324.473;-187.904;-164.248;-152.513
4754196.594;-40.978;-84.117;-75.847;-62.063;-312.626;-183.508;-161.566;-148.714
4754196.602;-45.411;-85.235;-83.409;-67.204;-324.473;-183.769;-162.944;-149.980
4754196.610;-42.245;-79.907;-81.882;-68.694;-322.312;-177.063;-160.150;-145.547
4754196.618;-40.866;-80.094;-79.423;-70.892;-316.277;-175.424;-160.187;-142.753
4754196.626;-39.861;-79.051;-78.827;-69.737;-311.770;-179.335;-164.174;-145.957
4754196.634;-41.425;-79.088;-79.274;-74.171;-308.752;-182.688;-168.122;-149.272
4754196.642;-42.804;-79.386;-81.658;-76.778;-311.062;-185.780;-169.314;-151.992
4754196.650;-41.313;-76.517;-81.249;-74.841;-311.397;-186.339;-166.185;-152.290
4754196.658;-35.651;-71.712;-74.990;-73.090;-303.388;-181.198;-161.901;-145.175
4754196.666;-36.620;-68.732;-76.629;-69.253;-308.342;-180.267;-160.150;-144.318
4754196.674;-40.829;-73.165;-78.790;-72.755;-309.758;-186.935;-165.142;-154.674
4754196.682;-41.798;-77.002;-79.200;-78.492;-307.746;-191.778;-169.426;-154.786
4754196.690;-40.866;-73.500;-79.870;-75.102;-311.323;-190.511;-166.111;-151.508
4754196.698;-40.494;-74.953;-77.263;-80.317;-306.778;-188.500;-163.354;-149.943
4754196.706;-37.551;-71.414;-74.543;-74.990;-300.854;-183.620;-157.170;-147.931
4754196.714;-32.149;-65.230;-69.626;-69.700;-298.396;-180.304;-157.654;-145.808
4754196.722;-31.181;-65.081;-67.800;-70.520;-295.565;-185.966;-165.217;-151.098
4754196.730;-29.802;-62.995;-65.640;-68.843;-291.392;-185.072;-162.534;-149.086
4754196.739;-30.398;-64.783;-64.299;-71.190;-287.853;-186.041;-159.740;-148.341
4754196.747;-32.298;-65.826;-67.391;-72.829;-294.596;-188.611;-159.293;-148.304
4754196.755;-33.006;-67.651;-67.540;-74.282;-293.702;-193.641;-165.030;-152.327
4754196.763;-35.800;-71.712;-67.577;-78.492;-288.263;-196.062;-167.564;-156.611
4754196.771;-42.170;-76.443;-75.176;-83.633;-299.886;-197.403;-169.203;-159.033
4754196.779;-42.543;-77.970;-74.953;-83.745;-299.513;-196.770;-167.899;-158.176
4754196.787;-34.794;-70.408;-67.167;-74.767;-288.747;-188.537;-158.809;-150.464
4754196.795;-25.034;-60.685;-57.742;-65.155;-280.514;-179.000;-149.719;-142.567
4754196.803;-26.412;-62.250;-59.381;-67.018;-283.159;-183.880;-155.978;-147.298
4754196.811;-28.536;-65.714;-60.983;-68.694;-282.787;-187.717;-161.342;-149.086
4754196.819;-27.865;-63.591;-59.083;-63.628;-277.311;-183.843;-156.611;-145.957
4754196.827;-33.826;-67.763;-63.665;-66.794;-283.010;-186.190;-156.388;-149.049
4754196.835;-45.747;-80.541;-75.474;-80.690;-296.533;-190.139;-157.170;-153.445
4754196.843;-53.123;-88.699;-83.148;-86.464;-300.705;-189.990;-155.792;-154.339
4754196.851;-53.830;-90.115;-81.137;-89.221;-294.335;-182.576;-154.823;-148.378
4754196.859;-52.489;-88.960;-79.535;-89.295;-290.908;-176.877;-155.829;-144.280
4754196.867;-51.148;-86.911;-79.833;-86.613;-293.516;-177.026;-160.001;-142.269
4754196.875;-47.572;-81.658;-74.245;-80.541;-286.363;-175.275;-157.505;-137.687
4754196.883;-46.678;-80.243;-72.755;-80.019;-281.110;-180.528;-162.013;-141.077
4754196.891;-54.762;-88.885;-80.131;-89.072;-287.592;-189.170;-169.016;-148.788
4754196.899;-53.793;-86.501;-81.509;-84.713;-292.547;-185.110;-162.609;-144.765
4754196.907;-48.466;-80.056;-75.065;-79.051;-283.122;-179.857;-154.413;-140.630
4754196.915;-40.382;-71.600;-65.900;-70.408;-272.505;-176.840;-148.118;-141.524
4754196.923;-26.636;-59.083;-51.334;-58.413;-255.220;-169.724;-142.790;-135.414
4754196.934;-26.338;-56.848;-52.005;-56.997;-258.833;-165.552;-142.418;-134.036
4754196.942;-23.842;-55.730;-51.297;-54.762;-257.604;-161.864;-139.698;-130.273
4754196.950;-22.464;-55.395;-49.844;-54.128;-253.953;-161.901;-141.934;-128.038
4754196.958;-21.979;-53.309;-48.652;-51.409;-249.483;-159.405;-139.698;-126.138
4754196.966;-28.089;-57.891;-54.911;-54.650;-256.300;-158.586;-137.389;-126.511
4754196.974;-42.096;-72.718;-71.190;-69.663;-272.430;-168.458;-146.069;-136.271
4754196.982;-47.572;-78.194;-75.847;-76.294;-274.256;-175.647;-152.215;-140.145
4754196.990;-49.882;-79.758;-79.237;-75.996;-275.970;-180.341;-156.537;-143.610
4754196.998;-49.137;-78.678;-77.263;-73.016;-272.878;-179.373;-156.350;-143.200
4754197.006;-47.460;-76.927;-76.406;-69.477;-268.370;-177.734;-154.041;-141.412
4754197.014;-45.747;-74.133;-75.288;-67.875;-266.321;-175.610;-151.135;-137.240
4754197.022;-40.196;-67.577;-69.179;-60.201;-257.008;-171.773;-147.969;-133.924
4754197.030;-41.425;-68.098;-72.755;-58.562;-260.584;-173.002;-147.857;-136.644
4754197.038;-38.557;-64.261;-69.737;-52.340;-254.661;-170.916;-144.839;-135.563
4754197.046;-43.102;-70.632;-73.612;-60.052;-257.194;-172.332;-145.212;-135.899
4754197.054;-45.337;-73.202;-75.325;-63.032;-257.567;-171.997;-144.057;-135.601
4754197.062;-47.460;-73.239;-79.498;-60.573;-261.441;-172.630;-146.255;-138.953
4754197.070;-49.807;-75.474;-82.068;-64.112;-261.404;-176.057;-149.161;-142.828
4754197.078;-50.850;-77.151;-83.372;-66.720;-259.727;-175.089;-149.794;-140.518
4754197.086;-46.939;-73.873;-81.547;-60.201;-258.684;-172.444;-147.484;-137.612
4754197.094;-43.027;-69.514;-76.219;-54.650;-249.408;-169.352;-144.243;-134.706
4754197.102;-38.855;-65.789;-72.755;-50.180;-244.975;-168.420;-146.329;-130.385
4754197.110;-33.565;-60.946;-65.230;-46.305;-234.172;-168.458;-147.931;-129.081
4754197.118;-36.098;-63.926;-68.508;-51.931;-238.232;-167.862;-145.473;-130.907
4754197.056;-41.761;-67.838;-78.231;-52.750;-249.520;-171.065;-145.659;-134.893
4754197.064;-50.142;-76.927;-85.421;-62.846;-252.798;-175.573;-148.490;-139.289
4754197.072;-50.552;-78.417;-84.229;-63.367;-246.800;-174.977;-148.155;-137.649
4754197.080;-53.272;-81.621;-88.848;-65.416;-249.818;-176.094;-153.184;-136.979
4754197.088;-56.475;-84.974;-93.803;-68.322;-254.996;-176.281;-156.872;-137.128
4754197.096;-55.172;-83.782;-92.611;-66.683;-250.787;-173.561;-152.737;-135.563
4754197.104;-58.040;-85.607;-95.181;-67.875;-252.761;-173.338;-150.800;-137.314
4754197.112;-56.736;-85.756;-91.903;-67.241;-243.783;-171.252;-148.118;-137.985
4754197.120;-53.048;-81.621;-91.083;-62.436;-244.603;-166.483;-144.392;-134.520
4754197.128;-48.727;-76.704;-88.401;-57.034;-243.746;-160.150;-135.824;-128.150
4754197.136;-54.948;-83.782;-94.585;-62.995;-246.540;-161.491;-137.314;-128.523
4754197.144;-61.356;-90.413;-100.695;-68.583;-247.024;-163.876;-142.418;-130.013
4754197.152;-69.328;-99.353;-110.753;-78.864;-257.008;-170.395;-149.868;-133.961
4754197.160;-67.316;-95.852;-108.518;-75.884;-251.271;-169.165;-149.198;-132.620
4754197.168;-58.748;-85.533;-100.434;-64.895;-244.416;-160.560;-139.698;-126.250
4754197.176;-55.544;-83.409;-97.118;-60.126;-237.860;-158.586;-137.687;-122.748
4754197.184;-50.105;-79.386;-91.009;-55.581;-230.633;-158.586;-136.904;-123.195
4754197.192;-51.819;-81.249;-94.436;-58.040;-232.980;-165.068;-143.833;-129.901
4754197.200;-50.701;-81.249;-94.399;-58.375;-228.696;-166.818;-145.957;-131.465
4754197.208;-50.142;-80.056;-97.565;-59.158;-234.209;-163.391;-141.822;-129.193
4754197.216;-47.684;-78.455;-95.554;-59.381;-230.372;-163.242;-142.753;-127.666
4754197.224;-46.417;-76.517;-92.573;-57.071;-222.661;-162.944;-140.592;-125.207
4754197.232;-54.128;-83.856;-101.626;-63.665;-229.850;-165.924;-142.939;-128.634
4754197.240;-55.507;-85.421;-102.445;-64.373;-227.019;-165.068;-143.126;-127.479
4754197.234;-47.833;-77.114;-94.175;-57.444;-217.296;-156.090;-135.079;-117.235
4754197.242;-51.260;-78.864;-97.603;-60.722;-220.463;-161.007;-140.220;-124.015
4754197.250;-55.134;-81.062;-101.849;-64.969;-223.778;-163.987;-142.641;-127.852
4754197.258;-55.991;-79.833;-102.744;-64.336;-221.692;-160.858;-140.332;-125.393
4754197.266;-56.773;-78.678;-103.600;-66.161;-221.208;-162.162;-143.014;-126.995
4754197.274;-48.764;-69.290;-94.771;-61.616;-208.840;-156.760;-137.053;-121.333
4754197.282;-44.107;-63.591;-92.536;-59.865;-207.350;-152.104;-131.503;-117.719
4754197.290;-47.348;-63.293;-98.124;-62.548;-215.732;-153.705;-134.110;-119.917
4754197.298;-44.219;-61.020;-91.940;-63.479;-204.965;-153.705;-135.563;-119.619
4754197.306;-43.921;-60.014;-90.972;-64.634;-204.220;-155.978;-136.197;-122.935
4754197.314;-41.649;-54.650;-90.376;-60.014;-204.183;-152.849;-131.242;-120.923
4754197.322;-45.113;-59.158;-93.840;-68.732;-208.281;-157.282;-138.544;-123.791
4754197.330;-46.119;-58.711;-94.399;-68.955;-208.616;-158.511;-139.661;-125.095
4754197.338;-40.419;-51.148;-87.097;-61.244;-196.248;-154.413;-133.589;-121.035
4754197.346;-40.345;-52.080;-86.315;-63.628;-193.231;-156.350;-137.053;-124.313
4754197.354;-42.394;-52.005;-91.530;-62.622;-203.364;-156.462;-141.449;-125.691
4754197.362;-41.053;-51.819;-87.991;-63.069;-195.317;-158.437;-145.882;-127.442
4754197.370;-42.841;-54.017;-88.364;-68.434;-197.105;-158.660;-148.788;-124.276
4754197.378;-38.557;-47.237;-83.037;-59.418;-191.294;-155.196;-145.137;-119.545
4754197.386;-45.002;-52.080;-90.487;-62.697;-201.315;-160.001;-146.553;-124.797
4754197.394;-47.237;-54.613;-89.817;-64.448;-194.684;-162.795;-145.473;-126.213
4754197.402;-44.033;-52.266;-85.048;-64.000;-191.629;-156.872;-138.655;-120.476
4754197.410;-44.517;-53.309;-86.613;-64.038;-198.446;-156.909;-137.947;-122.823
4754197.418;-40.457;-48.839;-81.100;-58.785;-190.884;-153.147;-135.228;-119.507
4754197.491;-41.462;-49.286;-82.329;-60.014;-191.182;-152.886;-135.936;-119.284
4754197.499;-41.872;-52.303;-81.360;-64.373;-189.766;-154.860;-136.904;-120.625
4754197.507;-44.294;-56.773;-84.117;-67.838;-191.517;-159.033;-137.500;-122.935
4754197.515;-45.151;-55.805;-85.086;-64.075;-192.523;-162.050;-138.544;-122.562
4754197.523;-42.729;-52.750;-81.547;-60.163;-191.145;-160.635;-134.930;-122.190
4754197.531;-45.933;-57.966;-82.739;-64.857;-189.133;-161.529;-135.973;-126.474
4754197.539;-47.833;-60.871;-84.937;-66.422;-191.852;-158.697;-133.142;-125.952
4754197.547;-50.552;-63.479;-90.264;-66.534;-197.887;-159.964;-134.222;-126.921
4754197.555;-42.692;-55.097;-81.398;-58.003;-188.574;-154.413;-132.173;-119.768
4754197.563;-37.365;-51.297;-73.649;-54.091;-178.404;-151.210;-130.832;-116.080
4754197.571;-41.723;-56.289;-78.455;-55.358;-185.035;-155.345;-134.967;-119.656
4754197.579;-47.535;-62.175;-84.564;-63.218;-189.058;-156.388;-135.042;-121.221
4754197.587;-47.088;-63.814;-82.664;-65.602;-184.402;-155.680;-134.371;-119.992
4754197.595;-44.852;-61.356;-80.355;-60.908;-184.551;-153.147;-131.540;-115.111
4754197.603;-46.976;-61.803;-81.919;-60.350;-187.904;-154.674;-133.030;-117.943
4754197.611;-47.311;-62.734;-81.994;-63.218;-188.537;-156.015;-133.216;-120.960
4754197.619;-42.282;-55.283;-78.790;-55.172;-183.880;-148.229;-126.064;-113.398
4754197.627;-48.093;-59.232;-86.240;-57.779;-188.090;-151.061;-128.187;-114.553
4754197.635;-51.446;-62.175;-87.209;-61.542;-185.594;-152.998;-129.081;-116.304
4754197.643;-56.662;-69.402;-91.083;-69.849;-188.537;-155.866;-132.732;-120.327
4754197.651;-52.266;-65.118;-87.172;-65.491;-184.700;-152.923;-133.030;-116.341
4754197.659;-49.397;-62.175;-84.788;-61.989;-182.614;-145.771;-126.585;-109.859
4754197.667;-48.578;-62.399;-85.607;-64.038;-179.894;-145.696;-127.032;-111.163
4754197.675;-48.466;-62.175;-84.117;-64.075;-176.430;-144.541;-127.181;-109.710
4754197.746;-52.340;-66.236;-85.868;-66.906;-173.822;-146.143;-129.677;-111.423
4754197.754;-57.667;-71.377;-93.132;-71.302;-176.094;-147.931;-131.987;-113.696
4754197.762;-56.028;-69.216;-90.040;-69.402;-172.295;-146.478;-129.715;-111.572
4754197.770;-58.822;-70.147;-94.473;-66.571;-178.963;-148.714;-129.491;-114.515
4754197.778;-55.917;-69.290;-88.438;-65.230;-167.266;-149.757;-127.256;-114.255
4754197.786;-60.871;-73.574;-96.485;-68.657;-180.081;-153.035;-127.740;-117.682
4754197.794;-56.811;-71.861;-90.785;-65.863;-171.140;-152.029;-125.691;-115.782
4754197.802;-57.332;-71.973;-90.860;-65.640;-165.924;-150.502;-123.717;-113.957
4754197.810;-56.922;-71.563;-93.170;-64.783;-166.632;-144.728;-119.545;-109.449
4754197.818;-53.383;-69.067;-89.332;-61.244;-161.082;-138.804;-112.914;-106.096
4754197.826;-51.856;-66.720;-87.731;-56.922;-157.915;-138.655;-115.149;-106.506
4754197.834;-51.372;-65.044;-87.656;-53.234;-154.451;-142.232;-121.258;-108.369
4754197.842;-55.954;-69.849;-91.605;-59.418;-154.935;-145.920;-125.021;-111.982
4754197.850;-55.097;-68.732;-90.897;-59.083;-152.364;-147.223;-127.554;-111.312
4754197.858;-55.023;-66.757;-92.797;-54.985;-153.407;-144.020;-122.488;-108.480
4754197.866;-52.117;-66.645;-90.376;-54.911;-144.728;-139.475;-116.602;-103.004
4754197.874;-49.733;-64.857;-89.109;-51.148;-141.896;-136.346;-114.106;-97.901
4754197.882;-54.091;-68.657;-93.021;-53.830;-141.561;-143.573;-122.376;-108.592
4754197.890;-54.315;-71.973;-91.419;-57.928;-132.322;-148.267;-129.566;-113.100
4754197.898;-59.791;-75.810;-101.626;-61.058;-148.565;-156.686;-136.495;-121.668
4754197.906;-57.109;-71.041;-100.099;-54.613;-142.977;-154.339;-131.018;-118.613
4754197.914;-45.076;-60.201;-86.240;-44.890;-126.101;-142.716;-117.011;-105.835
4754197.922;-53.160;-66.347;-96.932;-49.360;-132.620;-145.100;-118.613;-109.300
4754197.930;-63.591;-76.517;-107.773;-58.673;-137.836;-152.774;-127.181;-117.160
4754197.910;-60.983;-75.474;-103.861;-56.885;-128.374;-148.639;-125.840;-113.286
4754197.918;-56.624;-69.812;-103.638;-49.584;-133.142;-140.332;-119.358;-104.979
4754197.926;-54.762;-67.875;-102.483;-47.088;-126.734;-138.506;-115.782;-105.575
4754197.934;-59.344;-74.133;-107.102;-54.240;-129.119;-141.449;-118.390;-109.226
4754197.942;-54.501;-69.886;-101.812;-49.919;-118.762;-136.122;-113.249;-103.526
4754197.950;-49.137;-63.442;-97.677;-42.133;-113.584;-132.732;-106.283;-100.210
4754197.958;-49.956;-66.124;-98.273;-43.921;-110.716;-137.202;-108.667;-103.265
4754197.966;-50.142;-67.614;-98.646;-47.013;-109.076;-140.481;-112.131;-106.096
4754197.974;-51.409;-66.683;-100.136;-44.666;-109.300;-140.555;-115.670;-106.320
4754197.982;-47.088;-61.132;-96.858;-37.551;-102.818;-131.242;-107.512;-98.050
4754197.990;-48.503;-62.026;-98.422;-39.861;-107.139;-127.926;-102.334;-96.597
4754197.998;-50.180;-64.112;-100.918;-40.121;-106.394;-131.130;-104.047;-99.279
4754198.006;-49.733;-62.734;-102.967;-39.041;-109.971;-137.314;-114.106;-101.887
4754198.014;-49.882;-61.952;-103.936;-37.625;-106.804;-138.953;-116.751;-102.744
4754198.022;-49.397;-61.132;-105.277;-34.571;-101.849;-137.724;-112.988;-100.993
4754198.030;-50.776;-62.622;-107.884;-38.818;-101.551;-137.687;-110.492;-100.993
4754198.038;-56.811;-68.136;-113.323;-41.872;-106.171;-143.237;-116.229;-104.830
4754198.046;-68.732;-79.982;-126.064;-52.564;-119.694;-150.800;-121.966;-108.667
4754198.054;-70.296;-82.478;-126.027;-53.979;-114.404;-151.470;-123.531;-111.386
4754198.062;-66.012;-77.337;-120.625;-47.721;-106.804;-143.237;-115.484;-103.451
4754198.070;-56.103;-67.987;-111.386;-40.233;-96.783;-128.336;-102.147;-87.582
4754198.078;-54.501;-68.210;-112.094;-40.047;-100.881;-120.662;-96.150;-78.380
4754198.086;-59.418;-74.394;-115.819;-44.703;-101.104;-125.132;-99.726;-84.639
4754198.094;-58.301;-73.314;-113.137;-43.772;-92.946;-127.293;-102.185;-85.719
4754198.121;-60.350;-76.368;-115.186;-46.790;-90.003;-131.913;-110.306;-91.046
4754198.129;-62.063;-76.406;-121.109;-47.535;-98.683;-129.677;-110.269;-92.611
4754198.137;-59.903;-75.698;-118.539;-49.099;-93.021;-129.826;-109.076;-93.952
4754198.145;-56.326;-72.122;-115.857;-47.870;-89.779;-133.179;-112.578;-94.920
4754198.153;-52.080;-65.304;-113.025;-41.053;-86.315;-130.758;-109.673;-92.871
4754198.161;-55.060;-65.677;-115.559;-44.033;-87.395;-133.440;-112.541;-96.224
4754198.169;-61.803;-71.973;-121.370;-55.209;-88.289;-137.761;-118.688;-100.508
4754198.177;-65.751;-74.022;-125.840;-60.797;-91.419;-139.140;-120.588;-102.855
4754198.185;-60.946;-67.353;-119.321;-56.513;-85.048;-134.520;-117.049;-96.001
4754198.193;-64.708;-71.302;-121.854;-66.161;-81.547;-135.601;-119.768;-97.528
4754198.201;-58.636;-66.161;-116.639;-61.765;-81.100;-131.689;-116.602;-93.877
4754198.209;-57.481;-62.622;-114.590;-58.971;-76.778;-129.752;-115.745;-91.009
4754198.217;-55.768;-60.089;-112.876;-58.971;-73.090;-126.660;-113.323;-87.544
4754198.225;-56.587;-59.307;-115.111;-59.605;-79.013;-123.233;-109.784;-87.433
4754198.233;-45.933;-48.392;-103.712;-47.311;-66.720;-118.203;-102.185;-85.831
4754198.241;-38.706;-42.841;-97.118;-41.761;-62.622;-115.484;-101.477;-83.148
4754198.249;-37.625;-44.852;-94.324;-45.709;-53.085;-117.160;-103.675;-84.192
4754198.257;-37.588;-44.703;-95.591;-43.586;-53.383;-119.656;-104.718;-90.078
4754198.265;-41.090;-48.205;-99.465;-47.684;-59.754;-120.476;-103.824;-91.046
4754198.273;-39.190;-46.417;-95.703;-46.007;-57.332;-116.751;-100.322;-88.401
4754198.281;-44.182;-49.323;-101.775;-48.243;-62.399;-116.080;-100.993;-87.731
4754198.289;-39.525;-44.294;-96.299;-42.990;-56.811;-114.106;-96.895;-85.235
4754198.297;-36.582;-42.655;-93.468;-41.239;-49.956;-110.306;-91.158;-79.945
4754198.305;-47.684;-50.627;-104.941;-46.827;-60.946;-116.937;-97.379;-85.831
4754198.404;-50.291;-54.799;-106.990;-53.309;-65.863;-125.319;-106.394;-94.473
4754198.412;-39.935;-46.045;-96.560;-45.896;-52.899;-119.545;-99.167;-89.556
4754198.420;-45.374;-47.870;-103.936;-47.497;-65.155;-119.209;-101.589;-89.519
4754198.428;-42.506;-44.927;-98.683;-44.033;-54.836;-115.335;-96.075;-84.676
4754198.436;-43.176;-46.678;-100.657;-45.747;-57.630;-115.931;-95.963;-84.452
4754198.444;-43.288;-47.758;-100.173;-46.529;-54.538;-112.467;-93.281;-81.994
4754198.452;-48.801;-56.736;-103.414;-55.321;-53.830;-121.184;-101.440;-90.450
4754198.460;-45.300;-51.372;-100.397;-45.970;-53.942;-121.035;-98.906;-89.519
4754198.468;-46.343;-53.421;-100.434;-46.529;-53.346;-123.344;-101.142;-89.966
4754198.476;-48.727;-57.444;-104.792;-50.478;-60.573;-125.617;-103.116;-92.313
4754198.484;-39.972;-48.392;-94.026;-39.712;-46.305;-118.800;-94.324;-88.327
4754198.492;-40.978;-47.311;-95.777;-36.955;-46.343;-118.874;-91.530;-88.550
4754198.500;-47.460;-53.123;-102.855;-44.890;-57.854;-119.992;-94.138;-89.034
4754198.508;-45.598;-50.105;-100.769;-40.419;-54.687;-116.043;-92.387;-84.266
4754198.516;-42.319;-46.790;-96.746;-36.098;-47.237;-117.235;-92.499;-87.395
4754198.524;-38.221;-45.635;-92.015;-39.227;-41.239;-116.602;-94.958;-87.507
4754198.532;-38.594;-47.348;-93.281;-40.345;-41.313;-116.564;-95.256;-85.011
4754198.540;-42.580;-50.478;-98.646;-43.884;-51.185;-125.505;-100.173;-93.468
4754198.548;-42.878;-50.999;-99.316;-45.076;-49.323;-127.852;-100.993;-95.554
4754198.556;-46.864;-53.197;-102.296;-46.715;-48.093;-127.405;-102.632;-94.585
4754198.564;-38.818;-46.343;-92.648;-40.978;-38.818;-119.023;-98.646;-87.619
4754198.572;-43.251;-50.031;-100.322;-45.262;-52.266;-120.923;-101.402;-91.977
4754198.580;-42.021;-48.839;-96.709;-45.598;-43.884;-118.949;-98.385;-91.568
4754198.588;-41.500;-48.950;-94.697;-45.821;-38.221;-111.423;-90.934;-82.999
4754198.585;-43.921;-51.148;-99.652;-46.194;-46.864;-115.409;-92.275;-83.111
4754198.593;-49.025;-55.917;-105.761;-51.819;-52.527;-117.980;-97.305;-86.538
4754198.601;-48.056;-56.662;-101.589;-53.756;-45.151;-119.545;-100.248;-89.556
4754198.609;-45.709;-56.624;-97.491;-56.066;-42.655;-118.986;-100.248;-87.582
4754198.617;-45.598;-52.974;-100.099;-46.901;-42.357;-114.143;-94.771;-85.384
4754198.625;-43.139;-49.733;-100.136;-43.325;-43.176;-109.561;-92.275;-81.249
4754198.633;-42.766;-51.297;-100.322;-46.380;-42.804;-104.569;-88.401;-76.033
4754198.641;-50.887;-58.450;-109.188;-53.085;-53.942;-108.890;-93.095;-79.013
4754198.649;-56.326;-62.995;-113.063;-57.369;-56.699;-113.659;-95.740;-83.633
4754198.657;-53.979;-62.883;-109.971;-55.619;-50.217;-111.796;-93.505;-81.398
4754198.665;-50.627;-60.052;-107.810;-53.495;-52.713;-106.730;-91.679;-73.165
4754198.673;-49.733;-60.908;-105.835;-56.028;-48.988;-108.182;-96.336;-71.861
4754198.681;-47.907;-58.636;-104.122;-50.701;-46.156;-113.212;-97.826;-75.027
4754198.689;-44.517;-54.501;-102.594;-45.598;-44.554;-111.684;-92.201;-74.320
4754198.697;-48.205;-58.599;-106.953;-49.323;-51.744;-111.796;-91.605;-74.841
4754198.705;-52.005;-63.144;-108.294;-54.687;-51.036;-112.019;-93.021;-74.692
4754198.713;-45.300;-56.736;-101.551;-49.770;-43.102;-103.228;-84.005;-67.353
4754198.721;-38.221;-52.601;-93.579;-45.970;-32.932;-99.503;-83.260;-64.075
4754198.729;-43.064;-55.768;-101.514;-46.417;-43.847;-102.296;-86.501;-66.422
4754198.737;-39.563;-52.862;-97.491;-42.059;-33.230;-98.534;-80.131;-63.740
4754198.745;-46.045;-61.691;-103.712;-53.495;-42.543;-104.941;-88.736;-69.626
4754198.753;-44.741;-59.605;-102.520;-50.254;-38.557;-101.030;-86.725;-66.757
4754198.761;-53.048;-68.322;-111.684;-57.220;-44.629;-105.351;-90.711;-73.612
4754198.769;-54.613;-71.228;-113.584;-60.312;-46.790;-107.996;-90.301;-76.592
4754198.705;-55.768;-73.053;-115.223;-60.983;-46.678;-107.028;-87.358;-73.463
4754198.713;-55.619;-73.053;-114.441;-60.275;-45.225;-107.773;-86.725;-73.165
4754198.721;-50.701;-67.204;-108.704;-52.601;-40.680;-106.953;-84.899;-72.233
4754198.729;-51.185;-69.439;-110.157;-56.215;-39.153;-105.202;-83.707;-72.569
4754198.737;-53.868;-70.371;-111.386;-57.928;-40.196;-98.161;-77.784;-66.496
4754198.745;-51.036;-63.293;-111.945;-46.380;-49.844;-102.967;-83.670;-70.147
4754198.753;-50.478;-64.820;-112.914;-47.572;-50.068;-107.661;-85.607;-75.586
4754198.761;-52.340;-66.943;-112.765;-49.137;-44.480;-100.173;-76.778;-69.998
4754198.769;-52.042;-64.485;-113.323;-44.443;-45.635;-92.797;-70.482;-62.287
4754198.777;-57.146;-70.035;-117.943;-51.893;-49.099;-100.397;-79.498;-69.775
4754198.785;-56.960;-67.838;-119.321;-47.795;-51.223;-102.744;-80.876;-73.090
4754198.793;-54.277;-66.981;-117.049;-47.050;-50.180;-101.514;-79.311;-70.184
4754198.801;-49.397;-63.144;-110.194;-43.362;-39.898;-95.516;-73.761;-62.585
4754198.809;-57.258;-69.626;-118.874;-49.472;-50.664;-101.440;-81.733;-68.471
4754198.817;-62.324;-72.718;-124.276;-53.234;-54.389;-104.234;-84.117;-72.047
4754198.825;-59.754;-71.712;-118.800;-53.421;-45.225;-101.253;-81.882;-65.528
4754198.833;-60.834;-70.743;-121.295;-50.329;-50.962;-101.775;-83.074;-64.522
4754198.841;-58.599;-68.881;-119.656;-49.546;-46.641;-98.608;-82.590;-63.069
4754198.849;-56.922;-68.545;-118.427;-50.552;-43.735;-98.571;-85.272;-64.410
4754198.857;-52.713;-63.628;-115.037;-43.102;-41.276;-95.740;-80.168;-63.740
4754198.865;-49.584;-60.908;-110.306;-40.196;-37.439;-92.834;-78.678;-60.052
4754198.873;-52.080;-64.895;-115.708;-45.933;-42.282;-90.748;-79.535;-57.593
4754198.881;-54.687;-67.316;-118.762;-47.423;-44.592;-91.791;-79.609;-61.058
4754198.889;-49.509;-64.336;-111.610;-43.698;-35.353;-90.636;-80.205;-60.052
4754198.856;-51.595;-65.044;-115.596;-44.554;-40.308;-95.181;-85.570;-65.230
4754198.864;-55.842;-69.290;-119.656;-47.162;-42.319;-103.414;-89.891;-71.786
4754198.872;-56.326;-72.271;-120.625;-50.478;-43.958;-105.985;-91.419;-73.463
4754198.880;-46.752;-63.069;-109.710;-40.606;-31.665;-101.291;-87.284;-67.502
4754198.888;-46.641;-61.020;-110.902;-38.035;-36.731;-101.291;-84.490;-69.886
4754198.896;-41.947;-56.289;-106.953;-36.880;-32.634;-95.144;-75.772;-67.800
4754198.904;-32.410;-45.449;-94.846;-29.169;-19.632;-84.862;-64.261;-63.032
4754198.912;-36.173;-46.566;-97.752;-33.565;-20.489;-86.352;-69.253;-63.777
4754198.920;-40.308;-46.454;-103.787;-35.837;-30.063;-89.034;-75.586;-62.697
4754198.928;-38.520;-42.878;-100.769;-35.092;-25.555;-86.762;-76.778;-59.195
4754198.936;-38.520;-40.680;-98.422;-37.737;-22.389;-82.515;-76.815;-57.109
4754198.944;-40.643;-41.388;-99.987;-43.027;-26.263;-84.080;-77.821;-59.865
4754198.952;-38.743;-38.557;-100.546;-43.809;-28.312;-83.670;-75.102;-59.009
4754198.960;-29.318;-30.287;-90.115;-37.365;-17.025;-76.257;-65.342;-54.277
4754198.968;-23.395;-24.214;-84.527;-31.814;-12.144;-74.618;-60.163;-55.619
4754198.976;-26.003;-25.146;-87.917;-34.869;-20.564;-76.480;-61.467;-60.648
4754198.984;-22.911;-23.134;-84.080;-34.049;-15.683;-74.431;-59.977;-58.487
4754198.992;-27.046;-26.561;-86.427;-37.961;-15.572;-82.739;-66.869;-62.622
4754199.000;-29.281;-26.450;-87.135;-37.029;-21.867;-84.415;-68.471;-60.610
4754199.008;-34.273;-30.920;-92.685;-41.537;-24.177;-91.456;-77.263;-64.969
4754199.016;-31.404;-28.946;-88.252;-40.792;-18.142;-92.015;-77.449;-66.273
4754199.024;-27.679;-25.742;-83.596;-38.184;-17.583;-87.023;-72.978;-62.697
4754199.032;-25.816;-22.724;-80.392;-35.204;-16.429;-81.696;-67.465;-58.152
4754199.040;-24.661;-22.873;-77.561;-37.439;-14.603;-79.609;-64.597;-56.028
4754199.018;-21.420;-17.844;-73.798;-30.473;-8.978;-74.357;-60.648;-51.372
4754199.026;-22.724;-19.446;-75.623;-31.926;-15.981;-73.984;-62.399;-50.254
4754199.034;-27.157;-25.295;-78.343;-40.159;-23.432;-79.237;-70.594;-55.097
4754199.042;-23.879;-20.750;-73.574;-35.055;-13.858;-77.114;-68.620;-54.687
4754199.050;-20.601;-17.434;-71.116;-32.224;-10.803;-73.761;-65.006;-50.105
4754199.058;-21.495;-20.154;-72.159;-34.198;-12.890;-75.363;-64.112;-52.378
4754199.066;-24.326;-22.091;-74.171;-34.980;-11.511;-72.010;-58.189;-51.707
4754199.074;-23.581;-21.383;-72.718;-33.602;-14.529;-66.869;-51.931;-48.354
4754199.082;-27.865;-24.848;-79.833;-36.806;-25.183;-69.514;-54.203;-50.105
4754199.090;-24.438;-22.799;-71.786;-35.278;-14.380;-66.161;-51.223;-45.821
4754199.098;-25.332;-24.885;-71.302;-37.774;-9.388;-65.751;-53.793;-43.847
4754199.106;-28.573;-28.275;-76.257;-40.084;-19.111;-66.273;-54.426;-44.219
4754199.114;-30.808;-30.436;-76.219;-41.835;-14.789;-64.746;-53.383;-44.107
4754199.122;-32.298;-30.473;-79.013;-42.878;-22.165;-65.826;-53.681;-43.027
4754199.130;-29.057;-27.567;-75.102;-39.227;-18.403;-64.820;-51.074;-42.245
4754199.138;-24.252;-24.214;-68.583;-37.104;-12.182;-64.112;-52.080;-43.511
4754199.146;-26.077;-23.320;-71.004;-35.875;-12.591;-62.995;-49.993;-46.454
4754199.154;-31.143;-27.716;-76.517;-40.159;-16.429;-60.275;-47.907;-45.635
4754199.162;-38.743;-34.496;-85.346;-46.939;-26.263;-59.791;-49.882;-44.368
4754199.170;-37.514;-34.012;-81.882;-47.497;-22.613;-57.705;-49.956;-40.494
4754199.178;-34.980;-32.112;-79.460;-45.933;-20.005;-56.140;-47.423;-38.594
4754199.186;-29.728;-25.667;-73.910;-39.525;-13.970;-53.197;-43.474;-35.353
4754199.194;-26.561;-22.203;-69.030;-37.029;-9.388;-54.576;-43.027;-34.831
4754199.202;-31.814;-27.232;-75.847;-41.202;-17.062;-61.542;-51.893;-40.792
4754199.172;-29.877;-24.177;-73.202;-37.737;-14.193;-62.510;-52.303;-40.866
4754199.180;-17.956;-14.752;-62.138;-30.398;-9.611;-62.175;-53.048;-39.749
4754199.188;-14.529;-11.101;-57.034;-22.538;-9.462;-60.238;-51.484;-41.649
4754199.196;7.451;16.093;-42.059;11.399;-6.333;-63.851;-53.495;-44.070
4754199.204;36.210;48.988;-19.670;52.564;4.210;-59.120;-48.950;-39.190
4754199.212;67.241;88.401;1.192;102.706;8.382;-53.309;-40.345;-33.528
4754199.220;88.327;117.235;7.935;143.461;-0.969;-52.713;-36.396;-33.714
4754199.228;115.372;150.092;25.295;186.786;3.092;-51.893;-32.671;-34.906
4754199.236;140.816;182.614;40.792;229.031;4.992;-45.970;-25.332;-31.553
4754199.244;164.285;211.895;56.960;265.539;15.758;-42.506;-21.942;-29.728
4754199.252;167.899;217.035;52.415;276.789;2.310;-42.170;-23.171;-30.175
4754199.260;153.184;202.134;33.267;265.427;-22.091;-46.864;-30.026;-36.322
4754199.268;150.315;200.570;29.728;268.668;-21.122;-42.617;-25.183;-32.000
4754199.276;142.194;195.839;20.489;267.774;-22.054;-38.110;-16.913;-27.493
4754199.284;128.970;186.414;6.519;261.590;-36.955;-43.549;-17.956;-32.522
4754199.292;113.659;175.610;-11.437;253.841;-47.125;-38.445;-12.293;-27.381
4754199.300;86.464;151.917;-40.047;231.527;-65.379;-44.517;-19.930;-33.043
4754199.308;55.544;119.880;-68.806;199.266;-78.380;-55.023;-30.138;-42.655
4754199.316;32.932;96.187;-88.811;174.008;-85.570;-55.283;-33.304;-37.812
4754199.324;7.749;71.600;-112.541;149.049;-98.832;-56.997;-37.663;-37.067
4754199.332;-17.546;44.592;-134.967;117.831;-112.727;-59.940;-39.600;-41.500
4754199.340;-40.159;20.154;-153.705;91.270;-123.121;-68.322;-48.839;-51.334
4754199.348;-53.719;2.831;-163.466;69.514;-125.021;-71.228;-54.240;-52.340
4754199.356;-67.875;-13.895;-173.710;50.291;-125.132;-65.565;-46.678;-44.629
4754199.380;-78.678;-23.954;-184.178;40.270;-131.428;-64.969;-43.474;-47.348
4754199.388;-86.688;-31.032;-191.480;33.304;-135.042;-65.006;-41.835;-49.248
4754199.396;-94.399;-41.388;-196.397;22.501;-132.471;-65.714;-45.970;-47.088
4754199.404;-99.987;-47.982;-200.607;15.162;-132.918;-61.207;-44.219;-41.239
4754199.412;-116.676;-64.634;-220.463;-3.614;-155.941;-71.228;-52.936;-53.719
4754199.420;-123.419;-72.047;-226.349;-10.282;-158.288;-70.892;-48.690;-53.607
4754199.428;-129.752;-80.504;-230.558;-19.558;-156.164;-64.895;-40.419;-48.019
4754199.436;-137.389;-89.481;-234.954;-30.175;-155.643;-60.387;-38.445;-46.715
4754199.444;-146.180;-97.305;-244.007;-37.514;-167.303;-52.080;-33.006;-42.804
4754199.452;-145.771;-97.789;-242.740;-36.545;-160.746;-40.121;-24.028;-31.665
4754199.460;-150.688;-105.314;-246.651;-46.864;-164.621;-40.792;-26.077;-27.418
4754199.468;-153.147;-107.177;-249.334;-47.833;-163.466;-48.801;-31.181;-33.714
4754199.476;-150.241;-105.239;-246.763;-44.592;-161.566;-50.627;-31.702;-34.235
4754199.484;-154.302;-108.145;-252.426;-46.529;-176.169;-57.258;-36.731;-42.319
4754199.492;-147.931;-102.185;-242.554;-40.419;-162.236;-60.759;-40.531;-46.082
4754199.500;-142.567;-97.416;-237.860;-38.184;-160.486;-59.232;-41.239;-45.300
4754199.508;-141.338;-98.422;-235.178;-41.202;-160.150;-55.619;-36.098;-44.405
4754199.516;-139.698;-98.683;-231.974;-42.431;-152.141;-54.613;-36.098;-42.617
4754199.524;-135.787;-94.324;-226.498;-39.488;-145.473;-49.621;-32.671;-37.551
4754199.532;-138.097;-97.193;-229.664;-42.766;-150.427;-50.813;-31.404;-41.053
4754199.540;-138.693;-97.603;-229.441;-42.059;-150.241;-51.074;-30.361;-41.015
4754199.548;-130.832;-90.450;-221.543;-34.459;-145.249;-45.672;-26.673;-35.428
4754199.556;-135.377;-96.485;-225.939;-42.096;-148.900;-50.813;-34.608;-39.414
4754199.564;-133.924;-95.069;-223.033;-39.637;-143.610;-46.343;-30.510;-36.508
4754199.590;-133.328;-94.846;-222.549;-36.731;-145.957;-43.102;-30.100;-34.869
4754199.598;-134.706;-96.522;-222.214;-39.563;-144.951;-43.474;-30.249;-35.539
4754199.606;-138.432;-101.216;-224.933;-47.237;-147.857;-46.268;-30.361;-39.488
4754199.614;-136.197;-99.540;-221.170;-45.449;-143.982;-45.896;-26.263;-39.749
4754199.622;-132.732;-95.256;-218.526;-42.059;-143.386;-44.070;-22.948;-40.531
4754199.630;-134.669;-97.528;-219.122;-47.386;-142.381;-47.088;-27.269;-42.468
4754199.638;-132.844;-95.256;-215.620;-48.615;-139.363;-44.145;-28.051;-36.620
4754199.646;-128.448;-88.662;-212.379;-44.927;-138.320;-39.488;-24.326;-30.324
4754199.654;-127.666;-86.427;-212.081;-44.256;-139.177;-41.351;-27.604;-33.192
4754199.662;-128.075;-84.192;-210.591;-46.417;-136.606;-47.125;-36.545;-40.568
4754199.670;-131.540;-84.452;-214.204;-49.435;-141.375;-42.170;-31.851;-37.774
4754199.678;-141.598;-92.275;-222.661;-60.424;-153.333;-40.233;-29.914;-37.514
4754199.686;-106.916;-59.828;-186.898;-31.218;-131.391;-35.800;-26.897;-32.112
4754199.694;-77.970;-36.247;-159.927;-13.225;-112.616;-36.173;-31.926;-30.398
4754199.702;-52.527;-15.832;-136.644;1.676;-103.675;-34.273;-30.324;-26.189
4754199.710;-23.395;9.723;-108.369;23.171;-87.023;-29.318;-23.693;-24.028
4754199.718;4.172;34.384;-83.037;43.437;-72.084;-24.810;-17.807;-21.346
4754199.726;26.412;55.805;-64.597;63.628;-63.851;-25.295;-17.919;-21.569
4754199.734;33.937;59.567;-54.650;65.453;-54.315;-26.673;-20.005;-23.022
4754199.742;32.000;55.172;-53.644;59.195;-51.334;-25.183;-19.148;-25.295
4754199.750;16.764;41.574;-69.663;45.821;-70.073;-26.412;-21.197;-25.295
4754199.758;7.153;33.267;-76.182;37.476;-68.955;-26.003;-20.750;-22.277
4754199.766;4.247;30.622;-75.251;35.129;-66.012;-20.713;-16.503;-18.813
4754199.774;-4.433;20.228;-83.856;23.879;-74.022;-26.673;-22.687;-23.767
4754199.710;-6.892;15.981;-83.931;18.440;-73.835;-29.653;-26.003;-26.077
4754199.718;-7.674;13.262;-79.647;12.666;-65.118;-28.946;-27.455;-25.295
4754199.726;-13.895;6.594;-84.490;6.296;-68.992;-25.816;-25.667;-22.240
4754199.734;-21.085;0.373;-92.238;-0.969;-77.374;-19.297;-25.108;-18.999
4754199.742;-19.856;2.012;-89.779;0.410;-73.239;-15.534;-25.220;-18.738
4754199.750;-19.036;1.751;-87.023;-0.261;-71.824;-13.672;-22.985;-15.907
4754199.758;-21.458;-1.043;-89.668;-1.341;-75.214;-12.554;-19.819;-15.236
4754199.766;-28.126;-9.239;-95.293;-8.494;-80.913;-21.309;-27.940;-23.805
4754199.774;-28.387;-10.133;-93.505;-9.239;-80.913;-28.051;-33.826;-27.344
4754199.782;-24.475;-7.302;-89.593;-5.811;-78.231;-29.355;-31.926;-27.604
4754199.790;-22.613;-5.700;-86.464;-2.533;-74.692;-29.504;-32.261;-30.547
4754199.798;-18.440;-4.023;-79.423;-1.974;-68.694;-25.667;-29.169;-27.604
4754199.806;-20.899;-7.488;-81.360;-6.370;-70.594;-25.593;-29.877;-26.450
4754199.814;-27.306;-15.870;-86.948;-15.572;-72.941;-24.661;-30.324;-25.332
4754199.822;-31.851;-22.277;-90.897;-20.601;-73.761;-23.060;-29.765;-24.326
4754199.830;-32.298;-21.048;-89.034;-18.626;-71.265;-21.532;-29.579;-23.022
4754199.838;-32.820;-21.011;-91.381;-16.838;-76.480;-22.352;-29.579;-25.369
4754199.846;-32.075;-20.415;-90.078;-17.583;-74.804;-21.644;-28.461;-24.401
4754199.854;-26.673;-14.901;-83.521;-12.405;-69.588;-16.317;-21.420;-20.117
4754199.862;-26.375;-15.236;-83.260;-12.070;-69.775;-16.354;-22.762;-19.260
4754199.870;-24.103;-14.119;-81.547;-12.331;-65.230;-15.348;-23.283;-17.136
4754199.878;-23.916;-13.895;-80.988;-12.480;-63.628;-14.678;-22.724;-17.658
4754199.886;-22.054;-10.915;-79.088;-9.425;-61.616;-13.374;-19.372;-18.217
4754199.894;-18.179;-8.047;-73.612;-8.047;-55.656;-10.915;-15.460;-15.311
4754199.860;-20.191;-12.182;-76.145;-12.293;-56.438;-15.646;-22.165;-17.025
4754199.868;-22.687;-13.672;-79.088;-12.405;-59.307;-18.217;-24.140;-18.477
4754199.876;-30.026;-21.085;-86.650;-19.558;-68.247;-27.232;-34.012;-28.536
4754199.884;-16.876;-9.462;-70.557;-10.170;-48.205;-20.787;-27.083;-20.787
4754199.892;-13.858;-5.923;-68.843;-7.339;-52.303;-20.042;-24.661;-22.575
4754199.900;-16.242;-8.680;-73.574;-11.101;-56.662;-22.762;-27.865;-25.257
4754199.908;-18.179;-11.101;-72.606;-14.566;-55.097;-23.805;-27.493;-27.269
4754199.916;-13.411;-8.978;-65.006;-11.139;-43.735;-17.993;-21.458;-21.532
4754199.924;-16.764;-12.033;-70.632;-13.821;-53.346;-17.360;-21.420;-20.340
4754199.932;-18.962;-15.348;-71.898;-18.217;-51.484;-22.575;-27.604;-25.332
4754199.940;-16.503;-13.597;-67.130;-16.727;-43.921;-23.767;-27.940;-25.854
4754199.948;-16.615;-12.107;-68.136;-14.342;-49.025;-20.750;-25.183;-22.501
4754199.956;-18.552;-14.640;-72.457;-15.572;-48.950;-20.824;-27.455;-22.613
4754199.964;-20.564;-16.168;-75.400;-14.976;-54.911;-22.948;-28.424;-25.593
4754199.972;-18.738;-14.529;-72.457;-14.305;-49.695;-26.599;-30.212;-27.269
4754199.980;-15.125;-11.288;-68.806;-12.256;-45.896;-30.696;-34.980;-29.579
4754199.988;-7.264;-3.278;-61.207;-6.221;-37.774;-26.375;-30.771;-28.424
4754199.996;-5.849;-2.645;-58.636;-7.860;-32.112;-21.197;-24.959;-26.971
4754200.004;-5.998;-3.316;-59.232;-7.376;-32.596;-19.595;-23.879;-27.195
4754200.012;-10.133;-8.903;-63.553;-13.150;-37.849;-20.452;-23.805;-25.965
4754200.020;-16.168;-14.640;-70.371;-21.681;-46.529;-24.214;-28.796;-25.555
4754200.028;-11.213;-6.780;-65.491;-12.480;-42.804;-23.581;-27.157;-25.742
4754200.036;-9.499;-5.737;-63.293;-11.511;-38.072;-25.705;-26.785;-28.796
4754200.044;-5.551;-0.894;-60.871;-4.657;-33.490;-21.793;-21.346;-26.189
4754199.982;-2.272;2.868;-57.518;-1.527;-31.479;-21.048;-19.483;-27.008
4754199.990;3.539;6.594;-49.435;1.714;-21.644;-19.968;-18.924;-24.773
4754199.998;5.960;8.643;-47.088;2.831;-21.234;-18.887;-20.377;-23.469
4754200.006;2.123;3.874;-53.532;0.633;-25.444;-19.372;-20.117;-26.710
4754200.014;-6.035;-5.588;-61.207;-10.207;-34.645;-19.148;-18.179;-26.152
4754200.022;-8.009;-5.998;-61.318;-9.499;-33.826;-14.082;-13.076;-22.613
4754200.030;-5.551;-4.843;-58.562;-8.345;-30.734;-10.766;-12.144;-19.185
4754200.038;-4.731;-3.390;-58.413;-7.898;-31.330;-9.015;-9.835;-18.477
4754200.046;-8.978;-7.860;-61.356;-11.548;-32.112;-13.262;-12.964;-22.538
4754200.054;-14.380;-12.182;-68.024;-15.274;-44.331;-20.452;-20.601;-30.436
4754200.062;-12.591;-10.766;-64.559;-14.752;-37.216;-21.793;-23.507;-29.691
4754200.070;-9.239;-9.276;-58.673;-13.188;-28.498;-20.042;-24.103;-26.226
4754200.078;-2.868;-0.596;-51.968;-3.837;-21.160;-14.976;-19.148;-20.638
4754200.086;-1.937;1.267;-51.633;-2.570;-21.905;-15.348;-18.813;-21.458
4754200.094;-2.086;0.969;-52.303;-4.023;-21.979;-14.901;-17.881;-20.675
4754200.102;-5.625;-3.166;-55.842;-6.855;-25.444;-16.168;-16.876;-24.736
4754200.110;-10.543;-10.133;-60.014;-16.093;-29.542;-17.919;-19.334;-27.940
4754200.118;-9.723;-10.617;-58.375;-17.919;-24.252;-18.440;-20.899;-28.387
4754200.126;-5.737;-5.476;-55.097;-10.803;-18.924;-14.529;-14.268;-24.997
4754200.134;-11.437;-10.617;-61.020;-16.689;-25.928;-15.385;-15.348;-24.773
4754200.142;-13.448;-12.815;-63.367;-17.695;-28.573;-18.217;-18.477;-25.481
4754200.150;-13.523;-13.523;-62.697;-16.019;-28.461;-22.314;-21.830;-27.753
4754200.158;-11.846;-10.729;-62.101;-14.789;-27.530;-19.036;-19.372;-24.922
4754200.166;-8.866;-8.456;-58.487;-14.864;-25.854;-19.372;-25.630;-23.507
4754200.131;-5.364;-2.980;-54.576;-9.313;-23.320;-18.962;-25.369;-22.985
4754200.139;-6.780;-2.831;-56.066;-10.729;-25.444;-18.887;-23.060;-24.326
4754200.147;-9.276;-5.402;-58.711;-16.764;-27.008;-19.893;-24.028;-25.667
4754200.155;-6.966;-1.602;-56.177;-14.901;-27.642;-17.025;-18.328;-23.358
4754200.163;-4.023;2.272;-51.521;-14.231;-21.942;-10.841;-14.156;-15.385
4754200.171;-3.763;5.029;-50.776;-14.044;-22.948;-6.333;-12.517;-9.686
4754200.179;-9.239;2.123;-55.172;-22.352;-29.206;-7.674;-16.838;-11.213
4754200.187;-19.111;-5.774;-65.863;-32.932;-40.047;-17.472;-26.748;-22.352
4754200.195;-16.540;-3.427;-59.903;-33.230;-33.863;-16.764;-23.581;-22.948
4754200.203;-13.635;0.671;-57.109;-31.181;-33.081;-18.030;-24.475;-23.320
4754200.211;-11.139;2.347;-53.830;-31.218;-32.894;-21.458;-26.971;-24.252
4754200.219;-8.270;5.029;-49.621;-28.275;-28.946;-17.993;-21.681;-20.042
4754200.227;-8.307;3.278;-48.690;-30.473;-31.814;-17.621;-20.936;-19.409
4754200.235;-4.284;7.935;-43.660;-26.636;-29.728;-16.801;-20.266;-21.160
4754200.243;-3.278;11.362;-40.643;-18.068;-27.083;-14.454;-19.595;-18.068
4754200.251;0.931;16.466;-34.496;-12.852;-19.073;-11.809;-13.970;-16.466
4754200.259;6.743;23.507;-28.126;-6.706;-15.646;-9.611;-9.201;-11.772
4754200.267;9.462;25.108;-25.928;-6.743;-22.165;-11.139;-9.276;-14.789
4754200.275;7.190;21.905;-25.332;-10.766;-21.048;-13.448;-12.666;-19.632
4754200.283;4.359;17.919;-25.593;-17.099;-24.363;-17.434;-16.727;-22.575
4754200.291;6.370;18.515;-24.065;-16.429;-21.085;-18.813;-19.670;-22.762
4754200.299;10.245;20.973;-19.632;-13.858;-15.870;-12.778;-16.652;-16.876
4754200.307;9.313;18.366;-18.515;-17.397;-15.572;-13.225;-20.601;-16.689
4754200.315;7.302;17.397;-20.675;-19.185;-21.309;-16.503;-23.730;-21.048
4754200.340;0.559;10.729;-26.785;-21.756;-27.567;-22.389;-26.599;-26.412
4754200.348;-0.037;11.884;-27.306;-18.813;-30.249;-23.134;-25.779;-26.375
4754200.356;2.496;14.566;-22.352;-19.073;-24.550;-20.824;-23.432;-23.469
4754200.364;4.247;16.131;-20.415;-17.323;-27.902;-22.203;-23.879;-25.667
4754200.372;12.256;21.942;-9.835;-11.586;-14.119;-19.073;-19.930;-21.383
4754200.380;15.348;24.438;-5.662;-8.009;-10.878;-16.168;-15.162;-20.564
4754200.388;14.305;22.501;-7.600;-8.196;-17.807;-14.119;-10.990;-20.117
4754200.396;15.907;21.160;-3.874;-11.735;-10.729;-13.821;-10.803;-20.266
4754200.404;17.211;23.954;-3.614;-6.817;-14.789;-13.001;-11.139;-18.105
4754200.412;16.019;24.661;-3.390;-3.912;-15.348;-16.764;-16.391;-21.644
4754200.420;10.096;18.217;-8.307;-10.915;-20.191;-22.464;-22.426;-27.604
4754200.428;6.072;12.480;-11.958;-17.472;-21.607;-22.389;-19.446;-28.536
4754200.436;7.413;13.933;-10.021;-14.864;-20.973;-13.299;-9.909;-19.483
4754200.444;9.798;16.503;-7.749;-13.933;-23.842;-10.692;-6.780;-18.105
4754200.452;15.050;21.644;-2.272;-10.468;-18.552;-9.350;-7.302;-17.546
4754200.460;15.199;20.936;-1.416;-9.350;-19.148;-12.852;-13.262;-19.148
4754200.468;7.562;9.239;-6.780;-23.246;-25.742;-24.848;-26.599;-30.957
4754200.476;12.554;18.962;-2.421;-10.915;-15.944;-15.758;-17.844;-21.309
4754200.484;4.470;10.170;-10.654;-16.056;-19.372;-9.164;-13.113;-13.448
4754200.492;-20.191;-19.595;-44.554;-44.890;-48.280;-15.758;-20.787;-18.626
4754200.500;-9.760;-0.931;-44.256;-19.781;-41.351;-7.935;-10.245;-13.411
4754200.508;31.628;37.774;7.302;15.944;-24.810;4.210;5.104;-3.502
4754200.516;43.064;53.458;18.738;55.432;-33.230;3.725;5.700;-5.253
4754200.524;38.520;55.544;6.333;66.347;-42.282;0.186;5.066;-6.706
4754200.550;13.188;45.970;-42.319;59.009;-59.977;-4.843;3.278;-9.872
4754200.558;24.885;38.631;-48.205;85.160;-72.457;-6.631;0.671;-11.548
4754200.566;81.211;82.776;27.716;123.754;-55.283;-2.347;1.937;-7.637
4754200.574;70.892;84.974;23.469;151.768;-55.544;5.513;10.282;-2.012
4754200.582;46.082;77.896;-8.494;165.887;-63.479;6.519;9.201;0.224
4754200.590;28.536;64.597;-26.599;171.550;-74.208;6.109;9.537;-2.384
4754200.598;22.165;41.872;-39.451;160.821;-76.555;4.359;8.568;-3.986
4754200.606;3.204;45.449;-49.658;171.922;-78.827;2.235;5.476;-2.496
4754200.614;17.732;32.485;-10.766;183.098;-69.551;0.708;4.321;-5.588
4754200.622;33.714;30.510;-9.984;188.909;-61.132;5.886;9.574;-1.565
4754200.630;14.454;35.428;-27.455;230.856;-56.252;12.927;13.150;9.276
4754200.638;38.035;78.231;10.766;292.137;-45.933;18.775;16.652;15.907
4754200.646;29.840;64.634;-3.763;294.074;-54.017;16.168;13.076;13.188
4754200.654;24.661;61.505;-10.543;311.770;-53.346;15.497;11.846;11.176
4754200.662;25.071;60.014;-14.715;324.436;-50.329;15.609;13.709;9.201
4754200.670;22.911;59.977;-16.950;335.313;-49.509;13.746;15.944;5.439
4754200.678;19.446;60.461;-19.781;340.007;-49.695;11.846;13.448;4.880
4754200.686;24.848;67.428;-14.193;353.009;-54.576;6.184;11.325;1.639
4754200.694;24.065;65.006;-14.454;353.307;-53.011;16.503;22.016;11.213
4754200.702;28.051;76.294;-16.838;375.509;-52.154;19.222;25.332;13.337
4754200.710;59.679;108.071;10.356;416.860;-40.233;24.401;30.659;15.683
4754200.718;76.145;128.821;19.372;443.161;-48.764;33.192;37.588;23.581
4754200.726;91.568;150.837;25.891;487.007;-51.633;33.863;38.780;25.705
4754200.734;114.180;169.985;42.506;511.296;-44.480;43.511;50.738;31.479
4754200.729;120.513;174.381;44.741;517.964;-45.337;46.007;55.842;32.187
4754200.737;117.309;167.266;39.153;514.388;-57.630;43.474;53.160;31.069
4754200.745;108.890;150.986;30.510;500.157;-70.222;34.608;43.958;26.263
4754200.753;99.018;142.790;23.246;485.443;-74.543;24.624;35.800;18.179
4754200.761;98.646;137.165;27.344;477.545;-61.095;28.759;36.545;23.283
4754200.769;94.771;128.672;22.948;461.712;-66.459;25.108;30.100;18.924
4754200.777;90.599;119.954;21.718;439.361;-67.577;29.057;36.061;19.409
4754200.785;89.705;107.549;20.228;416.040;-60.499;30.808;38.370;20.042
4754200.793;92.201;104.047;18.291;413.284;-55.432;32.671;41.723;24.177
4754200.801;89.556;99.242;12.927;410.229;-55.395;30.249;37.849;24.512
4754200.809;105.947;118.092;43.176;404.045;-40.084;29.765;36.545;24.326
4754200.817;108.741;120.550;43.474;394.098;-37.774;28.424;37.029;23.246
4754200.825;100.508;98.422;37.216;365.563;-38.445;27.716;39.265;26.599
4754200.833;91.717;92.983;32.559;350.960;-42.394;25.928;39.823;27.567
4754200.841;80.653;93.393;23.209;344.738;-49.062;16.987;31.106;20.377
4754200.849;77.412;84.229;21.718;325.255;-44.592;16.429;32.149;20.526
4754200.857;59.642;69.588;18.887;313.781;-44.107;17.583;34.496;21.234
4754200.865;59.791;81.807;18.328;312.999;-45.076;17.658;35.353;20.862
4754200.873;62.771;98.832;27.791;312.701;-35.316;21.569;37.625;22.203
4754200.881;66.385;96.448;32.149;295.900;-28.908;27.418;38.072;26.301
4754200.889;64.112;88.997;27.381;292.026;-30.361;31.479;39.227;30.957
4754200.897;65.528;95.554;26.152;293.255;-25.034;32.224;40.159;33.192
4754200.905;66.794;93.244;32.820;284.165;-19.856;32.149;39.227;33.863
4754200.913;71.004;107.177;37.029;288.077;-20.489;34.161;39.637;33.192
4754200.869;71.898;105.090;41.910;284.165;-17.062;37.998;44.666;34.198
4754200.877;59.828;94.287;32.075;268.444;-23.209;32.634;39.414;32.671
4754200.885;55.991;94.213;23.656;256.225;-25.071;29.504;37.402;30.845
4754200.893;62.659;89.817;35.241;256.412;-19.521;28.349;34.757;30.734
4754200.901;58.413;100.620;25.183;252.612;-24.736;29.169;35.390;32.037
4754200.909;61.542;104.271;32.410;248.663;-19.148;35.092;40.680;36.880
4754200.917;81.472;113.808;47.162;254.437;-10.319;37.998;45.225;40.457
4754200.925;74.655;100.769;41.239;245.534;-11.437;38.631;50.068;40.084
4754200.933;65.006;100.248;33.341;243.857;-13.076;38.259;50.329;37.365
4754200.941;57.369;97.789;29.132;237.487;-23.507;32.336;45.449;33.379
4754200.949;56.364;88.848;26.487;220.351;-27.940;29.132;42.655;29.914
4754200.957;60.759;101.402;32.261;231.527;-18.813;32.336;42.096;34.161
4754200.965;71.451;113.994;42.394;233.427;-12.107;31.106;39.861;32.969
4754200.973;68.098;107.102;44.219;228.398;-14.044;30.063;39.563;31.181
4754200.981;64.000;93.877;50.142;211.000;-15.609;32.596;43.064;33.677
4754200.989;67.726;105.985;52.527;215.136;-10.058;28.014;36.135;30.361
4754200.997;65.342;109.561;48.205;225.045;-11.586;28.573;36.173;30.659
4754201.005;73.798;106.096;50.440;221.692;-12.778;32.745;41.053;33.714
4754201.013;69.961;103.489;46.827;217.445;-12.927;33.006;40.829;35.539
4754201.021;72.457;112.355;44.629;223.070;-5.141;32.932;41.425;39.041
4754201.029;64.857;100.061;49.137;210.553;-12.852;25.891;35.986;29.653
4754201.037;54.650;97.193;38.594;206.083;-9.760;27.753;36.433;31.777
4754201.045;72.308;118.911;60.014;224.859;-0.596;31.888;39.227;36.620
4754201.053;79.796;113.398;68.024;222.921;-4.694;30.026;38.855;36.173
4754201.075;66.794;104.904;41.835;211.745;-10.468;30.398;39.078;36.210
4754201.083;78.194;115.484;61.914;215.583;-3.800;31.814;41.053;35.278
4754201.091;87.917;117.235;78.455;219.382;2.831;30.622;41.239;34.347
4754201.099;81.062;118.762;66.273;215.173;4.135;31.367;42.617;33.602
4754201.107;84.117;115.223;68.508;216.663;4.321;37.104;49.137;39.116
4754201.115;77.300;114.515;68.285;210.218;-0.745;33.192;43.102;35.763
4754201.123;86.352;125.803;74.878;220.425;12.517;37.253;47.348;38.855
4754201.131;87.842;115.782;73.090;213.012;13.784;38.296;48.503;40.717
4754201.139;89.705;127.070;70.669;213.608;12.293;36.582;44.852;38.892
4754201.147;84.974;123.233;70.073;213.869;7.786;36.098;43.400;37.588
4754201.155;89.481;121.482;72.941;205.711;8.829;35.465;42.319;34.869
4754201.163;93.877;130.422;76.331;205.413;12.703;36.508;41.015;39.302
4754201.171;87.060;121.482;70.669;192.560;10.468;38.296;42.953;40.084
4754201.179;86.129;114.441;71.488;184.365;7.264;36.024;40.047;36.284
4754201.187;91.083;121.482;77.300;192.933;13.374;37.551;40.792;35.428
4754201.195;84.341;113.994;72.569;184.365;13.262;39.265;42.394;36.322
4754201.203;83.707;108.443;74.357;180.863;14.715;43.623;46.566;40.010
4754201.211;97.752;133.216;82.143;200.458;23.730;46.231;50.478;40.643
4754201.219;106.394;142.232;90.003;198.595;30.436;45.560;49.770;41.351
4754201.227;102.334;132.769;88.327;195.429;22.501;41.947;46.268;38.631
4754201.235;105.016;125.393;88.252;180.639;27.865;37.849;41.015;35.167
4754201.243;111.088;138.655;95.740;201.948;30.734;42.059;43.660;39.265
4754201.251;100.955;133.403;92.871;190.958;26.673;43.213;43.400;41.910
4754201.259;105.202;131.689;88.960;188.202;30.696;46.864;45.970;46.529
4754201.300;104.606;129.640;86.799;186.451;30.063;46.529;45.300;44.778
4754201.308;95.107;115.521;79.647;177.473;21.309;42.096;43.400;37.365
4754201.316;104.383;126.511;85.123;179.298;28.163;42.506;43.586;38.743
4754201.324;112.318;134.930;94.660;178.143;34.757;41.798;41.611;37.514
4754201.332;114.590;139.400;100.061;190.474;40.568;44.852;45.449;39.972
4754201.340;111.684;130.385;93.281;181.086;31.963;43.511;42.357;38.855
4754201.348;103.079;122.823;79.982;168.979;28.200;43.139;41.015;36.657
4754201.356;96.522;116.415;76.592;170.246;30.771;45.337;44.890;37.551
4754201.364;101.104;133.999;85.980;179.522;35.092;48.950;47.833;40.606
4754201.372;108.704;129.119;95.479;171.475;36.247;45.300;41.947;37.812
4754201.380;101.514;129.864;80.168;170.171;31.665;44.033;40.792;35.390
4754201.388;103.042;120.215;86.874;162.534;32.932;42.617;41.388;35.949
4754201.396;108.294;121.891;90.897;167.787;36.433;40.270;40.159;33.043
4754201.404;110.902;129.566;91.530;169.910;37.700;37.439;37.178;28.349
4754201.412;112.355;142.455;94.399;178.590;41.053;40.382;38.818;32.410
4754201.420;108.853;129.826;88.066;163.391;39.302;38.780;36.843;31.851
4754201.428;100.061;123.680;76.480;159.219;26.077;34.086;31.367;27.604
4754201.436;100.061;112.988;76.033;153.147;30.026;35.353;33.788;27.940
4754201.444;99.726;123.195;74.208;151.321;28.685;34.831;32.596;26.859
4754201.452;110.008;132.062;86.986;155.307;39.302;36.694;35.167;27.120
4754201.460;112.951;136.383;98.534;168.607;48.168;39.451;34.533;31.143
4754201.468;105.351;121.370;83.223;153.184;36.247;42.953;35.577;36.471
4754201.476;97.752;113.808;75.623;143.833;31.255;36.359;30.063;28.238
4754201.484;105.128;118.986;83.707;143.126;36.918;36.247;32.224;27.791
4754201.555;98.087;124.574;72.308;143.647;32.037;38.110;35.688;26.561
4754201.563;104.010;125.580;83.782;154.451;36.322;37.141;34.831;26.040
4754201.571;99.838;119.358;77.561;145.175;35.055;35.129;33.900;28.051
4754201.579;92.462;113.100;75.698;135.116;35.875;38.706;35.278;33.006
4754201.587;99.018;119.023;76.853;142.008;35.428;40.084;36.657;34.496
4754201.595;102.557;131.056;73.723;152.029;35.614;38.669;35.651;31.665
4754201.603;106.990;123.270;82.143;144.579;37.402;40.755;40.084;32.000
4754201.611;100.136;107.363;75.065;131.316;40.531;38.370;35.539;30.734
4754201.619;89.779;107.475;61.132;115.857;29.728;34.720;31.702;28.685
4754201.627;93.579;128.970;67.949;129.864;33.379;31.181;27.046;27.753
4754201.635;92.909;126.287;69.700;129.379;36.284;34.533;28.014;33.565
4754201.643;96.560;117.645;74.022;122.190;34.384;39.823;35.688;35.502
4754201.651;97.901;129.044;73.537;128.001;34.124;40.829;36.508;34.198
4754201.659;100.285;129.752;77.672;125.095;39.302;45.486;41.164;37.737
4754201.667;98.497;125.617;73.239;118.725;31.181;42.319;36.322;33.900
4754201.675;99.242;126.809;72.308;122.003;33.416;41.313;33.975;34.198
4754201.683;92.797;119.694;68.285;108.369;36.210;39.451;31.851;33.043
4754201.691;99.316;135.899;71.898;117.272;35.428;36.396;32.559;33.416
4754201.699;100.285;123.344;78.864;103.153;37.774;40.606;36.955;37.402
4754201.707;100.806;130.422;76.108;112.392;34.869;43.288;39.116;38.221
4754201.715;104.643;144.020;82.403;130.497;42.468;46.380;40.159;40.382
4754201.723;101.700;137.500;84.341;114.553;43.102;47.944;39.972;39.190
4754201.731;107.959;137.985;91.344;106.953;46.864;45.523;38.184;36.545
4754201.739;108.927;141.896;89.519;114.217;47.274;46.082;40.755;37.216
4754201.720;109.151;139.400;89.966;114.478;46.343;46.939;46.156;36.173
4754201.728;107.847;132.918;90.897;105.798;47.274;47.013;46.864;35.651
4754201.736;107.102;138.171;87.507;117.458;53.123;48.205;46.603;35.912
4754201.744;106.283;142.679;87.209;116.266;51.595;47.870;45.039;33.937
4754201.752;124.387;157.170;109.524;124.574;57.220;51.484;46.827;37.923
4754201.760;128.038;140.630;113.510;105.612;60.797;54.128;49.323;41.164
4754201.768;115.111;133.142;101.961;106.692;56.960;49.733;41.611;38.631
4754201.776;107.326;134.632;93.281;102.632;52.154;45.635;34.384;35.539
4754201.784;103.712;126.809;93.170;95.144;50.440;45.151;33.006;35.800
4754201.792;99.391;119.321;92.611;90.562;51.931;42.170;32.410;32.969
4754201.800;104.196;130.646;89.407;102.445;51.185;36.247;28.685;29.020
4754201.808;101.216;116.192;87.433;94.958;44.443;35.614;28.200;28.312
4754201.816;107.139;131.764;97.938;96.858;53.011;42.655;35.800;33.453
4754201.824;108.778;138.655;96.448;104.718;52.266;45.933;37.923;35.167
4754201.832;106.022;136.644;100.024;108.220;54.091;45.598;37.998;34.906
4754201.840;99.577;122.674;90.674;91.977;56.960;42.804;36.508;33.975
4754201.848;103.973;114.515;93.170;79.200;50.515;38.929;33.490;30.994
4754201.856;103.377;118.911;96.485;87.135;48.876;39.414;32.596;28.536
4754201.864;101.998;127.405;98.832;95.367;57.742;43.660;31.628;31.628
4754201.872;102.110;128.821;93.617;93.691;47.609;44.778;34.571;32.932
4754201.880;104.643;126.697;99.204;94.846;51.670;42.878;35.055;29.095
4754201.888;93.393;99.763;85.458;72.531;50.813;44.107;35.204;30.734
4754201.896;100.695;124.946;92.424;89.221;58.562;48.801;41.053;37.216
4754201.904;103.489;124.164;106.320;86.911;59.642;39.302;31.367;28.051
4754201.935;98.385;117.533;97.863;77.225;53.048;39.041;30.920;27.269
4754201.943;94.101;115.894;89.742;84.415;47.162;40.308;32.596;29.430
4754201.951;101.216;112.318;96.262;77.188;56.960;47.460;40.419;34.273
4754201.959;108.331;123.978;105.053;92.722;64.038;48.913;40.792;35.726
4754201.967;94.883;116.825;94.324;76.815;61.840;43.549;35.986;30.659
4754201.975;101.775;119.358;96.038;79.386;51.223;38.110;30.920;24.103
4754201.983;107.661;114.031;101.365;77.300;52.638;35.539;28.349;21.979
4754201.991;101.738;120.513;91.083;82.552;52.154;36.620;28.908;24.810
4754201.999;103.712;120.811;91.307;82.664;56.103;43.064;35.577;30.026
4754202.007;97.081;102.781;89.705;60.461;52.303;44.815;36.322;32.187
4754202.015;83.521;84.154;84.080;53.570;50.329;45.188;36.545;33.081
4754202.023;78.753;108.778;76.965;69.067;48.764;41.313;32.298;30.436
4754202.031;89.668;112.616;76.257;69.663;47.311;37.923;29.281;28.946
4754202.039;87.358;107.475;83.633;69.365;51.819;36.173;27.157;27.791
4754202.047;97.901;105.239;96.373;70.073;58.152;35.986;26.673;29.132
4754202.055;96.820;91.977;93.840;49.137;60.387;39.376;31.479;31.926
4754202.063;89.332;102.222;79.535;68.173;53.570;35.763;26.636;27.828
4754202.071;94.362;111.200;85.644;73.016;55.060;29.132;19.707;19.819
4754202.079;93.877;102.259;87.209;65.900;55.656;30.473;21.830;21.793
4754202.087;87.395;94.548;79.572;50.813;51.558;28.163;20.042;20.452
4754202.095;88.625;101.291;79.013;54.836;55.321;27.344;20.526;22.836
4754202.103;77.784;100.099;68.061;58.450;47.758;25.295;20.377;21.122
4754202.111;90.376;101.440;80.056;67.391;51.595;27.455;21.383;21.793
4754202.119;92.089;97.528;81.174;64.485;51.893;31.814;24.103;26.263
4754202.216;86.129;100.769;72.494;59.940;49.286;33.900;23.320;26.524
4754202.224;78.939;89.742;69.328;50.925;48.541;35.912;24.699;27.418
4754202.232;75.400;88.774;67.204;49.472;46.566;34.124;20.862;27.493
4754202.240;80.988;91.717;69.402;53.383;54.501;38.259;25.965;30.696
4754202.248;86.427;94.064;70.706;58.115;55.842;45.337;32.373;35.688
4754202.256;78.455;81.137;63.293;49.174;43.400;42.878;30.324;29.802
4754202.264;68.843;74.096;53.421;31.106;42.990;36.657;23.060;24.214
4754202.272;67.651;69.998;51.446;29.467;40.159;30.845;18.030;20.005
4754202.280;74.320;89.183;47.982;44.331;41.202;27.902;17.732;17.658
4754202.288;76.666;93.356;56.215;50.254;46.603;30.361;20.117;22.091
4754202.296;74.059;83.372;59.381;46.007;46.641;25.257;8.680;24.177
4754202.304;79.349;82.552;68.322;39.563;52.527;25.891;7.711;27.940
4754202.312;80.317;80.056;66.683;35.614;52.713;25.742;9.760;28.461
4754202.320;69.328;64.857;53.793;19.632;40.308;21.569;6.892;21.495
4754202.328;63.740;59.642;51.521;22.203;43.586;26.636;13.448;26.487
4754202.336;68.732;78.417;54.874;38.296;54.464;30.808;19.744;30.100
4754202.344;82.701;94.324;61.840;45.747;55.023;35.390;26.003;33.006
4754202.352;80.876;80.019;59.605;41.239;54.985;30.547;21.122;28.200
4754202.360;77.523;82.143;59.493;35.241;52.601;27.530;15.907;28.312
4754202.368;73.649;73.090;50.478;25.518;54.315;34.198;19.297;35.390
4754202.376;76.629;79.088;60.983;33.900;58.003;36.620;21.979;36.359
4754202.384;77.561;90.487;65.416;42.431;54.426;33.267;19.521;33.714
4754202.392;67.987;82.180;47.125;27.530;49.174;30.026;16.242;30.026
4754202.400;69.030;79.013;51.893;25.518;57.407;30.771;19.185;29.095
4754202.501;76.629;79.609;63.032;31.143;65.379;34.980;24.810;33.081
4754202.509;71.675;77.747;55.619;26.412;59.716;33.937;24.475;31.888
4754202.517;64.708;81.919;51.334;18.068;54.836;29.914;16.987;27.753
4754202.525;57.593;73.239;42.617;12.219;49.435;29.393;17.770;24.922
4754202.533;61.058;67.800;52.229;8.978;56.475;32.261;22.054;29.206
4754202.541;61.505;67.949;46.156;1.751;57.928;33.341;24.177;30.361
4754202.549;53.272;67.465;37.625;13.113;51.968;34.086;21.458;29.989
4754202.557;70.706;86.129;54.687;21.681;56.215;35.502;21.458;31.926
4754202.565;67.055;75.959;53.011;12.964;54.426;30.547;15.907;29.542
4754202.573;55.321;65.044;38.296;-0.857;49.956;28.424;14.901;28.312
4754202.581;49.584;60.573;36.731;-6.370;48.392;30.324;20.787;27.679
4754202.589;44.592;69.104;37.439;5.104;55.395;33.267;23.618;30.138
4754202.597;69.141;78.455;56.773;10.282;62.510;33.081;24.438;30.771
4754202.605;73.910;73.835;62.771;8.047;59.232;26.450;17.434;23.060
4754202.613;66.347;77.710;55.321;10.431;55.842;24.848;16.987;19.744
4754202.621;67.092;81.584;56.326;16.578;62.361;30.100;21.867;24.922
4754202.629;65.789;75.586;58.301;7.041;66.645;33.863;23.805;30.212
4754202.637;52.936;51.633;47.609;-11.511;60.983;32.187;25.481;26.412
4754202.645;43.660;59.679;40.233;-6.780;55.917;24.326;15.870;20.564
4754202.653;58.785;87.880;55.246;15.125;58.971;18.924;8.494;17.509
4754202.661;63.479;74.692;54.613;6.184;56.773;19.893;10.841;17.546
4754202.669;59.791;64.448;50.180;-0.186;59.195;19.297;11.921;16.131
4754202.677;62.734;73.388;69.514;7.451;71.526;25.257;17.807;19.297
4754202.685;62.659;69.328;66.720;5.476;68.992;28.275;21.420;21.681
4754202.649;59.754;67.092;60.648;0.633;65.006;26.561;20.042;19.222
4754202.657;61.654;66.683;60.759;-0.075;64.634;27.530;18.291;19.856
4754202.665;64.559;67.651;64.671;5.998;68.098;26.524;17.397;19.483
4754202.673;59.567;63.367;60.089;2.272;62.063;25.295;18.105;18.105
4754202.681;55.507;55.209;56.848;-5.849;65.230;24.922;17.695;18.701
4754202.689;57.817;57.518;59.567;-3.241;63.740;24.997;15.609;18.887
4754202.697;57.109;50.738;59.083;-22.426;62.212;26.375;16.652;19.856
4754202.705;58.189;48.131;59.828;-13.672;67.614;26.599;18.403;19.744
4754202.713;62.659;59.977;63.702;-1.341;71.600;27.269;20.824;20.266
4754202.721;56.438;58.562;58.822;-16.354;66.869;22.128;13.299;16.205
4754202.729;58.636;62.138;60.946;-11.288;67.800;20.638;12.070;16.578
4754202.737;58.375;58.413;58.562;-7.600;68.359;20.675;13.262;15.944
4754202.745;52.452;49.807;54.054;-22.091;65.453;15.683;7.264;9.947
4754202.753;55.358;51.819;61.952;-21.011;69.626;18.813;11.027;10.356
4754202.761;57.481;56.736;61.542;-17.658;69.588;18.887;10.841;9.798
4754202.769;58.822;57.444;60.536;-18.366;70.259;17.472;11.623;7.898
4754202.777;59.493;54.501;60.610;-20.303;74.953;16.801;9.723;8.643
4754202.785;51.782;48.876;54.203;-17.434;70.147;16.056;6.817;9.947
4754202.793;52.676;53.048;50.478;-22.426;73.314;14.752;5.998;7.115
4754202.801;46.529;37.216;42.245;-40.196;59.828;11.772;4.508;4.508
4754202.809;51.968;49.025;50.850;-28.946;61.579;13.001;4.731;5.551
4754202.817;55.544;54.203;57.667;-28.089;71.265;16.317;8.009;8.531
4754202.825;53.868;54.613;50.887;-23.879;72.606;16.950;5.923;9.201
4754202.833;57.146;53.346;63.404;-21.420;73.835;17.099;6.109;8.233
4754202.786;58.338;55.581;62.063;-20.191;74.543;17.248;6.966;10.058
4754202.794;47.088;39.786;49.323;-36.284;65.714;12.256;0.373;5.439
4754202.802;38.855;31.777;42.096;-47.199;57.966;8.307;-5.364;3.576
4754202.810;41.127;36.173;40.270;-44.107;61.393;10.617;0.186;7.190
4754202.818;47.013;41.910;41.164;-36.769;66.981;12.740;3.725;8.121
4754202.826;49.397;44.703;50.515;-35.763;75.251;16.615;10.654;8.121
4754202.834;46.007;38.370;42.059;-39.339;63.851;13.299;4.619;4.880
4754202.842;40.978;35.577;36.135;-46.678;63.069;13.933;3.614;5.029
4754202.850;45.635;41.276;40.978;-43.586;68.173;11.474;0.708;1.751
4754202.858;50.515;44.368;44.554;-37.476;78.157;16.801;6.817;7.674
4754202.866;48.168;38.669;44.107;-47.125;81.137;18.775;7.041;11.213
4754202.874;44.145;39.227;37.700;-47.795;63.814;12.144;-0.745;2.421
4754202.882;41.313;37.700;33.006;-42.655;65.751;10.394;-0.931;-1.825
4754202.890;38.184;27.381;27.753;-60.461;67.838;7.376;-2.608;-5.327
4754202.898;39.861;35.018;29.057;-48.429;67.316;9.127;2.868;-4.768
4754202.906;37.886;30.808;29.169;-49.174;67.465;7.153;-0.820;-5.178
4754202.914;34.682;29.728;24.289;-54.613;63.851;7.227;-1.341;-2.012
4754202.922;34.496;29.616;23.767;-49.062;63.442;10.878;4.917;2.161
4754202.930;28.647;22.016;16.652;-64.932;61.318;7.078;-1.006;-1.267
4754202.938;31.628;21.420;15.348;-64.000;63.218;10.431;-1.788;0.931
4754202.946;32.000;20.675;22.575;-63.106;70.967;15.721;6.184;5.960
4754202.954;20.973;19.409;12.554;-69.179;66.981;11.325;1.974;4.694
4754202.962;27.195;33.490;11.846;-52.638;57.146;5.774;-3.129;1.751
4754202.970;24.214;13.188;9.835;-70.110;54.017;0.484;-11.325;-2.757
4754202.950;22.985;22.985;10.766;-67.428;61.207;0.037;-11.325;-6.072
4754202.958;32.298;26.897;18.328;-59.381;68.955;3.763;-5.029;-5.774
4754202.966;28.238;21.122;13.523;-60.014;67.689;3.949;-5.364;-7.264
4754202.974;21.271;2.757;5.215;-78.827;60.350;-0.447;-7.413;-9.276
4754202.982;14.380;7.898;-3.800;-74.841;59.307;-6.668;-15.646;-11.623
4754202.990;13.486;10.207;-0.782;-73.090;58.711;-5.066;-12.033;-9.872
4754202.998;13.113;3.763;-0.075;-78.604;58.748;-2.608;-9.239;-6.780
4754203.006;0.708;-8.084;-16.876;-85.458;49.584;-5.290;-13.411;-10.356
4754203.014;11.772;5.886;-4.992;-73.314;59.791;-3.986;-11.735;-9.872
4754203.022;16.540;9.537;2.794;-77.002;65.863;-4.210;-12.703;-8.829
4754203.030;7.264;3.316;-10.133;-76.927;57.556;-3.465;-11.660;-9.090
