Timestamp,AFz,AF3,AF4,AF7,AF8,Pz,P3,P4,2024-05-08 11:44:04.952,fs=125
4753857.338;-24.736;-38.967;-102.185;60.089;-104.122;-1.006;6.557;-3.241
4753857.346;-21.644;-34.533;-99.577;62.361;-98.571;0.708;10.654;-2.198
4753857.354;-16.987;-29.542;-95.665;66.720;-94.771;2.347;11.399;-2.086
4753857.362;-13.411;-27.902;-89.705;69.253;-89.332;5.029;12.219;0.410
4753857.370;-14.901;-30.957;-88.550;65.155;-88.215;7.786;13.411;3.129
4753857.378;-14.938;-30.659;-88.587;65.528;-88.327;10.617;17.136;6.147
4753857.386;-17.099;-34.422;-90.897;63.479;-91.642;11.511;19.819;6.147
4753857.394;-17.248;-34.496;-90.189;62.324;-90.674;13.448;23.544;6.370
4753857.402;-19.334;-36.135;-91.791;61.430;-91.828;12.517;22.426;2.943
4753857.410;-19.632;-37.029;-90.636;60.536;-89.258;9.462;15.646;-1.602
4753857.418;-12.778;-28.834;-83.819;66.943;-83.745;15.199;20.079;4.172
4753857.426;-8.829;-23.991;-80.913;73.425;-79.796;16.205;23.246;9.090
4753857.434;-11.288;-25.705;-83.111;72.643;-84.154;12.778;19.595;5.811
4753857.442;-15.274;-31.255;-85.421;67.353;-83.521;12.517;18.477;4.955
4753857.450;-12.517;-29.579;-81.770;67.875;-80.466;13.784;20.154;4.992
4753857.458;-7.004;-23.581;-74.953;73.090;-75.363;15.087;19.595;4.321
4753857.466;-6.966;-21.756;-75.325;75.661;-77.859;15.385;16.987;3.278
4753857.474;-18.142;-29.281;-85.607;66.087;-86.091;18.254;20.079;5.625
4753857.482;-5.364;-20.787;-69.588;72.457;-70.073;7.823;11.697;-1.825
4753857.490;9.425;-9.574;-50.180;78.678;-59.940;5.364;7.339;-1.341
4753857.498;35.241;11.474;-18.701;92.722;-37.104;6.109;8.754;0.186
4753857.506;64.410;34.459;14.938;110.939;-8.456;11.213;15.236;4.582
4753857.514;97.938;64.634;52.676;134.222;15.795;18.589;22.538;12.815
4753857.522;126.436;89.817;81.845;152.737;35.651;19.968;22.650;15.162
4753857.547;143.871;105.090;98.869;160.374;47.758;19.632;22.314;15.385
4753857.555;146.739;106.879;102.557;160.486;54.576;22.203;24.848;16.280
4753857.563;137.985;95.367;94.734;150.651;48.988;24.848;28.685;16.876
4753857.571;128.895;85.905;85.905;139.847;40.345;24.661;27.120;15.311
4753857.579;117.347;76.406;74.804;132.211;32.447;19.297;23.358;10.170
4753857.587;109.151;69.439;67.875;126.697;30.734;14.417;16.280;7.488
4753857.595;104.457;64.373;64.634;122.190;29.728;14.342;12.331;8.717
4753857.603;100.099;59.791;60.089;117.347;26.338;16.727;12.629;10.133
4753857.611;100.397;61.654;59.716;119.247;26.375;19.856;15.274;11.101
4753857.619;101.402;62.361;61.728;118.874;32.000;21.346;17.621;11.399
4753857.627;92.499;55.581;52.787;112.876;25.295;20.228;18.030;10.803
4753857.635;81.174;44.219;41.015;101.253;12.964;18.440;17.323;8.494
4753857.643;77.635;41.537;41.127;98.422;11.958;21.309;22.575;10.654
4753857.651;78.008;43.064;40.904;100.173;9.425;19.930;24.289;10.133
4753857.659;81.994;45.672;45.076;101.961;16.205;16.652;22.650;8.680
4753857.667;79.870;43.847;42.953;100.322;14.082;11.623;18.515;4.433
4753857.675;75.288;40.457;39.190;97.267;11.809;10.096;17.807;4.955
4753857.683;77.896;42.468;42.804;99.055;15.311;14.231;21.793;8.941
4753857.691;80.578;44.890;45.933;100.695;20.601;16.801;21.718;10.394
4753857.699;78.231;42.431;44.368;100.359;19.893;15.274;18.105;8.084
4753857.707;79.051;43.549;44.852;101.142;19.968;15.497;16.950;7.525
4753857.715;80.355;45.747;47.460;103.265;20.750;15.534;16.615;6.966
4753857.723;71.973;39.451;37.737;97.193;13.374;15.236;15.646;7.078
4753857.731;54.054;24.810;21.122;81.584;2.310;17.881;17.472;9.015
4753857.728;82.813;48.801;55.917;103.712;28.051;17.881;15.721;10.543
4753857.736;103.004;66.869;72.680;120.737;34.086;21.532;15.385;16.242
4753857.744;118.911;81.733;86.389;134.557;39.749;28.275;22.128;21.867
4753857.752;123.568;83.558;91.381;134.669;43.362;26.524;20.973;20.340
4753857.760;111.200;68.694;81.584;118.241;38.110;17.621;11.362;11.697
4753857.768;105.277;64.932;74.990;115.111;35.577;13.709;8.978;9.239
4753857.776;114.366;75.512;84.788;125.282;43.809;18.254;15.795;12.666
4753857.784;115.111;76.927;85.346;126.958;46.268;15.832;15.497;10.282
4753857.792;108.294;72.382;79.237;122.972;41.313;10.878;11.027;7.711
4753857.800;101.291;65.677;70.035;116.900;30.659;9.276;9.462;5.998
4753857.808;96.709;59.418;65.975;111.759;30.696;8.047;7.786;4.359
4753857.816;89.929;51.558;59.158;103.302;29.020;3.949;2.384;1.416
4753857.824;86.129;46.901;58.860;98.050;27.977;5.960;-0.782;3.651
4753857.832;87.246;48.988;61.244;99.540;28.275;12.815;4.061;9.127
4753857.840;87.172;51.074;61.467;101.253;31.441;16.093;8.419;10.058
4753857.848;82.552;46.529;56.922;98.720;30.808;15.609;10.766;10.580
4753857.856;82.627;48.019;55.023;102.520;30.212;19.893;16.876;14.678
4753857.864;89.370;50.701;63.330;105.128;32.894;21.085;20.005;16.093
4753857.872;86.129;47.199;61.318;99.540;30.957;10.468;9.686;9.499
4753857.880;88.774;51.931;62.883;104.718;31.479;6.929;5.178;7.972
4753857.888;85.048;48.764;58.524;102.520;28.983;4.433;1.527;5.104
4753857.896;81.733;46.380;56.103;98.683;29.504;3.651;0.075;3.763
4753857.904;79.386;46.454;53.681;100.248;22.948;6.557;2.496;5.178
4753857.912;77.784;43.325;51.558;97.342;22.203;6.519;3.316;5.439
4753857.982;77.970;44.331;51.558;95.628;22.389;5.960;4.135;3.614
4753857.990;76.592;42.543;49.584;94.101;22.203;5.141;5.290;3.465
4753857.998;73.239;41.127;46.007;92.275;18.924;3.092;4.694;3.166
4753858.006;64.522;33.192;37.514;85.384;12.331;5.811;5.588;5.625
4753858.014;70.371;38.184;42.766;87.656;18.068;11.288;8.754;11.623
4753858.022;75.921;41.537;50.329;86.464;26.152;13.076;11.101;13.411
4753858.030;81.509;43.623;60.163;89.370;30.734;13.858;13.784;13.225
4753858.038;81.360;41.872;59.940;87.209;31.553;12.219;13.113;10.580
4753858.046;85.719;49.025;62.510;91.828;37.253;13.784;15.087;10.207
4753858.054;86.166;49.733;60.983;92.797;37.178;11.772;13.486;8.419
4753858.062;91.791;54.538;67.092;96.820;39.004;12.703;14.454;9.798
4753858.070;91.009;54.874;66.087;97.789;38.296;14.640;15.795;9.574
4753858.078;89.630;53.532;63.442;97.416;33.751;14.901;14.119;10.207
4753858.086;84.490;48.205;58.599;91.568;31.181;12.890;10.356;9.611
4753858.094;79.013;42.506;52.489;84.825;26.524;8.792;6.407;6.072
4753858.102;77.933;40.419;51.521;81.025;24.661;8.866;6.109;6.631
4753858.110;71.935;35.465;43.772;80.913;18.626;6.668;5.774;4.619
4753858.118;65.155;30.361;38.184;75.996;14.938;1.565;2.012;-0.931
4753858.126;70.520;35.688;48.243;81.398;21.681;10.617;11.250;6.258
4753858.134;72.159;37.476;48.876;82.254;23.581;14.491;15.944;8.643
4753858.142;70.818;37.141;47.646;79.870;22.203;11.846;14.231;5.849
4753858.150;68.285;34.124;43.176;77.263;16.727;6.445;11.846;2.272
4753858.158;65.751;30.957;41.537;75.139;14.007;1.974;8.866;-0.522
4753858.166;62.734;26.152;40.941;68.247;11.884;-2.608;1.676;-3.949
4753858.356;63.367;25.854;40.606;68.396;14.417;-0.335;1.341;-1.602
4753858.364;63.889;27.083;40.717;72.569;10.580;4.359;5.662;2.347
4753858.372;69.514;31.441;46.678;76.965;18.626;9.947;10.692;6.221
4753858.380;70.781;34.347;48.093;79.796;25.034;15.683;17.025;9.798
4753858.388;75.996;40.196;58.375;85.682;31.441;20.713;22.314;15.013
4753858.396;71.749;32.410;51.744;75.065;23.954;13.113;14.752;9.462
4753858.404;66.124;26.971;45.039;73.016;17.956;8.270;12.070;6.966
4753858.412;63.293;24.773;49.770;71.339;17.770;6.407;10.319;5.811
4753858.420;60.052;24.997;44.554;70.520;13.635;0.671;2.049;0.894
4753858.428;66.496;31.628;46.790;79.274;20.824;0.894;0.224;-0.335
4753858.436;69.290;32.447;45.784;83.297;26.859;1.080;2.086;-1.378
4753858.444;62.548;25.034;38.296;75.810;15.460;0.745;2.980;-0.224
4753858.452;58.264;23.320;38.780;71.824;12.219;-1.118;2.570;-3.539
4753858.460;52.601;20.526;32.112;70.035;12.517;0.410;4.619;-2.906
4753858.468;48.280;12.778;25.891;65.640;7.302;5.066;8.196;0.037
4753858.476;53.868;15.311;33.788;75.921;7.972;2.161;5.774;-3.949
4753858.484;45.672;7.898;23.209;63.851;-0.149;5.513;5.923;-0.037
4753858.492;42.990;4.321;16.429;59.493;-9.723;6.780;6.519;2.682
4753858.500;58.115;20.377;26.934;87.768;-1.006;1.118;3.576;-2.533
4753858.508;49.248;25.257;8.792;102.706;-19.260;2.682;6.594;-2.272
4753858.516;34.980;20.117;-21.048;105.277;-47.274;1.192;7.860;-3.241
4753858.524;17.472;5.253;-50.887;107.363;-70.110;4.359;12.442;0.447
4753858.532;-7.451;-17.881;-84.005;97.156;-94.436;-1.676;7.264;-4.359
4753858.540;-20.079;-25.705;-100.993;95.889;-109.524;-6.780;0.075;-10.692
4753858.553;-27.381;-31.702;-109.971;95.218;-120.848;-6.445;-0.373;-9.835
4753858.561;-45.747;-47.237;-131.875;86.054;-136.346;-8.456;-2.123;-10.096
4753858.569;-58.636;-53.793;-146.180;86.203;-153.333;-5.104;2.831;-6.035
4753858.577;-62.920;-57.966;-153.594;85.272;-159.182;-3.353;6.333;-4.210
4753858.585;-78.082;-74.580;-169.538;68.806;-171.661;-11.735;-0.969;-13.635
4753858.593;-75.176;-72.569;-165.030;70.408;-164.695;-10.654;1.490;-11.101
4753858.601;-69.439;-67.577;-160.336;76.555;-159.517;-5.178;4.843;-5.960
4753858.609;-71.786;-70.333;-160.336;70.855;-158.064;-4.992;2.719;-6.594
4753858.617;-78.566;-77.710;-165.701;61.467;-168.867;-12.256;-7.227;-14.938
4753858.625;-81.435;-79.721;-166.148;59.605;-170.805;-14.529;-10.356;-16.876
4753858.633;-77.970;-76.704;-159.480;62.622;-162.572;-13.970;-10.356;-15.162
4753858.641;-79.609;-79.237;-160.709;57.742;-161.156;-18.403;-11.846;-15.907
4753858.649;-86.352;-86.874;-168.197;48.019;-169.761;-25.779;-17.844;-19.670
4753858.657;-95.665;-96.150;-174.642;40.904;-177.994;-34.645;-27.455;-25.555
4753858.665;-94.399;-94.138;-173.338;40.792;-175.685;-29.281;-23.022;-21.607
4753858.673;-86.799;-86.464;-166.185;48.280;-171.959;-10.431;-4.768;-7.227
4753858.681;-79.870;-79.349;-159.256;52.042;-166.595;2.831;8.643;2.831
4753858.689;-71.228;-70.594;-146.776;58.487;-159.070;9.947;14.827;7.302
4753858.697;-67.055;-65.528;-140.145;63.628;-150.576;7.488;12.033;4.061
4753858.705;-62.771;-60.126;-137.575;67.055;-151.061;9.462;14.007;6.072
4753858.713;-59.791;-56.736;-134.371;69.588;-150.762;12.778;15.460;9.649
4753858.721;-61.579;-59.344;-135.303;66.273;-152.066;12.033;15.087;11.213
4753858.729;-65.379;-62.101;-137.389;62.361;-155.903;9.276;9.835;9.164
4753858.737;-66.534;-63.442;-137.687;64.932;-157.841;10.617;9.127;10.580
4753858.763;-70.073;-65.453;-141.524;62.101;-161.491;9.313;8.531;8.903
4753858.771;-68.322;-63.814;-136.606;61.132;-159.927;7.823;8.568;6.482
4753858.779;-65.379;-62.436;-130.348;61.244;-153.184;5.849;8.196;7.078
4753858.787;-66.571;-64.336;-130.348;57.071;-152.141;3.688;6.072;6.184
4753858.795;-64.112;-60.871;-129.268;57.518;-151.023;4.284;9.388;6.557
4753858.803;-59.977;-54.166;-125.319;65.938;-148.267;7.711;12.591;8.643
4753858.811;-53.942;-48.243;-120.439;71.786;-143.573;9.798;12.480;9.388
4753858.819;-53.123;-48.056;-114.739;70.818;-143.982;8.121;9.798;7.637
4753858.827;-52.936;-48.801;-113.659;69.290;-140.630;7.637;9.798;5.849
4753858.835;-47.162;-45.598;-107.028;71.116;-134.520;8.009;11.213;3.614
4753858.843;-46.492;-42.394;-106.916;75.735;-132.248;10.245;11.474;6.445
4753858.851;-46.119;-39.227;-104.047;79.721;-131.987;8.456;8.084;4.172
4753858.859;-43.176;-39.116;-105.314;79.758;-134.297;10.654;10.394;5.625
4753858.867;-40.233;-33.826;-98.497;84.415;-126.325;14.715;14.603;8.829
4753858.875;-38.967;-29.989;-96.597;87.470;-124.089;18.924;19.409;11.660
4753858.883;-39.749;-32.634;-96.262;83.596;-123.531;20.191;20.638;13.039
4753858.891;-36.322;-30.212;-93.058;87.023;-119.880;19.222;20.228;11.101
4753858.899;-26.822;-22.762;-82.515;94.511;-108.927;21.122;21.495;13.039
4753858.907;-22.389;-15.609;-76.853;100.248;-104.532;25.444;24.065;15.534
4753858.915;-27.455;-18.701;-83.484;97.267;-110.008;26.822;24.885;15.870
4753858.923;-32.894;-26.189;-87.805;89.779;-112.951;25.630;25.593;16.317
4753858.931;-45.709;-38.594;-97.752;76.965;-121.370;18.664;19.819;11.325
4753858.939;-47.758;-40.308;-98.348;77.859;-125.319;16.056;18.440;9.276
4753858.947;-42.133;-34.906;-90.525;82.850;-114.329;18.664;20.713;12.517
4753858.926;-41.500;-36.024;-88.513;79.684;-110.716;13.225;13.821;8.605
4753858.934;-39.488;-32.336;-83.521;83.447;-109.673;14.342;13.560;8.382
4753858.942;-31.516;-25.928;-75.139;90.189;-100.993;17.248;17.546;10.543
4753858.950;-23.656;-17.434;-68.173;97.752;-93.542;14.827;18.552;7.674
4753858.958;-23.060;-14.603;-67.949;99.204;-91.940;16.578;20.526;7.488
4753858.966;-27.567;-19.968;-69.216;93.989;-92.983;13.895;16.242;7.190
4753858.974;-29.765;-22.538;-70.445;92.201;-96.560;11.064;11.884;8.307
4753858.982;-28.983;-20.936;-69.812;94.324;-93.281;11.958;13.895;9.388
4753858.990;-37.588;-29.244;-77.300;85.346;-100.136;8.270;10.990;5.439
4753858.998;-43.027;-33.379;-80.876;81.547;-103.638;8.717;12.293;4.508
4753859.006;-35.763;-26.748;-73.276;88.438;-94.585;15.683;18.775;11.027
4753859.014;-30.883;-21.271;-66.906;95.442;-84.974;17.658;18.366;14.193
4753859.022;-33.528;-22.464;-71.712;92.946;-93.393;12.703;14.007;10.021
4753859.030;-37.327;-25.332;-76.219;88.662;-94.250;8.047;13.784;5.588
4753859.038;-36.769;-25.891;-76.927;89.183;-95.032;6.482;11.399;4.396
4753859.046;-39.637;-30.845;-80.802;82.925;-96.671;2.943;6.706;2.496
4753859.054;-41.984;-33.565;-84.452;81.323;-99.316;3.017;7.190;3.241
4753859.062;-35.055;-26.561;-77.225;87.321;-91.419;10.207;15.423;11.846
4753859.070;-31.926;-21.867;-70.892;88.215;-85.644;6.445;12.293;9.425
4753859.078;-24.848;-13.411;-64.299;96.411;-79.200;7.153;12.591;10.468
4753859.086;-25.667;-15.423;-65.826;94.324;-82.031;6.482;11.511;9.090
4753859.094;-27.642;-19.409;-67.987;90.040;-84.080;5.439;11.660;7.749
4753859.102;-30.212;-23.209;-69.290;85.048;-84.452;5.066;11.213;5.774
4753859.110;-35.167;-28.275;-74.357;78.939;-87.097;0.708;8.531;0.335
4753859.152;-37.774;-29.616;-74.916;75.623;-85.346;-2.608;5.774;-3.278
4753859.160;-40.308;-34.496;-77.710;72.010;-85.197;-4.843;3.800;-4.135
4753859.168;-44.145;-40.494;-80.131;64.895;-89.817;-7.339;1.900;-6.221
4753859.176;-50.776;-42.394;-88.215;61.318;-99.577;-1.974;9.127;-2.049
4753859.184;-48.131;-45.002;-82.217;57.891;-91.717;3.017;11.399;1.043
4753859.192;-2.384;-6.147;-33.751;90.376;-47.795;10.729;16.056;7.860
4753859.200;30.175;19.744;5.141;104.904;-15.087;17.509;19.968;14.789
4753859.208;66.459;47.199;48.392;121.780;18.813;11.660;14.715;11.139
4753859.216;106.245;78.641;92.573;141.487;50.776;9.350;13.895;8.270
4753859.224;132.583;97.379;123.978;153.966;67.800;10.617;13.374;10.617
4753859.232;148.751;111.833;145.696;160.225;82.850;7.227;7.525;8.456
4753859.240;164.248;125.617;157.319;173.226;91.605;5.066;5.402;5.849
4753859.248;168.085;129.491;161.454;175.573;95.405;4.508;6.855;4.135
4753859.256;171.326;134.036;168.271;181.124;101.589;15.758;18.291;14.193
4753859.264;154.488;118.092;148.714;164.956;92.499;16.391;16.615;15.348
4753859.272;143.088;107.698;139.847;153.594;88.327;16.168;16.876;15.162
4753859.280;139.810;104.569;135.414;150.204;88.774;19.893;21.122;16.131
4753859.288;136.681;97.901;128.150;144.094;87.209;18.962;15.050;16.429
4753859.296;123.270;85.942;117.719;131.726;80.988;16.801;11.064;16.056
4753859.304;110.455;72.271;106.283;119.172;68.881;14.901;7.339;13.784
4753859.312;100.061;61.691;97.938;110.269;59.903;15.646;7.376;11.399
4753859.320;93.654;55.097;92.648;103.973;58.152;12.964;5.327;7.637
4753859.328;92.797;55.581;90.003;103.936;58.152;11.511;2.868;8.084
4753859.336;101.738;65.304;98.050;113.882;68.285;19.707;15.572;16.764
4753859.331;98.124;63.702;97.528;110.865;69.700;19.558;20.042;16.540
4753859.339;97.044;61.169;97.156;106.432;62.995;15.050;16.093;12.368
4753859.347;93.356;56.252;92.983;103.265;58.524;5.960;6.519;3.166
4753859.355;94.101;61.058;94.883;107.437;62.995;6.035;7.786;3.576
4753859.363;103.340;67.912;99.130;113.621;68.881;15.236;18.291;12.666
4753859.371;101.812;66.683;95.926;113.063;66.198;13.411;19.595;12.219
4753859.379;95.516;61.020;90.972;106.618;63.814;9.537;17.025;7.227
4753859.387;91.754;57.034;90.860;102.893;60.759;13.150;13.933;10.766
4753859.395;86.166;54.762;82.590;100.732;58.115;15.758;13.858;12.852
4753859.403;73.351;41.835;71.824;90.227;49.584;13.299;10.394;9.201
4753859.411;78.157;42.655;77.374;91.866;51.595;16.354;12.964;12.107
4753859.419;105.351;68.396;104.606;114.888;75.400;20.601;16.801;16.280
4753859.427;103.228;67.130;103.377;112.392;68.024;17.546;13.001;12.778
4753859.435;95.218;58.860;93.691;105.388;61.095;11.064;7.041;5.327
4753859.443;82.329;49.248;79.870;96.969;51.409;7.376;3.874;0.224
4753859.451;85.086;53.756;81.174;102.893;52.527;13.001;8.456;6.035
4753859.459;90.525;60.238;85.086;109.933;55.619;13.448;7.860;9.723
4753859.467;85.793;55.432;80.205;105.388;54.426;8.643;6.892;7.898
4753859.475;76.033;45.337;70.482;95.330;47.125;2.570;0.149;5.588
4753859.483;68.508;39.935;64.187;91.195;38.743;-0.410;-5.066;1.378
4753859.491;75.772;48.093;69.328;98.310;44.666;5.402;0.894;3.725
4753859.499;79.162;51.558;75.735;99.987;50.105;9.723;3.949;6.184
4753859.507;84.825;53.942;79.796;103.638;51.148;15.348;9.090;11.809
4753859.515;80.578;51.707;72.457;103.451;48.652;12.293;5.662;10.580
4753859.511;79.274;50.105;72.531;101.626;52.303;9.537;4.135;11.250
4753859.519;69.998;40.755;64.820;91.791;44.331;1.714;0.782;6.035
4753859.527;62.361;35.800;58.711;85.980;35.875;-6.482;-4.098;-2.421
4753859.535;60.685;35.465;56.475;87.209;36.657;-5.811;-2.682;-3.241
4753859.543;64.857;37.886;62.510;90.785;41.127;-2.086;0.857;-1.118
4753859.551;65.789;37.849;61.244;91.456;38.259;-0.522;3.502;-0.969
4753859.559;64.261;38.669;56.885;91.940;35.986;-0.969;5.960;-2.757
4753859.567;63.702;39.972;60.610;91.866;37.029;-2.719;3.502;-4.284
4753859.575;61.691;39.488;57.407;92.164;35.539;-0.820;3.055;-3.017
4753859.583;63.591;39.041;56.587;93.244;30.808;-2.272;1.304;-2.682
4753859.591;59.307;34.682;52.899;90.487;30.324;-3.278;1.788;-1.937
4753859.599;55.693;34.049;48.354;92.834;27.046;-4.955;1.043;-2.272
4753859.607;59.828;38.333;56.252;94.026;28.908;-3.651;0.931;-2.161
4753859.615;68.694;48.019;63.479;106.134;36.098;3.614;6.780;3.576
4753859.623;74.208;55.134;66.794;116.043;42.394;14.603;19.148;11.735
4753859.631;66.161;47.423;63.032;107.773;40.904;11.027;13.076;8.009
4753859.639;57.779;38.818;50.664;101.589;23.581;0.000;4.210;-2.347
4753859.647;60.722;40.904;54.725;104.345;26.152;0.820;6.631;-2.272
4753859.655;57.407;38.520;53.160;102.110;25.854;0.969;6.072;-1.378
4753859.663;54.389;35.278;49.584;99.391;24.140;0.261;3.912;-0.224
4753859.671;51.782;34.906;43.884;97.416;18.217;0.671;4.247;-1.825
4753859.679;51.633;37.886;44.182;101.104;21.681;0.782;9.201;-1.937
4753859.687;49.546;37.849;42.357;102.967;15.572;-2.831;1.825;-2.719
4753859.695;48.354;34.645;38.780;100.620;12.778;-1.639;1.341;-1.825
4753859.705;51.334;38.780;42.543;102.818;19.148;3.166;8.531;2.012
4753859.713;60.610;46.976;51.819;112.690;22.128;7.637;14.529;6.631
4753859.721;58.338;44.033;51.334;109.226;15.087;4.582;12.331;3.241
4753859.729;54.501;42.915;47.758;104.792;15.832;4.396;11.139;1.714
4753859.737;45.337;34.980;37.029;99.279;8.978;1.676;6.109;-0.298
4753859.745;43.474;33.230;36.173;96.895;6.147;2.943;5.588;3.763
4753859.753;50.887;41.500;44.703;103.712;16.615;14.789;17.472;16.019
4753859.761;42.357;34.012;35.167;94.064;3.055;7.264;10.282;10.580
4753859.769;33.267;23.730;26.487;86.166;-2.012;-1.900;4.172;3.204
4753859.777;27.753;19.781;16.280;82.403;-7.562;-6.743;0.298;-1.118
4753859.785;29.095;23.134;18.664;83.223;-7.525;-7.786;-2.831;-2.310
4753859.793;32.522;25.779;28.089;86.054;-3.353;-6.482;-1.639;-3.129
4753859.801;38.110;33.118;32.075;93.021;0.894;-4.992;1.006;-1.304
4753859.809;42.096;38.929;36.731;100.061;8.494;-2.645;4.433;-0.298
4753859.817;40.345;37.998;32.485;99.093;1.751;-0.484;7.041;2.198
4753859.825;35.875;36.210;27.940;95.144;-3.614;-4.359;5.104;-0.782
4753859.833;33.639;37.402;26.897;92.983;-2.831;-8.866;-0.335;-2.645
4753859.841;32.298;32.783;26.859;87.023;-7.562;-11.809;-3.949;-3.912
4753859.849;31.777;35.651;24.848;90.525;-6.109;-8.494;1.788;-1.602
4753859.857;34.347;39.898;24.736;91.083;-6.296;-5.364;3.017;1.565
4753859.865;40.978;48.131;31.814;97.267;3.725;-4.582;4.619;2.608
4753859.873;41.947;51.521;33.863;99.242;6.817;-4.247;4.470;2.161
4753859.881;40.568;50.850;35.092;96.001;3.651;-7.376;0.186;-1.974
4753859.889;33.863;46.082;26.487;92.760;-8.456;-7.525;-0.298;-0.745
4753859.871;29.653;41.835;25.965;88.178;-6.557;-8.717;-0.037;-1.341
4753859.879;26.450;39.302;20.489;83.521;-15.758;-10.580;-2.421;-3.092
4753859.887;26.710;40.755;19.334;85.086;-14.007;-9.388;-0.596;-2.347
4753859.895;26.636;39.823;18.701;84.788;-11.325;-12.331;-1.788;-4.210
4753859.903;28.126;37.998;22.091;81.062;-14.007;-17.732;-4.694;-11.399
4753859.911;29.951;38.669;23.916;79.721;-5.551;-15.348;-1.043;-9.835
4753859.919;26.412;36.620;18.775;77.896;-14.491;-13.523;0.149;-7.525
4753859.927;25.630;35.465;17.658;73.574;-13.299;-8.605;3.055;-2.496
4753859.935;18.068;27.977;10.505;64.299;-21.122;-12.815;-2.012;-3.986
4753859.943;11.697;19.036;4.359;57.332;-25.369;-13.560;-5.737;-2.347
4753859.951;8.978;14.417;-2.421;52.340;-30.771;-13.895;-6.072;-2.459
4753859.959;19.521;24.326;7.190;61.989;-18.962;-15.162;-1.527;-7.078
4753859.967;30.957;36.880;18.217;73.835;-11.399;-11.548;2.496;-5.811
4753859.975;29.169;35.949;18.366;73.388;-14.193;-9.015;1.639;-2.086
4753859.983;31.069;34.347;18.068;72.159;-16.391;-7.413;2.272;0.224
4753859.991;32.485;35.502;17.397;70.930;-12.740;-6.296;1.639;2.496
4753859.999;26.748;29.393;11.623;62.585;-14.566;-10.841;-0.708;-1.863
4753860.007;19.297;22.501;6.668;56.289;-18.515;-11.586;1.304;-3.129
4753860.015;11.846;14.678;1.229;52.750;-29.951;-16.727;-1.565;-8.978
4753860.023;14.901;17.658;4.508;53.309;-28.647;-18.589;-4.247;-9.313
4753860.031;16.317;18.552;4.098;51.223;-27.493;-22.240;-10.394;-11.660
4753860.039;22.948;23.544;7.898;55.768;-16.391;-21.793;-11.027;-11.064
4753860.047;23.209;24.848;10.952;59.716;-18.775;-17.062;-5.588;-7.860
4753860.055;21.681;20.564;9.649;54.389;-23.171;-12.740;-2.235;-5.029
4753860.128;24.885;25.369;9.499;58.897;-23.246;-8.307;2.459;-2.794
4753860.136;27.530;29.765;11.735;64.857;-15.050;-0.671;8.829;4.098
4753860.144;28.536;30.138;12.666;63.330;-13.113;1.043;10.356;7.115
4753860.152;20.079;20.526;6.035;56.252;-26.263;-10.096;-1.937;-1.118
4753860.160;11.027;11.474;-3.837;48.280;-28.200;-17.285;-11.846;-7.153
4753860.168;8.382;10.319;-7.562;45.262;-29.095;-15.460;-12.703;-6.407
4753860.176;5.513;3.986;-10.431;40.047;-31.814;-16.093;-12.964;-6.966
4753860.184;4.806;2.347;-10.803;36.918;-29.802;-17.881;-14.231;-7.600
4753860.192;7.004;6.594;-8.084;39.414;-37.290;-19.819;-15.311;-9.015
4753860.200;4.768;5.811;-13.188;40.345;-38.370;-24.252;-20.377;-13.150
4753860.208;7.637;7.972;-9.872;42.431;-29.653;-22.501;-21.160;-12.554
4753860.216;14.827;16.019;-2.906;48.652;-25.183;-14.901;-12.554;-5.774
4753860.224;24.140;24.810;6.519;55.172;-11.288;-10.021;-3.949;-2.868
4753860.232;23.954;23.358;6.407;54.948;-16.615;-8.941;-1.006;-4.880
4753860.240;18.291;19.185;2.757;51.148;-16.801;-13.746;-3.465;-8.605
4753860.248;6.370;6.631;-6.482;38.669;-25.481;-23.805;-14.268;-14.938
4753860.256;1.788;2.980;-16.056;33.379;-37.029;-31.032;-23.320;-17.621
4753860.264;0.857;4.023;-20.154;34.608;-35.614;-30.436;-19.819;-18.515
4753860.272;6.072;8.047;-13.709;39.674;-29.951;-28.424;-19.297;-17.881
4753860.280;8.270;9.574;-12.256;41.127;-28.796;-25.220;-16.354;-14.976
4753860.288;7.004;8.009;-15.162;41.611;-22.687;-22.277;-10.133;-15.646
4753860.296;15.460;16.503;-5.253;51.111;-13.746;-15.609;-2.459;-11.772
4753860.304;12.629;14.231;-14.044;48.950;-19.185;-19.148;-4.843;-14.938
4753860.312;13.374;13.039;-14.491;45.076;-16.727;-21.346;-7.190;-15.683
4753860.381;15.907;14.119;-10.729;44.368;-7.525;-22.575;-10.431;-14.640
4753860.389;9.499;7.860;-17.732;42.915;-10.319;-28.089;-17.323;-19.409
4753860.397;-0.410;0.149;-30.026;36.471;-16.578;-35.763;-21.495;-27.493
4753860.405;-0.335;-1.788;-27.157;33.267;-4.359;-38.482;-21.309;-30.361
4753860.413;0.261;-0.075;-26.710;34.459;-2.123;-35.688;-19.073;-26.487
4753860.421;0.820;0.373;-27.418;34.869;2.757;-38.482;-22.762;-27.530
4753860.429;-1.453;-3.278;-32.969;30.622;-0.596;-37.402;-21.979;-24.922
4753860.437;1.937;-2.235;-29.467;35.092;8.717;-32.559;-15.646;-19.893
4753860.445;4.843;0.931;-27.232;38.557;17.807;-30.547;-14.752;-16.391
4753860.453;8.717;5.178;-25.295;44.219;18.366;-30.883;-13.933;-19.409
4753860.461;10.766;5.029;-21.122;41.164;25.146;-27.679;-10.096;-18.962
4753860.469;9.164;6.482;-22.128;41.425;19.632;-28.312;-11.213;-18.887
4753860.477;3.241;3.316;-29.244;38.408;14.752;-30.696;-15.199;-21.160
4753860.485;3.092;-0.559;-32.447;36.992;12.219;-30.883;-15.609;-22.054
4753860.493;8.307;2.980;-23.171;38.557;20.601;-27.008;-14.007;-18.068
4753860.501;9.835;5.104;-24.252;41.276;23.358;-25.593;-14.082;-16.205
4753860.509;7.227;2.608;-26.971;38.445;7.786;-25.928;-14.007;-17.248
4753860.517;7.264;-1.043;-27.791;32.708;11.437;-25.854;-11.995;-17.770
4753860.525;11.511;2.757;-23.842;40.159;18.142;-25.332;-9.015;-18.254
4753860.533;11.474;6.072;-21.495;46.976;21.011;-26.748;-9.276;-20.303
4753860.541;11.250;7.190;-19.111;46.901;19.036;-22.501;-7.451;-15.758
4753860.549;-2.310;-4.657;-33.714;34.496;4.880;-22.687;-9.201;-15.236
4753860.557;-17.844;-22.054;-43.474;14.938;-4.843;-24.103;-12.591;-14.268
4753860.565;-5.066;-14.454;-21.867;17.956;10.692;-29.765;-19.558;-17.509
4753860.517;-3.241;-15.199;-11.921;12.740;34.086;-34.422;-24.065;-22.613
4753860.525;-6.221;-22.613;-8.494;1.565;43.847;-35.539;-23.656;-24.252
4753860.533;-15.050;-30.249;-3.539;-11.921;48.541;-38.520;-27.791;-27.865
4753860.541;-3.576;-22.203;13.411;-11.399;60.573;-37.551;-30.249;-26.412
4753860.549;19.036;-0.186;43.623;10.878;81.137;-35.129;-32.373;-23.022
4753860.557;43.474;25.816;70.147;35.800;89.519;-38.296;-33.192;-25.518
4753860.565;76.815;62.734;102.632;73.090;102.594;-37.551;-31.851;-25.406
4753860.573;115.708;106.506;144.467;117.198;126.362;-31.181;-26.077;-21.495
4753860.581;134.781;124.723;168.532;133.328;138.357;-31.143;-25.146;-22.762
4753860.589;137.798;124.872;173.636;133.030;137.351;-28.051;-17.844;-21.756
4753860.597;142.269;129.379;179.559;135.712;141.934;-21.793;-12.144;-16.056
4753860.605;128.448;114.217;166.818;120.290;127.889;-22.091;-16.354;-16.987
4753860.613;105.575;90.525;144.504;94.809;109.859;-20.415;-21.234;-16.838
4753860.621;84.750;71.526;120.588;77.188;92.089;-18.179;-20.787;-17.844
4753860.629;74.059;64.671;108.704;71.377;82.478;-18.552;-19.595;-18.440
4753860.637;58.189;46.864;93.356;52.527;73.314;-18.403;-21.644;-16.764
4753860.645;40.531;26.301;74.059;31.702;58.338;-19.781;-23.246;-16.242
4753860.653;27.344;10.319;64.634;13.746;52.042;-25.742;-26.450;-20.005
4753860.661;20.936;3.092;57.817;6.668;50.031;-21.458;-17.993;-15.572
4753860.669;7.562;-9.872;43.511;-5.290;41.202;-23.097;-17.770;-17.919
4753860.677;-12.107;-30.063;25.183;-26.599;27.232;-32.485;-28.461;-25.630
4753860.685;-26.934;-45.449;11.139;-41.388;17.881;-39.302;-36.806;-30.883
4753860.693;-33.751;-52.564;6.333;-48.876;17.136;-37.290;-39.302;-24.475
4753860.701;-32.932;-50.254;8.717;-47.199;19.521;-30.175;-34.757;-16.876
4753860.680;-43.996;-58.822;-3.688;-56.550;14.715;-34.086;-40.680;-22.464
4753860.688;-52.266;-65.602;-11.921;-63.293;3.837;-37.998;-43.102;-25.742
4753860.696;-57.928;-73.425;-15.981;-72.271;-0.969;-39.451;-43.884;-28.946
4753860.704;-54.352;-69.849;-12.480;-69.700;8.866;-36.173;-38.743;-27.642
4753860.712;-55.879;-71.004;-14.566;-69.961;9.388;-38.818;-38.147;-29.765
4753860.720;-61.616;-75.735;-18.403;-74.916;9.388;-43.511;-40.643;-33.639
4753860.728;-61.579;-74.171;-18.552;-70.632;4.694;-37.812;-33.714;-29.132
4753860.736;-63.218;-76.741;-20.675;-72.680;7.004;-36.396;-32.224;-27.902
4753860.744;-65.938;-78.790;-20.750;-76.592;9.350;-35.651;-35.837;-26.375
4753860.752;-63.702;-77.188;-18.626;-76.517;12.815;-32.820;-34.720;-22.687
4753860.760;-64.187;-77.300;-22.687;-74.133;4.955;-29.877;-30.771;-20.117
4753860.768;-66.534;-76.443;-23.432;-75.102;5.215;-30.287;-30.510;-20.415
4753860.776;-67.838;-78.455;-23.767;-76.033;4.247;-32.373;-32.634;-21.718
4753860.784;-72.494;-82.254;-29.318;-81.211;6.370;-32.373;-34.198;-21.085
4753860.792;-75.959;-86.352;-34.608;-85.793;-4.135;-32.522;-32.596;-21.346
4753860.800;-80.466;-90.823;-40.829;-92.201;-8.345;-34.608;-33.900;-24.103
4753860.808;-81.882;-90.413;-44.405;-91.307;-8.196;-29.467;-29.169;-19.297
4753860.816;-85.086;-93.319;-47.460;-94.138;-6.370;-31.441;-30.734;-20.824
4753860.824;-86.240;-93.654;-49.472;-94.883;-9.127;-32.224;-33.453;-21.048
4753860.832;-84.266;-92.462;-47.572;-94.958;-10.058;-30.883;-33.788;-19.073
4753860.840;-89.332;-97.640;-54.426;-100.657;-15.981;-34.571;-38.035;-21.234
4753860.848;-86.911;-97.118;-48.988;-102.073;-9.909;-33.639;-36.918;-20.452
4753860.856;-81.919;-92.462;-45.672;-97.677;-4.470;-31.963;-34.794;-19.819
4753860.864;-82.999;-93.542;-47.609;-98.869;-5.774;-34.831;-36.694;-21.569
4753860.875;-86.688;-96.932;-52.005;-101.253;-11.362;-40.866;-41.313;-26.822
4753860.883;-88.289;-95.963;-54.389;-99.912;-14.156;-42.468;-40.382;-28.312
4753860.891;-88.438;-97.714;-53.085;-103.563;-12.591;-43.437;-41.425;-28.275
4753860.899;-87.693;-100.099;-50.440;-102.520;-14.007;-43.921;-43.511;-27.195
4753860.907;-88.364;-100.508;-54.799;-101.067;-14.566;-45.337;-44.145;-28.759
4753860.915;-90.785;-102.744;-55.097;-107.326;-12.070;-48.168;-46.752;-31.218
4753860.923;-89.630;-101.924;-54.464;-106.506;-16.056;-45.635;-45.300;-27.828
4753860.931;-92.573;-105.612;-58.711;-109.859;-18.924;-46.045;-45.858;-27.567
4753860.939;-93.393;-106.692;-55.544;-112.057;-14.640;-43.102;-43.064;-24.475
4753860.947;-97.491;-108.853;-58.636;-113.063;-20.303;-41.835;-43.660;-26.450
4753860.955;-96.336;-109.896;-58.226;-112.504;-21.420;-38.520;-40.792;-24.736
4753860.963;-92.424;-106.543;-54.725;-107.847;-13.858;-36.284;-37.849;-23.581
4753860.971;-92.462;-106.245;-55.917;-110.082;-13.746;-36.992;-39.190;-23.097
4753860.979;-87.321;-101.924;-52.601;-104.830;-10.543;-39.563;-41.835;-24.736
4753860.987;-84.937;-99.726;-49.770;-102.557;-9.462;-41.910;-43.064;-26.599
4753860.995;-83.074;-98.422;-46.194;-102.296;-7.115;-48.019;-50.217;-31.814
4753861.003;-80.764;-94.734;-43.288;-100.881;-3.278;-49.882;-49.882;-34.757
4753861.011;-76.704;-90.785;-38.408;-94.995;-0.969;-44.294;-40.755;-32.485
4753861.019;-79.498;-94.697;-40.270;-99.540;-3.800;-42.804;-40.419;-32.447
4753861.027;-82.590;-97.305;-43.772;-102.930;-5.364;-46.156;-44.666;-35.726
4753861.035;-82.329;-100.322;-44.927;-104.643;-3.688;-45.151;-44.294;-35.726
4753861.043;-83.745;-100.657;-47.013;-106.469;-10.729;-41.500;-41.500;-32.485
4753861.051;-86.650;-101.738;-48.727;-107.549;-14.640;-44.368;-44.256;-35.129
4753861.059;-88.811;-103.973;-51.111;-108.480;-13.299;-45.672;-46.492;-37.961
4753861.057;-92.462;-109.412;-51.782;-115.149;-6.072;-47.274;-50.329;-39.078
4753861.065;-90.376;-109.039;-48.466;-115.819;-10.990;-46.976;-53.085;-36.955
4753861.073;-86.874;-103.861;-46.305;-111.163;-8.307;-44.294;-48.615;-36.024
4753861.081;-82.478;-99.577;-41.761;-105.761;-0.596;-37.774;-42.506;-29.132
4753861.089;-79.833;-93.058;-39.190;-98.459;1.937;-34.608;-38.557;-24.848
4753861.097;-83.447;-97.379;-44.517;-105.016;-3.912;-37.178;-42.580;-27.344
4753861.105;-87.991;-102.073;-49.733;-109.598;-10.096;-40.904;-46.007;-30.883
4753861.113;-85.495;-98.944;-45.672;-106.394;-8.531;-40.829;-44.443;-32.037
4753861.121;-73.202;-85.756;-33.304;-93.989;7.041;-34.757;-37.029;-26.859
4753861.129;-72.494;-83.335;-33.975;-91.381;7.376;-35.316;-36.769;-29.281
4753861.137;-70.557;-80.690;-34.980;-92.760;2.198;-34.459;-36.657;-29.691
4753861.145;-68.992;-79.945;-30.063;-88.997;7.786;-37.961;-41.388;-32.932
4753861.153;-66.981;-79.945;-24.587;-87.284;10.207;-40.978;-45.523;-35.241
4753861.161;-58.003;-72.122;-15.385;-78.976;19.856;-35.241;-40.457;-28.536
4753861.169;-44.741;-56.885;-3.390;-59.456;29.132;-28.349;-34.086;-21.346
4753861.177;-29.095;-38.035;10.096;-42.580;29.504;-28.126;-35.428;-21.495
4753861.185;1.229;-3.316;40.755;-9.984;44.219;-31.106;-39.227;-25.667
4753861.193;48.466;53.905;87.880;52.750;75.065;-29.840;-36.433;-24.885
4753861.201;111.721;124.052;146.814;121.333;110.157;-19.297;-26.748;-15.199
4753861.209;179.373;193.343;211.075;191.778;137.500;-16.280;-24.922;-13.858
4753861.217;225.529;237.897;254.586;237.897;148.378;-13.635;-20.526;-11.101
4753861.225;268.072;272.319;297.353;274.479;171.661;-10.431;-13.486;-9.984
4753861.233;291.467;293.255;320.487;296.384;181.384;-9.090;-11.511;-9.723
4753861.241;299.141;302.084;329.502;307.001;186.376;-10.468;-13.672;-13.076
4753861.236;305.399;311.732;330.843;321.604;187.755;5.178;0.224;2.347
4753861.244;289.753;297.986;311.285;310.615;171.289;4.843;0.857;3.465
4753861.252;261.851;270.195;287.741;284.240;155.792;-1.118;-2.347;-0.261
4753861.260;231.378;239.201;257.976;251.643;142.828;-5.625;-6.892;-3.986
4753861.268;204.854;208.169;229.403;219.606;129.789;-7.153;-8.084;-5.476
4753861.276;173.338;172.704;199.750;182.576;108.741;-13.523;-14.566;-10.729
4753861.284;149.645;148.974;176.914;157.207;98.497;-15.013;-15.274;-13.150
4753861.292;130.385;128.970;155.494;137.351;86.837;-14.715;-16.540;-12.740
4753861.300;108.629;106.767;135.936;112.355;76.070;-18.179;-20.973;-15.348
4753861.308;92.499;91.791;123.717;96.597;74.990;-15.385;-19.968;-11.250
4753861.316;67.614;68.657;95.442;74.394;55.581;-18.515;-20.564;-14.119
4753861.324;48.429;49.584;74.133;54.426;45.262;-17.099;-17.919;-14.268
4753861.332;38.855;41.835;63.032;47.758;39.674;-3.949;-5.625;-3.688
4753861.340;20.675;24.550;45.709;28.200;25.667;-5.774;-9.388;-5.439
4753861.348;15.385;19.521;41.574;23.320;29.095;-3.017;-8.494;-1.974
4753861.356;2.608;4.582;27.679;8.345;19.595;-11.623;-18.328;-7.562
4753861.364;-7.562;-2.682;17.546;-1.155;13.337;-13.001;-19.744;-9.649
4753861.372;-18.291;-12.256;7.190;-13.039;7.972;-12.629;-19.446;-10.096
4753861.380;-27.567;-21.830;2.533;-22.240;4.321;-14.119;-21.048;-11.250
4753861.388;-32.596;-26.152;-2.645;-24.810;2.049;-8.866;-15.870;-8.009
4753861.396;-39.972;-31.218;-11.325;-29.281;-4.470;-6.221;-12.256;-8.382
4753861.404;-41.686;-31.888;-12.517;-33.416;-1.788;-6.706;-11.250;-11.772
4753861.412;-46.790;-37.700;-16.652;-38.892;-3.129;-10.356;-13.560;-13.597
4753861.420;-53.644;-44.145;-22.985;-44.219;-6.109;-11.511;-13.709;-13.262
4753861.431;-58.822;-48.913;-27.381;-48.056;-6.892;-13.821;-14.231;-16.168
4753861.439;-60.424;-51.968;-27.753;-51.782;-3.912;-15.609;-17.621;-17.583
4753861.447;-58.822;-51.446;-26.114;-53.458;-2.049;-16.131;-18.738;-15.646
4753861.455;-61.393;-54.017;-29.914;-55.283;-2.943;-15.199;-16.950;-14.864
4753861.463;-65.416;-57.779;-35.763;-57.928;-10.207;-11.586;-12.256;-13.113
4753861.471;-68.098;-60.573;-36.992;-59.754;-8.605;-8.568;-7.898;-11.027
4753861.479;-76.778;-70.147;-44.033;-70.818;-11.660;-11.623;-11.511;-13.374
4753861.487;-85.384;-79.088;-52.266;-81.547;-21.160;-18.366;-22.128;-19.372
4753861.495;-84.713;-79.423;-53.383;-82.105;-22.352;-18.589;-25.108;-18.030
4753861.503;-84.676;-78.939;-50.887;-80.839;-20.228;-20.117;-26.748;-18.179
4753861.511;-84.490;-80.094;-48.205;-80.205;-14.231;-23.134;-28.275;-21.011
4753861.519;-89.519;-85.607;-52.415;-84.527;-15.460;-26.152;-30.659;-25.593
4753861.527;-83.707;-78.268;-46.641;-80.317;-12.554;-20.266;-25.444;-20.787
4753861.535;-68.508;-59.456;-30.063;-63.404;-5.327;-9.984;-14.827;-10.729
4753861.543;-66.310;-53.644;-23.730;-61.281;-5.104;-11.586;-16.391;-13.523
4753861.551;-61.058;-47.199;-17.025;-55.581;-1.192;-8.605;-12.740;-13.746
4753861.559;-63.516;-48.578;-19.781;-56.513;-4.396;-10.394;-15.572;-16.503
4753861.567;-67.763;-51.595;-24.401;-62.548;-10.096;-12.778;-19.930;-16.987
4753861.575;-72.047;-56.811;-30.063;-67.167;-16.168;-20.638;-28.200;-21.458
4753861.583;-76.741;-64.038;-36.918;-74.729;-16.876;-28.796;-34.869;-26.636
4753861.591;-74.655;-63.963;-30.808;-74.022;-6.817;-27.977;-31.367;-26.003
4753861.599;-69.365;-58.189;-25.928;-67.391;-1.341;-25.406;-26.822;-24.326
4753861.607;-69.104;-55.954;-28.051;-65.938;-7.004;-23.767;-23.767;-24.438
4753861.615;-67.838;-57.258;-28.536;-68.359;-6.966;-21.569;-22.314;-22.464
4753861.626;-69.290;-58.189;-31.255;-69.328;-5.402;-20.415;-23.358;-21.197
4753861.634;-68.918;-57.444;-29.206;-69.924;-4.619;-19.744;-24.103;-20.564
4753861.642;-69.663;-59.903;-30.100;-71.824;-5.104;-21.122;-24.401;-20.303
4753861.650;-75.251;-64.299;-35.875;-77.374;-7.935;-21.905;-24.773;-21.122
4753861.658;-79.870;-70.818;-40.345;-85.719;-7.264;-20.303;-22.277;-20.191
4753861.666;-84.415;-74.767;-46.268;-89.444;-9.798;-20.079;-21.793;-18.477
4753861.674;-72.904;-58.673;-40.494;-67.726;-11.027;-24.587;-24.438;-22.426
4753861.682;-71.451;-54.017;-47.833;-58.077;-28.796;-23.581;-24.065;-20.266
4753861.690;-69.402;-45.784;-52.154;-45.002;-35.688;-15.460;-16.205;-12.852
4753861.698;-71.302;-46.790;-58.711;-42.878;-42.878;-15.683;-16.950;-12.293
4753861.706;-76.145;-51.334;-64.634;-46.976;-46.268;-20.228;-22.128;-15.870
4753861.714;-73.425;-47.982;-61.393;-44.554;-41.649;-21.718;-24.512;-15.870
4753861.722;-80.317;-54.389;-67.465;-49.211;-47.535;-28.349;-30.734;-27.046
4753861.730;-80.578;-54.166;-65.640;-49.323;-43.921;-22.464;-23.991;-25.332
4753861.738;-81.733;-56.252;-67.540;-52.825;-44.405;-14.938;-18.962;-18.254
4753861.746;-78.194;-54.091;-65.193;-52.936;-41.388;-10.915;-16.615;-14.715
4753861.754;-74.469;-50.962;-62.175;-50.180;-39.339;-11.958;-15.125;-15.162
4753861.762;-75.549;-52.676;-64.075;-51.185;-39.898;-17.658;-19.036;-16.913
4753861.770;-72.941;-50.031;-62.175;-50.031;-37.663;-16.019;-20.713;-15.348
4753861.778;-71.637;-48.503;-59.120;-48.801;-34.943;-6.817;-15.758;-8.903
4753861.786;-74.729;-52.713;-61.318;-51.856;-33.863;-1.900;-10.803;-7.413
4753861.794;-75.810;-53.756;-63.889;-51.558;-36.396;-4.545;-7.004;-14.119
4753861.802;-76.294;-53.346;-65.044;-50.478;-35.912;-7.711;-3.353;-18.328
4753861.810;-77.672;-54.538;-66.608;-52.452;-39.227;-13.709;-3.278;-22.911
4753861.806;-79.796;-58.524;-66.087;-56.140;-43.623;-18.515;-7.860;-26.077
4753861.814;-77.598;-58.338;-63.963;-57.034;-39.376;-18.440;-10.468;-24.736
4753861.822;-70.296;-50.142;-56.401;-48.988;-31.032;-11.399;-5.327;-17.919
4753861.830;-73.612;-53.011;-59.754;-53.123;-33.155;-12.554;-8.084;-18.068
4753861.838;-80.951;-60.759;-66.906;-61.207;-39.227;-17.546;-13.709;-21.420
4753861.846;-80.019;-62.324;-63.814;-62.138;-32.149;-15.907;-13.411;-17.732
4753861.854;-83.037;-64.485;-66.869;-66.273;-41.388;-14.678;-15.050;-17.919
4753861.862;-78.417;-60.163;-61.207;-62.957;-35.241;-12.442;-16.056;-14.752
4753861.870;-71.451;-54.538;-52.899;-57.109;-24.624;-10.543;-15.199;-9.649
4753861.878;-70.594;-52.229;-51.968;-55.544;-26.114;-14.119;-16.019;-15.274
4753861.886;-70.482;-51.372;-50.552;-54.836;-23.060;-17.397;-18.440;-19.632
4753861.894;-73.798;-53.607;-49.919;-58.785;-25.928;-17.360;-19.595;-17.807
4753861.902;-75.437;-55.023;-49.770;-62.957;-29.467;-16.503;-18.738;-16.429
4753861.910;-75.623;-53.756;-48.950;-62.250;-33.230;-17.397;-19.707;-17.583
4753861.918;-76.182;-53.383;-48.131;-63.628;-33.118;-18.366;-20.638;-18.515
4753861.926;-75.921;-53.495;-47.311;-64.261;-32.820;-17.956;-20.750;-18.626
4753861.934;-75.512;-53.272;-47.199;-66.012;-32.745;-18.030;-23.358;-18.440
4753861.942;-73.500;-49.286;-43.847;-61.952;-28.536;-16.913;-23.730;-17.472
4753861.950;-70.967;-44.145;-40.382;-56.401;-28.498;-15.050;-22.165;-18.105
4753861.958;-75.214;-46.641;-44.294;-59.158;-36.471;-17.434;-22.650;-23.954
4753861.966;-78.231;-50.925;-46.603;-63.553;-39.004;-20.377;-24.773;-27.493
4753861.974;-74.320;-48.466;-40.904;-62.063;-34.124;-16.987;-21.085;-22.799
4753861.982;-75.735;-46.082;-43.176;-60.871;-35.726;-10.431;-14.603;-16.429
4753861.990;-86.352;-56.662;-52.452;-73.276;-42.543;-12.778;-16.876;-19.073
4753862.016;-67.055;-42.655;-25.183;-62.846;-13.933;-18.142;-20.526;-23.395
4753862.024;-58.524;-39.637;-8.531;-66.571;9.276;-18.477;-20.117;-23.693
4753862.032;-55.619;-41.462;2.421;-78.492;25.593;-20.936;-24.512;-25.146
4753862.040;-60.424;-49.733;5.960;-94.213;34.533;-27.753;-34.273;-29.802
4753862.048;-62.212;-52.378;11.362;-100.322;43.325;-25.555;-33.565;-27.195
4753862.056;-70.594;-59.567;5.178;-106.916;40.531;-27.083;-33.304;-29.653
4753862.064;-76.965;-63.591;-3.278;-111.721;32.783;-31.106;-35.763;-33.714
4753862.072;-77.970;-63.367;-4.508;-111.945;31.032;-31.702;-34.347;-34.347
4753862.080;-79.237;-66.012;-5.215;-115.260;26.822;-29.504;-31.106;-30.957
4753862.088;-81.658;-70.706;-8.158;-120.960;27.493;-30.696;-32.894;-31.814
4753862.096;-83.521;-73.090;-10.133;-123.121;26.152;-33.341;-36.284;-35.353
4753862.104;-85.980;-75.623;-9.201;-123.978;27.530;-34.086;-40.233;-36.657
4753862.112;-82.105;-71.041;-6.370;-118.241;29.802;-24.587;-33.155;-28.461
4753862.120;-79.684;-68.396;-7.376;-115.968;28.573;-15.646;-26.971;-19.670
4753862.128;-86.129;-74.320;-13.709;-122.450;20.713;-20.899;-32.596;-25.742
4753862.136;-87.582;-73.910;-14.417;-122.674;18.366;-25.705;-35.986;-32.037
4753862.144;-87.135;-74.133;-13.523;-120.550;20.750;-27.232;-34.571;-32.336
4753862.152;-92.499;-78.008;-19.148;-122.413;13.337;-28.759;-34.757;-33.341
4753862.160;-93.952;-76.778;-21.718;-121.407;9.127;-28.796;-34.273;-32.969
4753862.168;-96.858;-79.498;-24.624;-124.313;7.153;-33.267;-37.812;-35.055
4753862.176;-87.097;-69.700;-13.895;-115.037;16.540;-31.106;-30.361;-29.542
4753862.184;-79.684;-64.671;-6.519;-109.076;25.779;-27.604;-25.332;-26.636
4753862.192;-88.401;-73.947;-15.348;-117.198;16.354;-30.249;-33.192;-28.946
4753862.200;-99.875;-85.346;-24.512;-126.362;8.456;-33.155;-37.551;-30.510
4753862.241;-105.985;-91.568;-30.249;-130.534;3.092;-38.259;-43.660;-36.024
4753862.249;-86.837;-72.308;-12.182;-112.765;20.936;-23.730;-26.412;-24.810
4753862.257;-84.788;-70.706;-12.331;-111.684;22.836;-23.432;-24.885;-23.693
4753862.265;-93.132;-79.945;-17.472;-123.046;17.397;-34.198;-38.631;-31.069
4753862.273;-103.638;-89.072;-24.773;-132.136;8.456;-39.339;-43.251;-39.041
4753862.281;-98.832;-84.937;-22.277;-129.081;12.442;-25.816;-28.610;-18.515
4753862.289;-97.379;-86.054;-21.905;-131.652;12.442;-28.834;-34.906;-27.977
4753862.297;-136.308;-125.021;-62.808;-170.358;-29.095;-73.947;-83.782;-73.612
4753862.305;-118.650;-104.122;-46.566;-149.719;-13.672;-64.634;-72.494;-63.665
4753862.313;-36.173;-23.171;37.439;-70.184;64.336;12.182;8.829;8.717
4753862.321;-7.115;7.376;64.075;-39.153;85.235;31.032;27.530;22.538
4753862.329;-17.732;-1.118;50.105;-51.334;67.800;8.978;6.147;2.906
4753862.337;-25.295;-7.972;40.531;-58.673;58.562;-1.937;-5.849;-6.743
4753862.345;-34.198;-15.795;27.567;-67.949;49.286;-7.898;-13.858;-9.462
4753862.353;-27.418;-7.711;36.545;-61.952;54.650;0.447;-3.614;4.135
4753862.361;-23.060;-3.353;38.594;-59.195;54.017;-9.201;-5.849;-9.090
4753862.369;-26.450;-5.737;35.390;-64.597;46.007;-28.051;-34.943;-32.745
4753862.377;8.792;30.734;66.236;-29.057;76.555;6.519;-4.061;0.969
4753862.385;-0.112;20.936;59.940;-38.892;72.792;0.075;-11.995;-1.900
4753862.393;-15.274;5.439;42.953;-55.060;57.779;-11.064;-21.793;-7.711
4753862.401;6.706;26.003;60.536;-32.820;74.506;2.831;-4.657;-0.894
4753862.409;17.770;37.923;70.594;-22.203;85.905;4.694;-8.196;-0.857
4753862.417;17.881;38.072;66.832;-22.128;81.062;9.350;-3.539;2.161
4753862.425;43.064;63.777;88.811;2.868;94.250;34.384;22.203;39.041
4753862.406;74.618;96.932;117.570;32.745;117.980;55.246;59.381;54.687
4753862.414;53.905;77.896;95.405;11.846;92.015;15.199;11.697;-3.390
4753862.422;68.881;87.954;116.341;16.987;107.177;-3.055;-15.572;-14.640
4753862.430;88.997;104.718;144.318;26.524;132.732;1.974;-8.643;-4.098
4753862.438;162.981;176.020;228.435;91.456;210.889;54.650;47.795;75.027
4753862.446;210.963;226.460;283.644;134.073;258.759;72.755;87.842;86.203
4753862.454;143.833;159.219;221.729;58.748;182.576;-68.992;-87.619;-92.573
4753862.462;237.189;251.457;320.934;143.535;273.921;7.339;-11.511;15.274
4753862.470;351.854;359.602;443.719;244.305;392.050;131.130;141.561;152.886
4753862.478;253.506;251.383;352.897;126.883;294.298;-6.221;-27.083;-41.313
4753862.486;237.748;234.246;339.448;95.479;287.257;-29.169;-84.490;-48.988
4753862.494;239.983;234.693;347.979;89.332;305.772;-4.172;-43.176;-12.442
4753862.502;242.963;233.352;352.152;77.412;327.602;37.812;12.964;45.374
4753862.510;237.226;226.274;356.212;61.989;342.913;87.842;59.716;132.024
4753862.518;160.448;153.221;284.389;-13.225;296.123;43.549;25.630;54.128
4753862.526;87.731;75.027;202.917;-102.147;201.203;4.843;19.744;-1.527
4753862.534;86.576;71.414;189.431;-114.255;178.441;-28.163;-59.567;-14.231
4753862.542;124.052;110.008;211.112;-75.586;243.187;-0.708;-57.295;32.559
4753862.550;131.354;115.819;213.534;-69.588;254.847;36.173;-6.966;83.372
4753862.558;95.107;87.880;176.765;-107.102;198.744;11.250;-29.467;49.695
4753862.566;120.848;123.754;187.829;-70.855;216.626;29.355;2.943;63.181
4753862.574;145.547;156.462;192.337;-43.958;207.573;54.128;43.102;91.195
4753862.582;158.586;170.805;193.641;-55.134;225.529;0.224;-11.288;26.710
4753862.590;151.955;180.230;173.673;-60.052;212.602;-36.359;-74.357;-11.995
4753862.588;140.816;179.820;152.625;-71.079;198.148;-27.940;-62.585;-0.410
4753862.596;112.429;164.472;112.802;-95.293;161.678;-29.095;-62.324;2.384
4753862.604;74.282;132.546;68.881;-131.279;126.436;-35.353;-68.247;3.092
4753862.612;50.552;117.607;47.050;-144.914;107.661;-46.231;-75.884;-9.649
4753862.620;57.034;118.725;49.397;-132.844;108.667;-31.963;-55.134;-4.023
4753862.628;67.540;79.982;52.340;-127.107;115.149;-22.091;-42.543;3.725
4753862.636;69.216;50.664;48.466;-126.362;111.274;-23.060;-38.259;1.565
4753862.644;69.290;42.580;46.492;-126.176;103.898;-29.430;-41.686;-5.290
4753862.652;74.953;40.792;50.403;-123.307;103.042;-35.241;-50.254;-15.013
4753862.660;86.725;45.449;57.854;-112.206;104.792;-30.771;-46.082;-14.789
4753862.668;115.596;68.732;84.713;-82.776;120.401;-12.368;-28.387;-0.298
4753862.676;139.028;83.223;126.399;-64.149;179.075;-6.482;-19.893;3.837
4753862.684;130.497;73.202;105.835;-70.147;113.808;-19.856;-36.396;-9.462
4753862.692;126.995;68.136;92.611;-66.087;71.973;-20.266;-36.657;-10.915
4753862.700;137.575;71.041;105.053;-56.326;101.030;-12.368;-33.528;-3.874
4753862.708;134.818;61.579;100.955;-59.716;99.726;-15.087;-34.198;-7.302
4753862.716;138.357;57.966;103.600;-53.979;100.806;-8.903;-29.318;-2.347
4753862.724;136.048;49.062;99.726;-50.776;94.883;-5.551;-22.613;0.186
4753862.732;117.198;26.710;82.068;-61.728;79.088;-22.799;-36.582;-19.595
4753862.740;75.959;-19.930;37.700;-97.528;37.588;-61.691;-73.574;-61.281
4753862.748;96.522;-3.353;54.762;-71.749;54.762;-37.104;-47.721;-40.084
4753862.756;124.499;18.515;80.839;-41.202;80.653;-6.743;-19.073;-8.829
4753862.764;124.797;12.740;82.031;-37.253;86.837;2.347;-8.978;-0.447
4753862.772;108.704;-8.680;67.577;-50.031;73.016;-7.264;-18.515;-11.735
4753862.811;95.889;-26.040;58.636;-57.407;61.803;-17.658;-30.845;-19.670
4753862.819;98.869;-28.424;64.708;-54.687;61.952;-21.495;-33.788;-24.661
4753862.827;106.804;-26.114;72.829;-48.839;63.218;-26.599;-38.408;-31.330
4753862.835;115.670;-22.240;78.343;-39.004;65.416;-22.464;-33.528;-29.653
4753862.843;122.413;-24.177;89.072;-29.653;68.396;-21.234;-34.794;-29.169
4753862.851;134.408;-15.423;110.641;-14.305;82.180;-16.205;-31.963;-24.177
4753862.859;140.518;-6.892;118.278;1.676;90.152;-4.210;-16.429;-10.543
4753862.867;101.738;-47.497;81.472;-27.604;57.779;-28.014;-36.880;-30.622
4753862.875;79.423;-79.162;62.287;-52.229;41.574;-41.611;-53.048;-41.835
4753862.883;110.306;-52.378;89.072;-18.962;61.989;-9.276;-19.595;-16.950
4753862.891;137.351;-27.306;114.180;9.984;89.705;18.626;9.611;8.494
4753862.899;143.573;-24.885;118.837;17.621;93.281;11.735;0.782;2.794
4753862.907;146.739;-27.269;120.215;17.546;95.144;6.743;-5.625;4.247
4753862.915;159.591;-23.618;130.795;21.979;114.664;-3.912;-9.276;-14.119
4753862.923;137.165;-50.478;97.640;3.614;94.138;-21.532;-32.634;-26.785
4753862.931;121.854;-71.637;74.953;-8.009;76.741;-24.550;-34.831;-29.653
4753862.939;158.921;-41.910;106.953;26.114;107.177;19.036;6.966;12.964
4753862.947;158.474;-44.517;100.657;30.659;104.941;17.099;13.486;3.725
4753862.955;129.752;-74.618;74.394;6.184;77.970;-15.646;-18.477;-28.051
4753862.963;91.977;-114.217;41.388;-33.751;42.468;-53.756;-64.559;-62.063
4753862.971;83.148;-121.742;33.006;-37.439;38.706;-56.028;-62.659;-60.834
4753862.979;145.063;-55.544;91.642;31.330;97.603;11.772;6.668;7.115
4753862.987;144.690;-40.643;91.195;37.663;94.436;22.650;23.507;13.262
4753862.995;91.940;-90.152;39.749;-11.213;47.646;-8.419;-10.431;-18.366
4753862.976;75.921;-106.171;27.157;-23.469;33.118;-20.862;-22.985;-29.989
4753862.984;91.493;-91.121;47.907;-10.245;55.656;-12.033;-18.217;-17.285
4753862.992;94.771;-87.023;55.470;-8.419;67.092;-14.715;-22.873;-17.844
4753863.000;87.172;-92.983;47.758;-12.629;64.783;-24.959;-29.430;-30.212
4753863.008;57.593;-122.860;17.434;-41.574;29.691;-55.842;-58.152;-61.281
4753863.016;46.417;-132.658;9.686;-51.185;22.464;-72.829;-81.509;-78.492
4753863.024;96.560;-81.807;58.264;1.118;74.208;-13.262;-17.509;-18.515
4753863.032;111.312;-62.138;68.955;25.555;84.452;15.534;14.417;6.929
4753863.040;72.978;-96.411;27.977;-6.370;54.389;-12.219;-14.976;-17.360
4753863.048;56.587;-114.664;12.256;-23.358;44.219;-21.271;-24.661;-23.544
4753863.056;45.039;-125.766;-4.061;-32.857;18.738;-29.132;-31.330;-33.602
4753863.064;30.994;-138.767;-16.652;-44.294;15.274;-34.161;-35.688;-39.525
4753863.072;25.555;-144.430;-22.240;-48.354;7.115;-39.525;-46.194;-43.623
4753863.080;20.862;-145.771;-32.522;-51.484;5.364;-34.049;-44.368;-37.737
4753863.088;8.978;-153.482;-46.566;-56.066;-10.133;-34.608;-47.162;-38.370
4753863.096;-17.360;-178.814;-65.677;-79.051;-33.714;-51.819;-62.846;-54.091
4753863.104;-38.892;-199.601;-84.564;-101.626;-55.768;-73.351;-82.292;-70.296
4753863.112;29.057;-127.517;-18.701;-29.877;7.041;-5.551;-13.262;-0.820
4753863.120;46.752;-110.045;-0.224;-10.431;25.630;8.568;2.980;12.852
4753863.128;23.432;-135.489;-21.942;-37.141;3.204;-22.575;-26.152;-17.732
4753863.136;-3.763;-160.560;-50.105;-63.144;-25.071;-53.085;-55.358;-50.403
4753863.144;7.600;-150.278;-40.829;-51.670;-17.397;-47.013;-51.670;-44.554
4753863.152;56.736;-102.296;9.239;-4.694;33.304;-0.149;-4.172;2.198
4753863.160;41.835;-118.129;-2.980;-21.271;17.732;-22.575;-27.902;-16.205
4753863.157;32.075;-133.775;-5.588;-36.135;4.470;-43.325;-45.486;-35.092
4753863.165;38.408;-122.823;0.708;-25.071;10.170;-41.798;-43.698;-35.278
4753863.173;43.362;-114.590;7.898;-16.168;23.469;-23.432;-27.753;-19.148
4753863.181;68.359;-92.685;31.553;0.857;47.348;-33.528;-39.712;-25.555
4753863.189;74.953;-86.278;42.915;3.092;44.070;-45.449;-48.392;-35.837
4753863.197;125.282;-39.525;101.291;46.343;78.306;-24.773;-28.871;-14.640
4753863.205;164.583;6.221;147.745;92.611;111.386;-9.015;-12.666;0.745
4753863.213;172.667;22.426;147.820;97.901;110.082;-11.958;-18.440;0.112
4753863.221;178.963;29.318;150.427;105.351;107.139;-18.738;-19.409;-4.284
4753863.229;165.515;18.850;146.888;93.319;90.487;-51.372;-55.805;-34.161
4753863.237;182.502;35.055;172.183;107.251;107.326;-43.698;-44.517;-25.108
4753863.245;211.745;69.961;205.077;144.541;138.357;-8.345;-3.166;10.692
4753863.253;195.391;56.922;190.884;131.018;131.205;-11.176;-1.229;12.517
4753863.261;164.546;29.393;161.566;101.589;106.059;-33.863;-29.281;-8.047
4753863.269;150.688;22.836;145.659;93.542;98.906;-37.625;-37.663;-10.096
4753863.277;172.444;48.764;173.822;122.748;130.087;-7.302;-5.178;24.252
4753863.285;175.945;56.848;182.018;131.987;134.185;-0.149;4.210;30.398
4753863.293;145.249;26.673;148.602;100.806;100.844;-30.845;-24.214;-5.923
4753863.301;136.010;17.360;135.861;94.958;98.608;-39.116;-37.141;-16.056
4753863.309;156.090;37.029;147.372;116.825;124.276;-6.258;-8.531;18.254
4753863.317;151.396;30.547;139.512;110.418;128.597;-11.027;-7.600;11.101
4753863.325;137.873;17.881;124.127;101.402;123.605;-21.048;-15.795;2.086
4753863.333;123.344;0.224;103.898;87.619;114.217;-36.061;-31.926;-8.978
4753863.341;142.008;18.515;118.725;105.686;130.869;-9.984;-4.843;17.472
4753863.321;157.282;37.290;129.379;126.511;142.455;12.554;17.695;38.743
4753863.329;158.362;37.886;131.428;128.299;146.776;14.380;19.893;40.121
4753863.337;146.292;27.381;116.304;117.160;134.632;1.900;12.852;25.071
4753863.345;133.812;16.540;96.634;106.990;123.717;-8.382;4.210;13.821
4753863.353;121.929;7.153;88.252;95.442;111.796;-15.460;-2.347;6.258
4753863.361;148.788;37.178;114.553;125.468;132.471;15.981;25.816;33.937
4753863.369;144.355;34.906;108.704;125.505;130.236;21.942;27.195;38.780
4753863.377;130.422;22.501;98.534;112.876;117.272;18.291;18.440;30.436
4753863.385;123.344;16.280;92.052;106.096;112.653;13.858;6.929;22.054
4753863.393;117.943;9.835;83.596;101.440;105.575;6.780;0.335;15.013
4753863.401;116.117;10.431;83.111;101.738;103.340;3.800;-1.602;11.027
4753863.409;102.296;1.341;69.328;93.170;89.407;-4.023;-7.115;4.135
4753863.417;112.914;11.697;83.372;104.904;98.422;14.082;11.846;23.991
4753863.425;116.602;15.087;89.183;108.667;104.681;23.395;18.291;32.932
4753863.433;112.467;14.231;84.415;107.065;100.508;23.767;20.750;31.516
4753863.441;97.789;2.012;71.153;95.554;97.230;17.956;9.499;27.344
4753863.449;61.691;-35.018;40.382;59.195;65.081;-4.545;-11.027;4.321
4753863.457;46.268;-49.137;29.095;44.107;47.162;-12.144;-16.727;-3.316
4753863.465;39.153;-55.917;20.042;36.284;40.904;-21.681;-22.613;-11.884
4753863.473;54.874;-38.631;33.639;51.521;54.240;-9.313;-9.760;-0.075
4753863.481;86.576;-7.041;65.975;83.596;86.352;21.309;21.756;28.238
4753863.489;77.821;-13.486;55.768;78.082;82.180;22.091;19.260;30.361
4753863.497;72.382;-17.621;50.664;75.139;78.157;20.452;17.360;26.524
4753863.505;62.399;-28.685;43.325;64.149;68.955;11.548;8.717;14.566
4753863.470;56.513;-34.161;36.769;56.997;60.797;5.551;2.086;8.754
4753863.478;41.313;-46.305;20.787;43.549;47.833;-18.403;-21.644;-15.311
4753863.486;24.214;-62.101;1.229;28.946;29.206;-46.752;-51.558;-40.941
4753863.494;82.999;0.186;64.149;90.040;91.828;15.534;11.548;19.036
4753863.502;109.635;23.879;92.238;114.180;109.673;44.331;42.170;48.093
4753863.510;81.845;-2.533;61.542;86.464;84.713;20.266;18.887;26.561
4753863.518;55.134;-23.395;31.255;65.379;63.069;7.115;3.874;14.305
4753863.526;46.231;-36.508;23.507;51.819;53.793;-17.397;-22.948;-7.823
4753863.534;60.610;-18.105;41.574;68.769;68.918;-1.490;-5.327;4.247
4753863.542;80.205;4.135;61.020;91.717;89.854;25.257;21.495;28.685
4753863.550;72.233;-1.527;57.183;88.066;82.329;14.827;14.678;19.297
4753863.558;56.587;-15.870;41.947;74.729;69.141;3.800;1.788;10.133
4753863.566;43.772;-28.834;27.679;60.536;61.356;-7.413;-14.156;1.751
4753863.574;32.112;-36.806;18.179;52.564;50.217;-16.131;-16.466;-7.972
4753863.582;26.375;-42.655;8.233;44.107;36.210;-22.054;-19.148;-12.927
4753863.590;45.113;-22.165;28.647;64.671;58.785;-5.029;-5.625;3.837
4753863.598;53.570;-14.715;41.276;72.010;66.049;9.201;8.456;14.044
4753863.606;41.202;-26.636;27.642;58.226;62.957;1.863;3.986;4.917
4753863.614;29.914;-37.998;11.399;45.523;50.217;-6.258;-3.576;-2.347
4753863.622;62.957;-3.912;47.348;82.441;85.235;25.779;22.873;32.112
4753863.630;42.208;-21.532;31.516;65.453;65.044;5.625;2.906;13.933
4753863.638;18.105;-43.213;3.725;43.511;37.849;-12.852;-13.374;-1.676
4753863.646;10.915;-47.944;-3.912;36.918;38.631;-20.601;-23.209;-8.754
4753863.654;15.609;-40.829;1.490;44.666;34.906;-22.650;-25.071;-12.107
4753863.592;16.429;-36.284;5.737;48.019;32.783;-17.434;-19.670;-7.562
4753863.600;30.100;-18.850;13.970;64.597;41.164;-6.296;-5.104;-0.186
4753863.608;28.014;-21.420;10.170;59.679;39.041;-11.064;-7.264;-6.445
4753863.616;8.866;-35.278;-7.339;44.294;27.493;-29.840;-28.461;-22.314
4753863.624;19.148;-23.767;-0.782;55.581;29.728;-18.179;-17.509;-12.256
4753863.632;28.461;-16.354;11.325;63.665;40.121;-5.513;-5.178;-0.894
4753863.640;38.445;-6.221;27.902;71.600;46.529;4.359;4.880;9.350
4753863.648;43.176;1.937;30.063;77.337;53.979;9.090;11.437;14.789
4753863.656;33.751;-5.215;18.254;70.296;39.227;-2.719;0.559;4.508
4753863.664;20.079;-16.689;5.923;60.573;21.309;-13.895;-10.617;-8.941
4753863.672;19.446;-16.168;5.327;61.952;18.962;-8.270;-6.035;-6.184
4753863.680;19.073;-14.380;5.476;61.803;20.601;-7.078;-6.668;-4.880
4753863.688;8.643;-23.358;-6.221;52.936;14.529;-11.064;-8.121;-8.643
4753863.696;-2.012;-36.508;-20.824;38.594;1.565;-24.885;-19.595;-21.681
4753863.704;18.962;-14.342;2.533;62.957;22.687;-5.402;1.118;-4.657
4753863.712;14.789;-17.770;-3.502;59.791;19.111;-7.674;0.149;-4.210
4753863.720;-6.035;-37.253;-21.495;39.637;4.172;-29.728;-23.842;-26.114
4753863.728;35.167;4.023;19.446;81.174;34.235;11.846;18.887;11.511
4753863.736;27.344;-4.247;14.380;71.898;30.361;4.135;13.635;5.625
4753863.744;9.649;-20.862;-3.502;55.097;15.981;-12.666;-7.898;-8.009
4753863.752;8.456;-19.632;-5.662;56.364;7.637;-16.913;-15.050;-13.784
4753863.760;10.692;-17.136;-4.619;57.332;10.431;-15.274;-10.766;-11.250
4753863.768;-1.192;-24.959;-16.391;48.727;-2.086;-19.632;-12.144;-15.236
4753863.776;-20.936;-44.666;-31.814;29.691;-19.595;-39.712;-30.957;-33.863
4753863.758;5.513;-17.397;-6.557;56.922;5.141;-15.870;-7.972;-10.878
4753863.766;16.950;-2.570;6.109;68.434;15.162;-8.009;-1.490;-2.012
4753863.774;9.611;-9.201;-0.410;60.946;5.998;-12.368;-4.768;-4.843
4753863.782;27.791;11.884;22.165;83.409;23.097;14.976;26.599;19.073
4753863.790;14.193;-2.235;7.823;65.938;6.668;1.602;11.027;5.029
4753863.798;3.800;-10.617;-2.906;57.146;0.186;-7.376;0.820;-1.229
4753863.806;-4.731;-19.446;-10.952;47.758;-9.760;-13.933;-7.413;-8.121
4753863.814;-9.798;-24.326;-16.801;40.568;-16.801;-12.666;-5.551;-7.786
4753863.822;-5.402;-19.632;-12.852;40.978;-12.331;-3.651;-1.639;3.316
4753863.830;-15.423;-29.355;-22.985;28.834;-15.348;-14.119;-9.835;-8.233
4753863.838;-37.514;-50.217;-44.219;7.190;-39.972;-36.545;-28.796;-32.447
4753863.846;-32.559;-45.449;-36.508;14.193;-41.164;-36.843;-31.106;-33.714
4753863.854;4.470;-9.723;-0.559;51.409;-2.757;-8.345;-1.043;-5.402
4753863.862;13.933;3.763;8.866;63.516;7.860;7.004;9.350;12.331
4753863.870;2.868;-4.582;-1.565;51.334;0.820;7.004;9.276;14.529
4753863.878;-10.543;-17.360;-11.362;38.892;-18.105;-9.350;-0.708;-4.880
4753863.886;-13.448;-23.060;-15.795;35.129;-19.930;-16.131;-7.600;-13.970
4753863.894;-11.586;-20.862;-15.646;37.365;-15.907;-11.846;-0.820;-11.139
4753863.902;-22.277;-29.393;-28.610;26.338;-27.567;-18.626;-9.835;-18.477
4753863.910;-55.805;-60.275;-60.722;-1.900;-61.505;-56.662;-53.830;-53.383
4753863.918;-19.521;-22.054;-20.973;35.726;-25.630;-19.781;-21.420;-15.870
4753863.926;22.501;18.589;21.085;76.704;10.654;26.599;25.257;29.393
4753863.934;-1.267;-7.413;-2.570;49.993;-10.878;0.522;3.316;3.278
4753863.942;-14.603;-16.838;-16.540;40.643;-28.163;-9.909;-7.749;-5.402
4753863.951;-20.005;-23.320;-19.670;33.602;-27.753;-21.420;-20.526;-16.168
4753863.959;-22.054;-21.718;-24.252;35.353;-31.739;-20.862;-16.578;-16.056
4753863.967;-34.794;-30.585;-37.104;25.854;-40.866;-21.569;-22.687;-17.844
4753863.975;-40.717;-33.639;-38.072;21.532;-45.113;-20.079;-23.507;-15.311
4753863.983;-53.868;-51.036;-53.532;5.104;-64.112;-32.522;-36.955;-27.977
4753863.991;-54.240;-51.446;-52.415;1.043;-60.461;-34.310;-35.577;-30.808
4753863.999;-20.489;-13.150;-18.030;35.539;-26.263;-2.496;-3.763;0.410
4753864.007;-24.103;-16.131;-22.128;35.800;-31.404;-0.745;0.112;0.522
4753864.015;-32.745;-23.916;-34.273;24.885;-47.497;-10.021;-9.313;-8.419
4753864.023;-19.148;-11.735;-19.372;33.341;-31.814;-3.166;-0.447;-2.347
4753864.031;-20.340;-13.895;-20.303;32.410;-36.024;-3.800;-4.284;1.341
4753864.039;-31.814;-25.518;-32.671;17.621;-48.950;-14.268;-17.025;-11.139
4753864.047;-41.798;-34.347;-40.159;5.327;-54.501;-15.981;-17.136;-14.342
4753864.055;-34.869;-22.464;-33.751;20.862;-49.174;-10.133;-11.325;-5.774
4753864.063;-22.128;-10.058;-24.885;33.602;-38.520;-15.050;-17.658;-9.462
4753864.071;-29.169;-19.968;-31.032;20.340;-48.466;-23.283;-23.656;-17.323
4753864.079;-41.649;-33.043;-44.443;5.960;-63.702;-36.657;-34.533;-35.167
4753864.087;-26.040;-15.572;-25.257;26.003;-42.915;-14.827;-12.629;-13.709
4753864.095;-28.498;-20.638;-30.287;23.246;-41.053;-12.107;-10.952;-11.213
4753864.103;-35.390;-24.363;-42.766;12.554;-58.673;-23.097;-24.661;-25.071
4753864.111;-19.446;-9.313;-18.962;29.691;-43.511;-16.205;-14.789;-19.073
4753864.119;-11.995;-2.980;-11.474;39.265;-35.688;-7.339;-5.253;-10.394
4753864.127;-9.723;-0.969;-9.313;40.829;-32.745;-1.974;-0.857;-3.949
4753864.135;-41.202;-30.026;-42.133;12.256;-61.132;-21.718;-19.670;-22.873
4753864.178;-48.913;-36.508;-49.956;4.172;-65.230;-19.334;-17.881;-19.781
4753864.186;-51.595;-38.408;-43.772;5.849;-64.597;-11.548;-11.735;-9.276
4753864.194;-49.472;-38.818;-45.635;4.657;-67.241;-12.703;-13.150;-10.580
4753864.202;-57.071;-46.268;-55.954;-4.508;-73.984;-23.395;-23.805;-21.942
4753864.210;-60.573;-47.870;-57.369;-8.009;-75.474;-29.206;-26.152;-28.424
4753864.218;-35.614;-17.956;-37.365;22.985;-51.856;-3.241;0.522;-4.098
4753864.226;-34.608;-18.068;-30.138;25.220;-47.646;-0.224;0.708;-3.800
4753864.234;-44.666;-26.561;-27.455;11.250;-53.234;-9.201;-12.890;-11.548
4753864.242;-51.819;-33.937;-33.453;3.576;-57.556;-17.993;-25.444;-16.205
4753864.250;-26.301;-11.586;-9.350;26.599;-36.620;0.149;-4.955;2.123
4753864.258;-9.984;5.104;9.090;42.729;-17.881;10.133;7.898;13.150
4753864.266;-26.785;-9.276;-8.196;27.455;-31.292;-9.909;-10.170;-7.339
4753864.274;-16.987;-1.006;1.267;33.975;-15.758;-6.519;-6.855;-4.023
4753864.282;-23.060;-5.811;-5.998;26.450;-12.293;-9.015;-8.680;-8.456
4753864.290;-46.566;-25.518;-27.195;7.264;-30.659;-19.409;-20.899;-21.830
4753864.298;-39.414;-16.354;-13.486;16.801;-26.785;-8.903;-13.970;-10.617
4753864.306;-36.471;-11.586;-18.142;21.011;-22.873;-9.090;-12.144;-10.431
4753864.314;-40.084;-10.431;-10.617;20.489;-17.174;-10.841;-9.723;-11.697
4753864.322;-28.051;2.198;4.545;33.304;-3.092;1.937;-2.868;1.788
4753864.330;-36.210;-4.657;-11.213;25.705;-17.285;0.410;-2.980;-2.272
4753864.338;-35.465;-8.158;-4.396;23.656;-14.082;-6.035;-10.096;-9.425
4753864.346;-26.748;3.390;5.513;33.043;-4.619;-2.533;-3.353;-6.221
4753864.354;-34.831;-1.229;-7.488;27.157;-11.362;-5.886;-13.225;-9.462
4753864.362;-44.517;-9.909;-13.411;17.583;-10.319;-12.815;-17.397;-18.142
4753864.295;-42.617;-8.494;-9.388;18.291;-6.855;-6.557;-11.623;-11.623
4753864.303;-54.240;-16.354;-23.991;11.586;-23.954;-16.503;-24.326;-19.521
4753864.311;-42.506;-1.192;-16.093;30.473;-8.605;0.261;-4.023;-1.006
4753864.319;-35.167;5.960;-9.164;36.955;2.086;10.394;6.333;9.388
4753864.327;-41.276;-1.602;-11.921;27.195;-9.649;-0.410;-5.066;-0.522
4753864.335;-47.646;-7.786;-18.254;18.664;-16.019;-7.637;-8.233;-10.133
4753864.343;-55.805;-12.740;-28.051;15.311;-21.905;-6.780;-8.494;-10.766
4753864.351;-58.077;-15.721;-30.808;10.990;-25.555;-9.611;-10.729;-12.740
4753864.359;-57.742;-15.348;-31.367;11.027;-24.289;-6.407;-7.562;-11.586
4753864.367;-71.228;-27.753;-45.039;-1.080;-33.714;-16.950;-19.632;-22.240
4753864.375;-81.547;-39.339;-49.956;-11.139;-49.025;-27.455;-29.020;-32.894
4753864.383;-55.805;-13.001;-27.716;16.131;-24.587;-5.402;-12.144;-11.586
4753864.391;-34.757;5.923;-5.029;36.694;0.745;18.291;12.666;11.362
4753864.399;-38.557;9.201;-8.568;38.594;-1.378;9.127;6.780;0.410
4753864.407;-64.522;-11.995;-40.568;14.491;-22.091;-12.629;-13.635;-19.968
4753864.415;-82.441;-38.929;-57.183;-11.735;-53.756;-36.545;-39.712;-40.308
4753864.423;-39.376;4.247;-8.754;36.359;-12.480;0.522;-5.551;-4.843
4753864.431;-21.234;24.363;6.631;58.226;4.545;16.056;7.190;12.480
4753864.439;-49.509;-0.969;-20.564;27.828;-20.005;-9.611;-16.838;-14.417
4753864.447;-59.605;-13.299;-30.845;14.156;-30.138;-19.893;-24.103;-25.593
4753864.455;-38.184;7.674;-11.399;37.588;-7.376;-0.522;0.037;-7.302
4753864.463;-38.631;9.462;-13.411;38.333;-2.198;5.700;5.849;0.261
4753864.471;-58.003;-12.368;-29.616;15.460;-23.283;-14.864;-20.079;-21.197
4753864.479;-48.131;-0.782;-20.266;27.157;-19.260;-7.078;-11.884;-16.801
4753864.487;-38.594;9.239;-11.064;42.543;-3.800;3.725;1.341;-6.668
4753864.495;-49.584;-4.694;-25.705;28.498;-14.231;-11.139;-9.984;-19.707
4753864.503;-61.095;-12.405;-37.551;17.956;-19.856;-23.320;-24.177;-29.802
4753864.511;-48.243;1.192;-24.177;32.783;-10.394;-5.215;-5.737;-12.666
4753864.491;-50.515;-1.118;-23.954;28.871;-13.039;-6.966;-8.494;-15.646
4753864.499;-33.379;17.099;-7.413;47.386;-0.224;5.104;1.267;-2.123
4753864.507;-35.018;13.970;-4.880;45.002;0.857;1.974;-2.496;-4.731
4753864.515;-42.431;3.912;-11.250;35.129;-7.451;-7.451;-11.027;-16.838
4753864.523;-55.581;-5.513;-27.418;25.779;-19.856;-10.915;-12.629;-18.924
4753864.531;-62.957;-10.058;-37.253;20.377;-25.667;-12.964;-12.480;-20.228
4753864.539;-66.720;-14.044;-40.717;14.342;-25.891;-12.666;-19.372;-19.595
4753864.547;-64.522;-10.580;-37.998;19.409;-16.689;-1.229;-7.488;-11.288
4753864.555;-68.322;-12.890;-37.737;18.179;-19.707;-0.335;-1.118;-11.735
4753864.563;-84.266;-29.132;-55.954;-1.006;-44.443;-20.638;-18.254;-30.138
4753864.571;-89.221;-34.161;-62.063;-7.674;-46.939;-30.026;-37.923;-35.651
4753864.579;-77.076;-22.277;-48.317;8.233;-26.450;-11.623;-14.529;-21.495
4753864.587;-78.715;-26.859;-51.334;3.949;-27.381;-16.615;-22.985;-21.793
4753864.595;-83.782;-32.410;-57.966;-2.272;-41.649;-20.564;-27.008;-27.455
4753864.603;-70.855;-22.985;-40.866;3.949;-23.022;0.559;0.633;-11.995
4753864.611;-85.309;-34.347;-56.326;-5.141;-39.600;4.098;0.186;-6.407
4753864.619;-63.740;-5.662;-42.804;29.802;-43.660;-2.123;-15.460;-11.139
4753864.627;-31.404;27.232;-18.813;64.448;-40.270;-3.055;-10.394;-18.403
4753864.635;8.717;72.792;8.121;119.805;-37.923;2.868;2.906;-19.744
4753864.643;36.620;105.053;24.512;162.981;-45.784;-5.700;-5.588;-26.785
4753864.651;29.616;103.489;9.947;171.512;-78.529;-17.472;-11.697;-35.912
4753864.659;19.707;97.938;-8.009;176.877;-109.114;-30.883;-19.893;-47.050
4753864.667;31.777;114.702;-5.960;199.601;-121.966;-37.476;-21.122;-53.719
4753864.675;41.127;124.536;-4.433;212.975;-129.417;-41.537;-23.581;-57.481
4753864.747;29.616;118.949;-23.730;208.542;-151.359;-50.440;-29.430;-67.204
4753864.755;14.305;104.494;-45.113;203.289;-169.240;-53.160;-32.336;-69.551
4753864.763;1.863;94.995;-62.920;197.999;-175.573;-50.478;-30.957;-66.943
4753864.771;-11.399;91.083;-77.039;196.025;-193.641;-49.360;-25.891;-69.439
4753864.779;-26.189;79.423;-97.267;179.969;-220.500;-57.258;-28.573;-83.856
4753864.787;-46.380;59.456;-123.829;160.001;-240.728;-60.350;-29.765;-85.384
4753864.795;-61.169;48.019;-140.890;149.794;-257.120;-59.679;-32.820;-83.931
4753864.803;-74.878;34.310;-157.207;138.804;-272.132;-58.338;-30.361;-88.438
4753864.811;-91.493;21.532;-177.026;126.064;-289.045;-56.624;-29.430;-89.444
4753864.819;-96.485;18.552;-185.445;122.823;-291.467;-49.435;-24.065;-84.937
4753864.827;-101.440;15.087;-192.299;118.352;-294.186;-44.294;-22.501;-79.870
4753864.835;-119.545;-3.316;-209.734;94.064;-311.732;-52.340;-32.559;-89.779
4753864.843;-128.560;-15.795;-216.886;77.076;-314.787;-70.892;-51.595;-106.916
4753864.851;-129.081;-18.813;-213.943;68.098;-303.090;-66.087;-45.337;-99.763
4753864.859;-130.981;-24.401;-214.726;57.966;-293.255;-59.642;-38.147;-93.021
4753864.867;-144.355;-38.296;-227.131;42.468;-296.757;-63.665;-45.523;-96.150
4753864.875;-156.648;-50.552;-238.977;25.146;-305.586;-70.371;-53.346;-103.265
4753864.883;-165.068;-60.350;-244.752;9.462;-305.921;-73.127;-63.032;-102.222
4753864.891;-163.950;-59.418;-239.834;7.004;-294.708;-59.754;-48.466;-89.109
4753864.899;-169.687;-66.571;-240.803;-5.327;-293.851;-60.759;-49.435;-92.313
4753864.907;-180.043;-78.678;-249.036;-21.458;-305.399;-66.124;-54.091;-98.757
4753864.915;-179.633;-77.672;-245.906;-24.289;-299.327;-59.381;-45.747;-93.356
4753864.923;-187.084;-86.166;-251.085;-36.880;-302.047;-70.557;-54.762;-102.147
4753864.931;-183.396;-82.627;-245.944;-36.024;-294.261;-70.296;-46.156;-99.838
4753864.942;-182.167;-82.627;-240.915;-36.918;-280.924;-72.047;-51.297;-100.024
4753864.950;-181.235;-82.478;-238.679;-40.680;-282.452;-71.526;-47.460;-99.652
4753864.958;-188.686;-92.126;-244.081;-56.103;-290.945;-84.937;-62.622;-111.423
4753864.966;-195.578;-99.540;-250.638;-64.895;-296.831;-91.158;-70.073;-113.025
4753864.974;-195.950;-100.471;-250.116;-70.073;-293.180;-85.495;-63.926;-107.773
4753864.982;-199.527;-106.581;-251.755;-79.758;-290.759;-86.538;-66.683;-109.412
4753864.990;-193.082;-103.302;-243.895;-78.380;-275.783;-84.229;-64.187;-105.463
4753864.998;-190.511;-102.669;-235.923;-81.845;-265.501;-82.068;-62.920;-99.652
4753865.006;-200.085;-114.851;-246.316;-98.683;-285.693;-92.722;-74.506;-113.510
4753865.014;-208.803;-123.531;-254.735;-108.555;-291.467;-100.806;-83.521;-118.539
4753865.022;-203.922;-118.949;-251.122;-107.549;-289.381;-98.348;-79.572;-115.894
4753865.030;-200.346;-117.607;-247.359;-109.710;-286.438;-89.221;-65.789;-104.979
4753865.038;-208.952;-128.746;-250.936;-127.517;-286.177;-98.124;-78.566;-108.816
4753865.046;-207.759;-127.070;-246.949;-127.032;-280.961;-99.763;-82.739;-110.231
4753865.054;-192.449;-113.472;-229.403;-113.882;-260.063;-91.717;-73.463;-102.110
4753865.062;-186.302;-108.667;-220.016;-113.025;-246.987;-85.793;-65.640;-95.367
4753865.070;-180.788;-103.004;-216.253;-110.567;-254.363;-78.939;-61.542;-80.615
4753865.078;-169.650;-92.685;-204.258;-102.073;-241.995;-62.250;-41.388;-53.272
4753865.086;-161.827;-83.521;-195.876;-93.430;-233.129;-53.197;-18.440;-50.403
4753865.094;-181.794;-105.463;-212.900;-118.054;-250.600;-85.346;-53.197;-91.270
4753865.102;-166.558;-92.462;-193.976;-107.475;-229.590;-74.133;-48.205;-57.556
4753865.110;-168.160;-93.244;-197.403;-109.226;-234.656;-81.658;-28.759;-88.960
4753865.118;-185.780;-110.455;-210.814;-130.795;-248.589;-110.939;-90.152;-124.611
4753865.126;-207.610;-130.683;-225.715;-158.250;-260.696;-124.946;-113.808;-138.916
4753865.106;-193.082;-114.217;-205.785;-153.966;-242.367;-110.418;-104.606;-113.659
4753865.114;-183.024;-98.795;-190.623;-148.378;-228.360;-96.895;-83.931;-97.640
4753865.122;-180.006;-93.244;-185.519;-156.760;-223.704;-88.327;-71.228;-84.080
4753865.130;-177.063;-84.043;-184.886;-160.597;-240.840;-88.736;-77.039;-90.115
4753865.138;-192.039;-98.273;-193.417;-188.835;-237.823;-90.189;-77.039;-98.050
4753865.146;-171.587;-69.328;-172.667;-165.030;-218.377;-84.117;-82.999;-83.223
4753865.154;-153.519;-42.655;-166.558;-143.535;-235.029;-84.005;-80.056;-85.495
4753865.162;-141.338;-21.458;-164.509;-121.556;-229.850;-80.317;-70.818;-83.558
4753865.170;-135.899;-13.784;-164.732;-116.006;-229.217;-74.506;-64.373;-75.586
4753865.178;-151.359;-31.479;-182.390;-133.812;-245.087;-83.633;-75.549;-86.315
4753865.186;-168.532;-44.256;-202.209;-146.255;-256.151;-78.529;-71.377;-78.268
4753865.194;-183.433;-61.356;-218.526;-164.025;-266.172;-88.587;-84.527;-88.438
4753865.202;-193.529;-74.804;-231.676;-179.000;-273.734;-99.838;-93.132;-101.589
4753865.210;-192.560;-76.555;-235.252;-179.671;-275.113;-102.855;-93.095;-104.792
4753865.218;-187.494;-74.953;-235.736;-171.214;-274.256;-96.597;-85.272;-102.110
4753865.226;-183.992;-73.686;-236.519;-164.546;-272.356;-95.405;-85.048;-102.930
4753865.234;-177.138;-69.514;-231.229;-154.525;-265.427;-89.817;-81.658;-95.516
4753865.242;-167.564;-65.640;-223.033;-146.627;-257.194;-78.306;-73.574;-86.129
4753865.250;-172.257;-74.282;-228.286;-151.359;-262.074;-77.635;-75.735;-88.662
4753865.258;-169.761;-76.629;-224.635;-150.427;-263.341;-80.504;-82.254;-93.058
4753865.266;-156.537;-69.179;-212.640;-140.071;-259.206;-78.529;-80.056;-93.728
4753865.274;-132.807;-49.546;-188.425;-114.813;-243.522;-65.230;-60.499;-81.360
4753865.282;-119.880;-40.717;-173.189;-101.514;-235.885;-64.559;-59.940;-76.965
4753865.290;-109.896;-30.138;-156.760;-91.568;-237.636;-69.775;-63.516;-80.541
4753865.227;-101.030;-23.767;-141.934;-83.894;-239.573;-72.084;-62.920;-81.360
4753865.235;-88.699;-14.976;-127.032;-72.829;-226.907;-63.777;-53.123;-74.729
4753865.243;-102.967;-32.075;-142.008;-87.172;-244.901;-67.614;-57.817;-80.466
4753865.251;-96.820;-25.630;-134.222;-75.027;-243.112;-67.018;-60.052;-73.090
4753865.259;-82.329;-10.505;-121.146;-51.484;-241.958;-76.219;-68.098;-84.899
4753865.267;-94.473;-24.438;-136.867;-53.309;-262.707;-74.133;-68.545;-84.303
4753865.275;-94.920;-23.097;-140.220;-44.890;-272.654;-61.914;-54.426;-73.574
4753865.283;-92.797;-21.085;-138.320;-39.488;-272.915;-52.825;-41.500;-67.651
4753865.291;-100.322;-28.349;-143.424;-45.262;-280.887;-61.654;-53.719;-76.853
4753865.299;-97.901;-26.003;-138.991;-42.170;-282.079;-66.608;-61.020;-81.509
4753865.307;-88.774;-22.799;-127.032;-37.812;-271.052;-61.318;-56.624;-76.629
4753865.315;-78.380;-14.715;-116.155;-28.051;-261.255;-53.793;-49.062;-69.849
4753865.323;-69.067;-7.339;-108.592;-19.558;-251.606;-46.194;-41.611;-65.714
4753865.331;-64.038;-3.465;-104.867;-13.076;-242.256;-43.549;-37.737;-64.969
4753865.339;-61.728;-2.868;-102.334;-12.703;-235.103;-43.847;-41.276;-63.814
4753865.347;-65.714;-10.617;-105.314;-17.919;-239.573;-47.237;-44.517;-66.385
4753865.355;-65.304;-9.798;-101.216;-15.758;-235.215;-49.323;-50.142;-66.236
4753865.363;-58.636;-2.049;-90.860;-9.984;-226.349;-44.294;-42.841;-62.734
4753865.371;-59.120;-2.831;-90.897;-6.966;-225.678;-44.852;-42.059;-66.236
4753865.379;-58.822;-2.719;-87.656;-7.153;-220.835;-44.852;-44.480;-67.577
4753865.387;-55.470;0.224;-82.478;-5.364;-212.938;-40.308;-34.422;-64.671
4753865.395;-50.589;4.768;-76.927;-0.224;-196.919;-37.290;-32.447;-61.207
4753865.403;-52.080;1.527;-79.125;-2.198;-199.229;-38.370;-32.745;-62.101
4753865.411;-62.138;-8.978;-87.731;-11.958;-203.513;-43.921;-39.004;-65.900
4753865.377;-72.233;-18.515;-96.522;-19.073;-207.014;-45.188;-39.786;-67.800
4753865.385;-71.451;-19.856;-95.852;-19.595;-199.303;-41.872;-35.726;-65.714
4753865.393;-66.906;-16.242;-98.646;-13.821;-208.393;-43.884;-41.947;-65.565
4753865.401;-54.054;-5.253;-86.650;-1.900;-191.294;-38.184;-35.465;-59.865
4753865.409;-58.226;-11.735;-92.015;-7.078;-189.692;-42.990;-38.892;-64.969
4753865.417;-58.264;-11.772;-91.307;-6.519;-178.702;-41.611;-37.886;-62.510
4753865.425;-58.450;-10.580;-94.883;-3.912;-183.880;-42.319;-37.029;-61.691
4753865.433;-51.521;-7.935;-93.058;-2.161;-180.043;-43.698;-38.929;-60.722
4753865.441;-48.093;-7.339;-89.146;-1.341;-171.438;-41.015;-37.551;-58.115
4753865.449;-50.142;-9.425;-96.560;1.229;-175.722;-36.582;-33.155;-54.576
4753865.457;-53.793;-16.950;-102.967;-2.868;-174.753;-35.465;-36.284;-52.601
4753865.465;-42.841;-7.302;-95.963;8.829;-158.660;-26.412;-27.642;-44.219
4753865.473;-42.431;-6.482;-97.193;11.362;-162.758;-25.667;-28.461;-44.815
4753865.481;-46.827;-12.368;-102.855;7.413;-170.358;-22.389;-21.979;-44.107
4753865.489;-50.813;-14.603;-107.549;7.451;-169.910;-19.819;-15.721;-43.400
4753865.497;-52.191;-18.328;-110.976;5.960;-164.807;-20.936;-15.683;-45.002
4753865.505;-56.103;-24.661;-119.805;-0.149;-171.475;-27.716;-24.363;-49.286
4753865.513;-54.277;-22.464;-120.066;3.763;-168.383;-28.238;-25.630;-48.429
4753865.521;-53.272;-21.867;-118.129;3.502;-164.136;-29.095;-28.759;-51.670
4753865.529;-47.758;-16.317;-109.337;10.096;-157.431;-27.269;-26.226;-48.876
4753865.537;-45.598;-14.119;-108.555;12.293;-153.929;-28.089;-26.450;-47.497
4753865.545;-42.878;-13.448;-105.277;13.188;-152.737;-34.794;-34.310;-53.197
4753865.553;-41.164;-12.368;-102.036;13.076;-147.820;-33.490;-29.616;-51.036
4753865.561;-44.368;-12.368;-106.245;14.268;-151.843;-27.418;-19.707;-46.305
4753865.541;-46.380;-15.385;-109.151;11.325;-155.531;-30.845;-21.867;-48.503
4753865.549;-45.188;-15.944;-106.916;11.995;-149.570;-37.104;-29.057;-53.048
4753865.557;-44.629;-14.827;-108.369;15.013;-156.835;-37.663;-29.393;-52.974
4753865.565;-41.351;-13.225;-107.139;16.876;-155.792;-32.596;-26.003;-49.993
4753865.573;-40.494;-14.082;-102.706;14.678;-146.888;-26.859;-23.209;-44.219
4753865.581;-43.586;-15.646;-104.159;15.534;-143.722;-21.458;-21.048;-36.880
4753865.589;-53.197;-23.432;-113.249;6.333;-156.127;-24.103;-27.642;-41.761
4753865.597;-54.091;-27.195;-116.713;4.135;-157.729;-25.705;-29.542;-42.953
4753865.605;-51.558;-27.679;-115.559;2.794;-152.513;-27.381;-30.436;-42.021
4753865.613;-50.738;-25.630;-114.329;3.837;-152.029;-26.897;-28.126;-41.276
4753865.621;-46.119;-19.670;-110.827;9.164;-149.645;-23.432;-22.948;-38.333
4753865.629;-47.274;-20.228;-111.088;7.041;-145.435;-23.618;-29.504;-37.141
4753865.637;-45.411;-19.260;-110.790;6.147;-145.175;-18.068;-22.911;-32.336
4753865.645;-41.761;-16.354;-108.182;7.115;-143.573;-9.388;-10.319;-26.040
4753865.653;-41.611;-17.062;-110.716;6.631;-149.123;-9.909;-13.746;-28.647
4753865.661;-43.362;-18.403;-115.000;4.992;-153.370;-12.852;-17.583;-32.037
4753865.669;-38.035;-12.629;-108.369;10.990;-147.074;-8.717;-14.007;-26.971
4753865.677;-36.173;-10.431;-106.022;12.442;-144.169;-3.651;-8.643;-20.862
4753865.685;-43.474;-14.417;-114.739;6.780;-151.433;-1.118;-8.531;-18.328
4753865.693;-47.535;-17.770;-112.988;1.118;-140.257;1.676;-3.725;-15.572
4753865.701;-29.616;-10.170;-88.252;1.751;-121.444;-13.448;-17.360;-28.387
4753865.709;-30.398;-15.795;-80.764;-13.411;-116.713;-22.836;-25.481;-37.067
4753865.717;-28.536;-19.856;-68.024;-25.406;-91.717;-24.661;-27.567;-38.892
4753865.725;-28.983;-24.959;-61.169;-41.090;-73.276;-30.026;-37.551;-43.996
4753865.826;-33.863;-34.012;-59.903;-57.369;-68.843;-28.983;-35.726;-43.213
4753865.834;-40.643;-43.400;-62.995;-68.992;-67.763;-31.479;-37.178;-44.666
4753865.842;-42.804;-44.815;-63.479;-72.345;-69.290;-25.593;-31.926;-38.855
4753865.850;-45.821;-47.646;-65.304;-76.629;-63.963;-19.446;-27.604;-33.677
4753865.858;-50.031;-49.844;-69.551;-78.715;-73.016;-21.979;-31.516;-37.849
4753865.866;-52.229;-53.681;-70.781;-81.696;-72.718;-24.848;-37.588;-39.674
4753865.874;-48.764;-55.656;-68.247;-85.533;-65.714;-22.911;-36.359;-34.682
4753865.882;-47.348;-52.378;-69.365;-82.105;-67.912;-17.211;-28.871;-29.877
4753865.890;-48.019;-52.229;-69.924;-80.839;-68.136;-15.907;-26.897;-29.691
4753865.898;-51.484;-57.481;-72.271;-86.613;-69.104;-11.213;-28.424;-27.418
4753865.906;-52.527;-58.301;-74.580;-86.538;-71.488;-8.568;-30.845;-27.493
4753865.914;-47.535;-52.266;-70.892;-77.561;-66.012;-4.657;-27.232;-23.283
4753865.922;-49.770;-53.383;-75.623;-74.618;-67.279;-5.662;-23.842;-25.146
4753865.930;-52.303;-56.848;-78.231;-78.231;-70.371;-13.486;-25.965;-32.745
4753865.938;-49.546;-55.395;-75.586;-76.853;-68.098;-17.099;-24.103;-34.124
4753865.946;-46.231;-53.570;-73.314;-73.649;-64.671;-19.744;-22.650;-33.788
4753865.954;-44.778;-53.905;-70.296;-73.761;-53.197;-24.959;-27.083;-33.639
4753865.962;-50.180;-56.550;-76.480;-76.853;-67.018;-29.653;-33.751;-34.720
4753865.970;-54.203;-62.473;-81.360;-80.056;-72.047;-31.702;-38.259;-35.912
4753865.978;-56.215;-62.957;-81.398;-82.552;-69.588;-27.977;-36.024;-33.192
4753865.986;-57.071;-62.399;-82.217;-83.558;-70.184;-15.981;-26.710;-26.971
4753865.994;-55.134;-60.126;-80.913;-79.498;-65.304;-4.768;-19.632;-20.117
4753866.002;-56.811;-60.350;-81.062;-76.853;-56.252;-0.075;-17.807;-16.689
4753866.010;-67.614;-71.451;-94.548;-88.923;-83.372;-4.694;-21.048;-21.979
4753866.111;-69.812;-72.829;-94.362;-90.078;-82.813;-2.496;-17.621;-18.403
4753866.119;-69.328;-72.643;-93.021;-88.736;-75.884;0.186;-12.964;-13.821
4753866.127;-69.551;-71.302;-96.858;-87.842;-74.804;-4.210;-17.211;-15.274
4753866.135;-62.734;-63.255;-81.062;-78.380;-62.510;-7.488;-18.738;-17.583
4753866.143;-63.591;-65.304;-82.999;-80.802;-68.136;-8.456;-15.721;-22.724
4753866.151;-68.024;-70.035;-89.146;-85.123;-71.488;-8.754;-17.770;-22.762
4753866.159;-72.233;-72.420;-91.828;-87.395;-68.285;-8.345;-18.999;-22.240
4753866.167;-67.651;-70.818;-87.731;-84.192;-61.281;-10.654;-19.930;-23.842
4753866.175;-64.261;-65.863;-85.197;-79.647;-66.981;-7.302;-14.342;-20.452
4753866.183;-64.857;-67.763;-84.974;-80.056;-65.528;-4.508;-12.368;-16.242
4753866.191;-65.640;-66.832;-84.266;-81.435;-63.218;-6.258;-17.099;-17.509
4753866.199;-60.983;-60.163;-80.094;-71.898;-59.567;-3.427;-14.193;-13.225
4753866.207;-60.536;-58.822;-78.008;-73.314;-54.203;-5.029;-14.678;-14.082
4753866.215;-59.754;-56.364;-76.853;-71.600;-51.558;-3.614;-11.437;-12.703
4753866.223;-60.685;-58.487;-76.406;-69.663;-58.040;-7.115;-14.380;-15.460
4753866.231;-64.448;-60.834;-78.604;-71.712;-59.754;-9.984;-20.713;-16.727
4753866.239;-64.485;-59.456;-76.257;-69.588;-52.191;-8.568;-17.434;-15.199
4753866.247;-64.112;-58.301;-78.157;-68.769;-57.146;-6.706;-13.337;-15.497
4753866.255;-65.379;-57.891;-79.386;-67.465;-56.848;-6.557;-13.709;-16.242
4753866.263;-70.892;-64.820;-82.068;-72.941;-56.811;-9.872;-18.030;-18.217
4753866.271;-75.139;-68.508;-83.335;-76.704;-59.679;-10.096;-19.036;-18.887
4753866.279;-71.041;-60.275;-76.704;-66.198;-51.484;-3.800;-13.374;-13.746
4753866.287;-65.528;-55.246;-74.953;-61.914;-52.378;-5.290;-14.529;-12.703
4753866.295;-72.233;-62.622;-83.707;-70.147;-62.957;-18.924;-25.332;-25.593
4753866.337;-71.488;-63.814;-81.584;-71.712;-60.312;-21.979;-25.705;-29.653
4753866.345;-70.259;-64.112;-78.827;-72.345;-56.513;-19.111;-23.767;-26.152
4753866.353;-68.769;-61.356;-73.537;-71.228;-51.036;-14.342;-21.309;-21.830
4753866.361;-63.665;-55.283;-67.875;-65.342;-40.829;-9.127;-17.956;-15.795
4753866.369;-64.671;-54.054;-68.657;-64.038;-42.729;-9.164;-18.850;-14.529
4753866.377;-74.208;-64.038;-77.225;-74.841;-58.524;-13.299;-23.209;-18.589
4753866.385;-76.406;-63.404;-77.635;-73.388;-57.034;-12.070;-21.718;-19.781
4753866.393;-75.400;-61.058;-75.810;-71.228;-52.936;-9.723;-18.068;-18.366
4753866.401;-76.741;-62.622;-76.629;-70.110;-56.736;-10.207;-16.466;-18.030
4753866.409;-74.767;-56.997;-72.233;-65.975;-53.979;-9.313;-15.050;-15.832
4753866.417;-79.311;-59.903;-77.486;-71.824;-60.908;-12.927;-20.005;-19.185
4753866.425;-77.337;-61.579;-79.907;-67.838;-63.889;-14.156;-24.252;-18.887
4753866.433;-74.208;-57.928;-73.500;-64.000;-55.917;-9.649;-20.526;-14.454
4753866.441;-75.996;-55.619;-73.351;-64.373;-60.610;-7.451;-16.093;-13.337
4753866.449;-78.194;-56.364;-73.388;-65.193;-67.055;-4.135;-9.872;-13.337
4753866.457;-83.260;-62.250;-77.374;-69.924;-64.299;-3.092;-7.898;-12.405
4753866.465;-86.091;-65.267;-77.933;-71.749;-61.430;-1.267;-6.780;-9.015
4753866.473;-88.736;-66.422;-79.758;-72.345;-63.591;-1.676;-7.898;-9.872
4753866.481;-90.562;-69.998;-80.839;-76.070;-63.591;-3.502;-11.288;-11.660
4753866.489;-88.736;-65.267;-77.412;-70.296;-56.513;-0.782;-9.127;-7.302
4753866.497;-86.613;-61.207;-76.219;-67.763;-57.705;1.416;-6.370;-5.886
4753866.505;-90.189;-63.628;-81.249;-71.637;-63.330;-3.017;-11.623;-9.872
4753866.513;-90.599;-64.112;-78.939;-71.004;-55.805;-5.476;-13.560;-7.972
4753866.521;-89.929;-66.049;-75.139;-73.537;-51.446;-6.035;-12.703;-8.158
4753866.547;-85.905;-59.083;-71.041;-67.130;-52.266;1.825;-5.290;-3.166
4753866.555;-77.598;-49.137;-62.510;-57.667;-42.245;7.264;-1.602;-0.186
4753866.563;-80.913;-53.346;-65.602;-62.734;-45.933;1.304;-5.998;-7.041
4753866.571;-86.352;-59.903;-71.414;-69.886;-48.801;-5.811;-9.350;-13.970
4753866.579;-87.619;-59.530;-71.004;-70.482;-43.362;-8.680;-12.964;-15.944
4753866.587;-81.919;-52.862;-61.728;-59.754;-32.820;-7.041;-11.437;-16.429
4753866.595;-79.423;-48.988;-56.699;-60.685;-39.227;-6.407;-9.052;-14.976
4753866.603;-80.094;-49.137;-56.103;-61.318;-37.886;-3.688;-6.966;-10.170
4753866.611;-84.639;-55.358;-64.112;-65.975;-37.774;-1.341;-5.290;-6.966
4753866.619;-72.643;-42.729;-47.311;-53.532;-26.971;6.407;5.625;1.416
4753866.627;-73.649;-38.669;-50.180;-49.658;-33.937;10.543;9.313;6.109
4753866.635;-98.199;-62.659;-76.145;-74.171;-55.060;3.092;-0.708;-1.490
4753866.643;-93.952;-63.851;-64.634;-76.741;-39.190;-8.009;-13.150;-12.070
4753866.651;-85.942;-59.381;-45.151;-79.647;-16.652;-10.766;-19.297;-13.858
4753866.659;-80.355;-59.865;-35.428;-88.066;2.608;-8.643;-20.266;-10.096
4753866.667;-79.311;-60.610;-23.618;-97.379;19.185;-12.256;-25.518;-11.623
4753866.675;-82.515;-66.534;-14.268;-105.500;36.508;-18.291;-31.926;-16.205
4753866.683;-78.790;-62.995;-0.857;-106.543;57.481;-12.442;-23.134;-10.692
4753866.691;-97.267;-82.329;-10.766;-131.764;54.799;-22.016;-32.187;-22.240
4753866.699;-136.606;-126.176;-45.858;-179.037;30.324;-51.446;-62.846;-50.813
4753866.707;-120.290;-107.884;-27.716;-167.489;53.868;-24.885;-37.998;-24.363
4753866.715;-77.076;-60.536;19.409;-116.676;99.801;24.289;11.846;21.681
4753866.723;-93.095;-75.735;4.023;-131.577;89.519;8.419;-4.321;7.525
4753866.731;-103.749;-85.086;-6.221;-142.567;77.225;0.373;-11.884;-2.868
4753866.757;-104.532;-87.172;-9.611;-144.951;73.239;2.012;-13.039;-1.527
4753866.765;-105.016;-88.140;-12.703;-145.771;67.353;4.992;-12.703;2.421
4753866.773;-107.363;-88.327;-15.236;-143.722;66.794;5.104;-14.715;3.986
4753866.781;-110.753;-89.966;-15.944;-144.094;63.330;5.178;-13.933;2.757
4753866.789;-112.318;-90.934;-15.534;-143.796;63.926;14.231;-7.078;10.915
4753866.797;-119.135;-96.932;-24.736;-150.278;52.303;11.288;-12.666;9.611
4753866.805;-122.041;-94.324;-30.063;-150.315;48.652;14.789;-6.557;9.760
4753866.813;-123.158;-95.330;-31.926;-146.404;47.162;17.509;-0.112;12.740
4753866.821;-118.874;-93.021;-23.507;-142.194;48.950;18.813;6.258;15.125
4753866.829;-118.501;-88.029;-26.412;-140.481;46.566;15.087;8.084;13.411
4753866.837;-125.840;-92.089;-34.422;-142.045;34.608;10.841;3.837;12.815
4753866.845;-122.115;-83.260;-29.318;-134.110;36.396;16.652;10.058;18.813
4753866.853;-110.269;-75.586;-21.569;-128.634;41.239;19.222;11.995;20.377
4753866.861;-98.795;-64.671;-8.047;-119.358;51.744;27.642;18.552;28.238
4753866.869;-103.191;-68.992;-10.878;-123.270;46.715;28.498;17.360;27.493
4753866.877;-108.518;-73.090;-16.205;-126.138;39.227;25.220;12.815;23.879
4753866.885;-107.624;-72.159;-14.827;-125.132;37.663;26.077;11.846;24.922
4753866.893;-109.524;-74.022;-17.434;-125.654;36.582;23.581;7.227;21.979
4753866.901;-106.469;-69.886;-14.268;-123.568;42.617;30.734;12.033;25.928
4753866.909;-106.171;-67.614;-14.976;-120.252;39.749;34.496;16.540;26.375
4753866.917;-104.420;-66.049;-13.597;-116.378;40.308;28.759;12.591;22.464
4753866.925;-104.010;-65.900;-7.153;-116.639;44.592;28.796;13.523;23.209
4753866.933;-120.588;-84.601;-23.581;-133.328;29.951;16.727;3.651;10.058
4753866.941;-144.467;-108.927;-51.111;-158.884;5.141;-8.792;-22.911;-13.262
4753866.965;-113.361;-73.873;-23.246;-122.376;36.098;19.260;2.272;16.764
4753866.973;-59.381;-21.234;37.365;-66.347;87.321;70.855;55.507;67.167
4753866.981;-71.004;-32.000;27.642;-77.970;78.008;60.126;45.523;55.954
4753866.989;-88.699;-49.956;8.717;-96.448;56.997;42.953;28.610;38.557
4753866.997;-91.903;-55.134;5.141;-101.253;57.966;39.302;25.257;33.490
4753867.005;-93.021;-57.332;5.327;-102.445;59.083;36.210;21.383;29.877
4753867.013;-93.915;-56.848;2.794;-102.110;58.562;31.665;19.260;26.748
4753867.021;-89.668;-50.776;5.811;-97.342;60.499;28.051;20.750;23.469
4753867.029;-91.009;-50.850;4.917;-97.230;62.212;26.412;21.048;23.879
4753867.037;-91.605;-51.893;5.700;-95.479;58.934;23.358;15.721;20.713
4753867.045;-89.370;-48.876;7.860;-91.791;61.356;22.128;11.921;18.142
4753867.053;-88.736;-45.896;8.754;-87.954;61.020;24.028;15.385;20.415
4753867.061;-89.742;-40.941;6.668;-80.727;62.436;24.587;18.962;19.893
4753867.069;-89.705;-40.643;7.823;-79.721;63.404;28.908;23.283;23.320
4753867.077;-88.327;-39.563;10.431;-79.162;63.926;32.745;25.444;27.716
4753867.085;-87.880;-38.818;10.915;-78.380;65.304;34.459;27.865;28.647
4753867.093;-92.126;-42.692;7.153;-80.690;59.642;29.169;22.501;22.650
4753867.101;-87.023;-38.296;10.394;-76.927;65.975;34.273;26.040;27.828
4753867.109;-82.739;-36.024;16.093;-75.363;78.529;37.029;28.200;32.075
4753867.117;-86.129;-36.322;15.981;-76.815;73.537;35.688;27.753;33.490
4753867.125;-83.894;-35.092;16.913;-77.225;69.663;40.196;35.986;36.508
4753867.133;-90.301;-40.643;11.064;-84.043;67.838;38.072;30.138;35.577
4753867.141;-90.748;-39.376;8.382;-85.868;68.694;35.353;26.934;34.235
4753867.149;-90.376;-37.886;7.264;-81.807;67.502;30.175;24.214;28.946
4753867.157;-88.848;-33.379;12.517;-79.349;72.531;29.989;26.450;29.504
4753867.165;-87.507;-30.883;12.740;-79.162;70.743;32.596;29.355;32.522
4753867.173;-86.688;-30.622;12.182;-79.311;70.520;32.000;28.089;30.734
4753867.181;-84.527;-28.349;14.938;-71.749;72.569;31.404;29.057;29.691
4753867.163;-80.876;-25.444;20.117;-66.906;78.641;30.026;29.206;27.642
4753867.171;-79.274;-22.613;20.862;-67.614;78.939;31.441;31.032;28.014
4753867.179;-75.921;-14.640;23.954;-64.522;78.268;36.769;35.018;33.751
4753867.187;-76.219;-13.448;24.959;-61.020;78.417;40.978;37.588;37.290
4753867.195;-78.455;-16.391;23.395;-62.063;76.443;41.164;36.210;36.806
4753867.203;-80.429;-17.732;21.197;-64.895;72.308;37.178;31.255;33.826
4753867.211;-78.864;-15.087;24.214;-61.691;74.282;38.594;34.198;36.806
4753867.219;-74.804;-8.121;27.381;-54.725;74.655;45.858;41.761;45.449
4753867.227;-77.672;-11.101;25.332;-59.344;73.723;40.568;35.875;39.898
4753867.235;-78.231;-13.039;22.352;-63.926;74.655;36.955;32.485;36.955
4753867.243;-77.672;-12.331;27.716;-63.889;78.082;34.086;31.330;33.826
4753867.251;-77.784;-16.391;26.450;-65.900;73.276;30.473;28.796;31.330
4753867.259;-84.080;-20.228;21.197;-66.683;66.385;27.344;24.773;30.100
4753867.267;-86.986;-19.930;20.079;-69.551;65.304;28.498;26.077;29.281
4753867.275;-80.317;-14.342;26.859;-64.634;70.110;33.043;29.393;33.490
4753867.283;-75.623;-10.394;32.932;-57.817;74.841;34.347;27.977;36.620
4753867.291;-74.022;-8.717;33.937;-55.842;75.996;32.261;26.040;34.496
4753867.299;-72.867;-6.743;33.230;-54.911;75.810;32.894;26.636;33.900
4753867.307;-80.243;-17.360;25.034;-67.130;64.448;33.006;26.673;34.273
4753867.315;-78.790;-11.250;23.544;-54.501;58.077;32.596;25.481;32.112
4753867.323;-48.056;23.209;45.970;-12.331;69.253;37.178;30.771;36.322
4753867.331;-40.792;37.327;40.196;9.798;53.160;35.912;28.796;38.520
4753867.339;-27.046;56.066;39.674;39.414;42.580;38.669;34.645;42.208
4753867.347;-13.784;70.855;42.021;62.585;35.577;45.039;43.511;44.443
4753867.343;-6.594;84.043;38.520;82.105;22.650;48.950;47.311;45.374
4753867.351;-8.866;87.172;28.051;94.771;2.943;42.878;42.319;37.104
4753867.359;-15.423;85.123;15.721;94.883;-13.113;34.608;36.918;32.447
4753867.367;-21.346;83.372;9.723;92.648;-19.372;33.379;34.198;31.777
4753867.375;-21.346;80.466;10.133;85.533;-20.266;35.875;37.439;32.969
4753867.383;-24.550;75.027;9.723;76.480;-21.830;36.880;37.029;35.018
4753867.391;-31.143;67.204;6.929;68.359;-22.762;36.284;36.322;33.192
4753867.399;-34.459;64.038;3.539;62.548;-24.028;33.304;33.602;27.791
4753867.407;-34.086;64.299;6.333;60.685;-19.297;30.138;29.989;23.171
4753867.415;-41.053;59.865;5.066;52.191;-24.959;27.046;25.220;22.016
4753867.423;-44.294;57.407;3.166;46.641;-26.748;34.012;30.883;28.983
4753867.431;-45.411;56.922;5.960;44.443;-24.959;39.227;36.135;33.975
4753867.439;-48.801;52.862;3.539;38.296;-27.716;32.820;27.753;28.238
4753867.447;-48.280;53.458;4.396;40.121;-22.538;32.559;29.653;25.593
4753867.455;-48.354;53.793;4.061;39.749;-21.942;29.840;29.020;21.458
4753867.463;-47.497;54.725;6.482;39.972;-21.644;40.308;43.027;32.783
4753867.471;-49.025;52.862;8.903;35.204;-18.664;38.631;44.629;28.796
4753867.479;-48.801;54.203;10.394;36.024;-14.231;44.703;52.489;37.551
4753867.487;-40.084;63.106;19.968;43.102;-1.937;55.693;67.130;45.300
4753867.495;-34.124;70.184;25.854;50.366;4.545;64.299;72.718;55.544
4753867.503;-36.135;68.471;24.512;46.790;4.992;63.106;63.330;58.748
4753867.511;-41.649;63.330;17.956;40.606;0.931;67.987;66.981;61.840
4753867.519;-39.078;67.428;24.401;43.772;7.525;75.847;78.306;71.265
4753867.527;-50.627;54.874;15.572;31.888;-0.931;67.875;67.912;57.071
4753867.537;-47.497;57.332;21.122;33.528;4.470;62.808;55.544;55.917
4753867.545;-37.476;71.824;33.565;45.858;17.807;79.274;73.723;75.810
4753867.553;-30.696;79.498;43.251;52.601;28.461;87.842;85.756;84.378
4753867.561;-26.599;81.994;49.733;52.527;35.465;93.766;90.338;91.195
4753867.569;-31.143;78.045;45.449;47.535;30.808;92.350;83.782;88.178
4753867.577;-20.340;87.284;56.587;56.177;44.368;101.626;84.266;98.571
4753867.585;-14.901;93.654;62.026;62.808;48.988;108.220;91.195;101.365
4753867.593;-10.245;98.981;66.273;68.806;49.733;101.291;86.203;94.585
4753867.601;6.445;114.106;86.352;83.521;71.935;104.047;90.748;94.995
4753867.609;12.107;117.682;95.889;86.017;81.472;108.145;97.603;100.322
4753867.617;20.638;122.860;105.686;92.089;87.023;107.549;98.757;101.589
4753867.625;34.384;137.389;120.401;109.151;96.262;106.767;92.164;100.695
4753867.633;54.017;157.095;139.810;130.944;114.664;110.790;99.018;103.973
4753867.641;84.676;186.078;169.650;162.721;134.036;113.733;101.104;108.629
4753867.649;106.320;205.636;189.617;183.955;140.443;109.598;96.001;105.724
4753867.657;131.875;232.682;214.614;217.743;154.972;108.369;93.207;105.910
4753867.665;184.849;291.206;258.721;282.973;182.241;113.957;99.763;110.380
4753867.673;229.850;336.766;298.768;333.674;203.326;118.427;108.033;113.025
4753867.681;280.216;388.883;342.578;390.746;225.566;120.364;109.337;112.280
4753867.689;318.363;423.752;372.604;425.763;237.860;125.915;114.739;115.372
4753867.697;341.311;442.863;391.305;447.370;243.112;122.637;115.670;112.057
4753867.705;360.310;460.185;407.696;466.444;253.804;122.413;120.513;112.541
4753867.713;367.761;464.357;411.160;471.845;252.984;122.003;124.685;111.163
4753867.721;370.294;460.856;412.390;466.295;257.678;114.851;114.068;105.686
4753867.805;369.921;455.938;408.888;461.712;257.641;113.733;110.194;104.532
4753867.813;372.641;450.350;407.137;458.583;255.294;107.959;102.632;100.769
4753867.821;374.131;446.849;405.945;455.976;261.329;104.047;102.744;96.895
4753867.829;375.882;444.911;401.326;455.566;254.996;104.010;105.985;95.963
4753867.837;375.658;441.596;397.973;452.027;252.426;101.253;106.692;92.536
4753867.845;377.260;439.398;396.669;449.866;253.692;96.783;102.855;89.705
4753867.853;376.403;435.524;393.875;446.476;251.830;93.542;99.018;88.401
4753867.861;374.205;430.308;391.230;439.361;251.867;95.405;99.167;90.040
4753867.869;368.953;423.864;383.742;433.139;246.167;95.032;96.187;87.842
4753867.877;349.805;406.243;364.371;416.152;233.166;88.513;90.785;77.523
4753867.885;335.351;391.379;350.028;402.853;220.239;84.266;89.034;72.829
4753867.893;319.369;370.592;335.574;380.538;216.886;85.160;91.791;72.904
4753867.901;302.270;353.120;316.761;360.794;210.106;86.762;93.170;76.145
4753867.909;275.820;325.181;289.455;329.986;191.033;80.764;87.507;71.563
4753867.917;256.114;303.276;270.680;305.250;182.055;79.386;86.911;68.508
4753867.925;236.593;280.365;251.867;279.769;172.183;81.211;85.235;70.035
4753867.933;216.812;259.206;233.427;257.231;165.142;75.437;80.466;67.092
4753867.941;203.699;244.640;220.649;241.883;159.293;78.902;83.968;71.898
4753867.949;184.141;223.443;198.483;218.078;146.702;80.131;81.919;71.451
4753867.957;162.125;203.960;177.473;197.440;135.936;78.157;80.056;68.955
4753867.965;142.232;188.388;161.082;178.814;122.786;77.561;80.168;66.794
4753867.973;131.279;175.796;150.949;165.179;120.178;83.931;86.986;71.973
4753867.981;120.588;164.658;140.034;154.339;118.576;87.731;86.501;78.268
4753867.989;111.386;155.084;129.119;145.435;114.329;88.848;92.164;81.733
4753867.971;107.586;155.047;124.872;145.696;115.335;89.593;97.118;79.572
4753867.979;99.130;147.745;117.011;136.569;111.200;97.677;103.787;85.942
4753867.987;92.909;140.183;110.120;128.299;110.567;105.314;102.744;94.585
4753867.995;80.578;127.479;96.671;117.309;102.669;94.213;88.662;81.733
4753868.003;76.815;123.046;94.175;113.472;107.400;94.846;91.977;84.005
4753868.011;73.947;120.141;90.227;107.810;105.947;95.069;92.499;83.968
4753868.019;70.073;117.049;84.788;105.835;107.177;101.998;99.689;89.519
4753868.027;66.757;114.068;82.180;102.073;107.586;109.226;105.202;98.571
4753868.035;61.542;109.971;79.721;97.826;109.784;109.859;107.028;99.838
4753868.043;61.393;108.741;77.933;97.416;108.927;105.575;105.985;96.373
4753868.051;58.711;106.692;74.953;92.834;107.773;107.102;105.835;101.179
4753868.059;53.793;102.594;72.941;89.221;107.586;106.208;103.675;102.185
4753868.067;42.953;89.072;64.746;76.443;100.918;101.291;95.889;98.497
4753868.075;25.965;72.233;49.919;58.077;86.278;98.273;91.195;93.356
4753868.083;24.140;70.222;49.360;57.966;90.972;99.652;91.754;92.499
4753868.091;19.707;66.757;45.188;54.426;83.633;99.689;91.828;93.468
4753868.099;15.050;61.132;42.878;48.056;81.509;101.663;90.562;95.852
4753868.107;10.170;56.699;39.153;46.492;78.045;102.557;91.009;95.591
4753868.115;4.023;51.595;35.167;39.935;76.219;102.706;91.381;96.448
4753868.123;-7.413;40.829;24.997;30.920;63.144;95.889;85.272;91.344
4753868.131;-11.809;37.104;21.979;28.610;61.914;94.622;85.756;92.760
4753868.139;-12.368;37.365;20.936;30.845;59.828;91.642;81.472;92.797
4753868.147;-14.640;34.720;18.887;28.647;57.034;89.891;80.280;91.381
4753868.155;-11.437;37.700;22.724;31.851;61.244;91.679;84.788;91.717
4753868.106;-9.127;38.520;23.134;34.571;61.579;96.299;90.599;94.064
4753868.114;-12.927;34.384;20.117;32.075;56.252;96.932;89.034;94.548
4753868.122;-18.552;28.424;15.683;26.301;54.277;96.820;88.662;91.903
4753868.130;-19.334;28.126;12.219;27.679;47.833;94.771;87.917;90.487
4753868.138;-17.956;29.653;14.752;29.840;49.435;92.126;86.538;88.178
4753868.146;-19.297;28.536;12.554;30.547;49.397;96.522;91.456;95.330
4753868.154;-24.401;23.656;6.668;26.189;43.362;91.903;90.599;90.227
4753868.162;-23.060;24.810;8.009;29.244;47.125;93.654;94.250;89.295
4753868.170;-22.724;25.705;9.388;32.671;52.117;99.093;95.926;94.511
4753868.178;-21.085;23.320;10.543;30.063;49.211;102.445;98.087;97.863
4753868.186;-22.426;20.862;6.072;29.542;41.425;103.749;100.918;98.236
4753868.194;-19.111;23.358;10.543;32.634;47.088;107.251;104.420;101.812
4753868.202;-17.546;23.507;12.517;30.771;48.429;110.455;107.288;105.537
4753868.210;-17.211;25.332;12.144;33.267;45.449;111.870;109.971;105.835
4753868.218;-18.738;22.762;12.070;31.218;46.566;110.976;103.191;103.824
4753868.226;-19.073;21.085;12.666;30.622;47.944;117.868;109.412;112.578
4753868.234;-22.277;18.701;10.021;30.510;45.896;110.567;105.016;105.612
4753868.242;-21.383;17.546;8.605;28.983;43.809;102.073;98.161;94.920
4753868.250;-23.060;15.907;6.407;29.020;38.072;100.471;96.448;96.187
4753868.258;-21.756;16.503;10.580;30.100;42.357;101.328;96.150;100.099
4753868.266;-21.905;16.540;9.052;31.628;40.680;102.520;99.726;102.036
4753868.274;-21.495;18.068;9.947;33.900;45.747;102.483;103.004;100.695
4753868.282;-24.177;14.901;7.711;32.708;39.823;100.695;98.385;99.465
4753868.290;-27.604;10.207;6.072;27.418;35.986;97.379;95.889;96.112
4753868.241;-26.822;12.666;7.935;30.436;36.098;97.603;97.342;96.783
4753868.249;-29.095;8.307;7.227;21.979;39.116;93.207;93.468;92.946
4753868.257;-25.444;11.250;9.499;26.003;39.563;91.009;92.350;92.797
4753868.265;-27.306;11.101;10.170;25.891;38.333;89.779;93.542;91.679
4753868.273;-30.436;7.525;6.221;22.128;36.471;86.091;89.929;89.258
4753868.281;-28.275;10.282;6.258;26.189;38.184;87.023;92.722;90.785
4753868.289;-36.173;0.894;-0.708;18.068;30.808;84.266;87.656;90.152
4753868.297;-41.090;-4.135;-4.284;15.274;26.934;82.292;86.576;88.513
4753868.305;-37.774;1.080;-2.198;21.830;31.143;88.625;92.648;90.972
4753868.313;-36.806;1.453;-2.235;22.091;29.318;92.536;92.462;92.797
4753868.321;-38.445;-0.447;-3.949;19.558;24.997;92.871;93.952;92.350
4753868.329;-41.388;-2.719;-7.339;19.595;22.054;88.252;89.891;86.986
4753868.337;-38.333;1.974;-6.780;25.742;21.942;92.313;95.628;88.774
4753868.345;-43.027;-2.906;-9.909;19.409;18.775;90.264;95.293;87.954
4753868.353;-50.478;-11.250;-17.546;11.586;16.242;76.368;82.850;78.231
4753868.361;-51.521;-10.729;-18.738;12.517;14.342;69.737;79.349;70.818
4753868.369;-52.974;-15.199;-21.793;7.302;7.488;67.130;77.076;67.391
4753868.377;-51.856;-14.268;-20.266;8.494;11.660;66.161;72.829;65.491
4753868.385;-51.484;-13.560;-20.564;9.574;12.666;68.098;74.655;66.347
4753868.393;-53.160;-15.609;-22.165;7.227;9.686;67.204;71.265;66.049
4753868.401;-54.203;-16.615;-25.183;7.600;0.782;69.328;73.873;66.124
4753868.409;-56.438;-20.191;-23.842;1.788;8.121;69.141;74.096;66.049
4753868.417;-56.513;-18.813;-23.507;1.751;9.425;69.290;75.810;66.645
4753868.425;-65.118;-25.705;-33.565;-6.221;-0.298;71.079;72.718;68.322
4753868.436;-71.861;-33.043;-38.408;-14.491;-4.619;73.649;71.153;71.824
4753868.444;-58.934;-25.891;-18.962;-11.362;14.417;66.459;65.267;65.677
4753868.452;-58.450;-27.791;-17.397;-14.231;13.448;59.977;61.765;57.481
4753868.460;-56.885;-26.301;-16.019;-12.480;18.440;65.789;66.757;64.783
4753868.468;-56.699;-25.295;-15.125;-12.033;22.054;66.385;68.285;67.204
4753868.476;-65.602;-33.192;-26.748;-19.707;6.296;60.499;60.275;62.808
4753868.484;-71.004;-38.967;-31.069;-28.051;4.172;56.326;56.475;60.014
4753868.492;-68.434;-36.918;-28.387;-24.028;7.860;59.456;60.499;61.318
4753868.500;-63.926;-32.559;-25.555;-22.426;14.380;63.814;63.553;62.697
4753868.508;-65.491;-33.937;-29.355;-28.722;10.505;64.112;60.759;63.702
4753868.516;-63.740;-31.777;-26.897;-26.226;15.274;66.869;62.995;65.193
4753868.524;-64.373;-32.336;-27.120;-28.238;13.635;68.434;65.416;64.485
4753868.532;-70.333;-39.339;-34.980;-36.806;4.098;66.347;65.714;62.324
4753868.540;-70.147;-40.419;-34.049;-39.898;5.215;68.098;64.708;65.640
4753868.548;-66.347;-35.278;-29.802;-33.863;12.182;71.228;66.869;68.694
4753868.556;-69.365;-39.600;-32.485;-43.213;13.672;69.179;67.800;68.732
4753868.564;-74.580;-43.176;-39.972;-46.007;-3.017;65.938;65.863;67.540
4753868.572;-77.486;-46.305;-44.629;-50.031;-5.588;64.112;62.324;65.751
4753868.580;-74.096;-43.288;-42.506;-47.646;-1.118;69.290;66.161;70.147
4753868.588;-73.835;-43.102;-41.723;-47.758;0.447;70.930;66.385;69.998
4753868.596;-73.686;-44.778;-40.457;-50.552;4.806;69.365;64.336;67.689
4753868.604;-72.382;-42.021;-42.133;-47.423;-2.310;71.675;70.818;68.024
4753868.612;-73.649;-44.443;-45.523;-47.460;-8.494;65.789;64.597;62.324
4753868.620;-72.867;-43.325;-44.852;-47.609;-1.937;62.138;62.585;60.014
4753868.601;-71.041;-41.127;-43.660;-45.672;-2.421;63.106;64.857;59.828
4753868.609;-66.012;-37.700;-37.402;-42.133;10.319;65.491;64.857;62.473
4753868.617;-68.508;-40.047;-42.096;-47.125;-5.104;64.485;64.522;61.728
4753868.625;-67.726;-37.923;-40.680;-43.251;-0.373;65.230;67.651;61.765
4753868.633;-71.749;-42.692;-44.890;-49.546;-4.396;64.299;66.087;61.430
4753868.641;-71.861;-43.176;-46.045;-49.211;-3.949;62.808;64.559;60.946
4753868.649;-70.781;-43.064;-46.939;-50.031;-5.886;62.622;65.342;61.430
4753868.657;-72.308;-46.752;-48.168;-56.401;-4.806;62.622;63.963;61.914
4753868.665;-78.194;-53.532;-56.811;-61.244;-15.162;56.699;54.650;57.630
4753868.673;-78.008;-55.246;-55.917;-63.889;-11.176;52.266;52.229;54.538
4753868.681;-77.002;-53.607;-55.097;-62.361;-12.778;51.521;54.166;54.762
4753868.689;-81.398;-56.401;-60.536;-65.826;-21.197;47.721;49.509;52.117
4753868.697;-80.317;-54.687;-59.493;-63.367;-17.583;49.174;48.652;52.117
4753868.705;-81.062;-58.003;-58.711;-69.030;-14.454;50.925;49.248;53.719
4753868.713;-84.564;-59.456;-63.367;-70.706;-23.395;49.919;49.174;50.627
4753868.721;-83.521;-56.773;-62.473;-66.012;-24.959;49.509;49.733;48.615
4753868.729;-79.572;-54.091;-57.444;-62.771;-16.950;50.180;49.956;48.801
4753868.737;-81.621;-56.885;-58.077;-67.391;-20.862;44.703;43.362;43.847
4753868.745;-81.211;-54.874;-55.358;-63.367;-15.721;40.792;42.915;40.904
4753868.753;-83.633;-57.220;-59.605;-65.491;-28.126;36.173;41.015;35.688
4753868.761;-82.999;-55.842;-61.058;-64.075;-27.642;34.310;38.184;35.800
4753868.769;-82.850;-56.140;-61.281;-63.404;-26.748;31.665;34.757;35.055
4753868.777;-83.745;-58.115;-61.430;-66.385;-25.965;34.533;36.433;38.370
4753868.785;-84.937;-60.312;-61.169;-69.141;-25.928;34.496;39.004;38.147
4753868.768;-85.086;-60.722;-60.834;-70.296;-25.108;30.212;37.774;32.745
4753868.776;-87.172;-62.287;-63.293;-73.835;-32.410;27.828;34.571;30.473
4753868.784;-85.048;-61.728;-61.095;-73.202;-30.063;27.791;31.739;31.292
4753868.792;-86.352;-64.522;-62.734;-77.933;-29.020;29.318;30.510;33.528
4753868.800;-89.668;-67.279;-66.981;-81.509;-31.814;29.616;28.759;33.304
4753868.808;-91.381;-67.428;-68.992;-79.572;-33.267;29.318;29.020;32.037
4753868.816;-93.803;-70.445;-71.190;-83.670;-39.004;27.567;28.461;30.771
4753868.824;-94.213;-71.265;-69.663;-85.123;-37.402;20.713;18.999;26.263
4753868.832;-92.760;-70.184;-66.943;-83.521;-33.602;20.638;20.005;26.934
4753868.840;-94.585;-72.271;-67.838;-83.409;-35.353;18.738;20.228;23.991
4753868.848;-93.430;-72.569;-67.130;-84.452;-33.379;19.893;20.042;27.679
4753868.856;-93.319;-72.382;-68.285;-83.819;-36.135;18.626;18.515;25.779
4753868.864;-92.760;-72.308;-67.465;-84.750;-32.224;18.775;20.228;24.438
4753868.872;-93.356;-71.079;-68.620;-82.701;-37.290;18.440;22.277;23.283
4753868.880;-92.052;-71.228;-66.049;-83.447;-37.327;16.727;21.644;21.197
4753868.888;-88.587;-66.981;-62.771;-79.870;-33.975;15.050;21.830;18.813
4753868.896;-88.923;-67.353;-63.367;-83.037;-32.373;11.921;16.913;18.105
4753868.904;-90.264;-69.253;-65.863;-82.999;-34.459;8.121;11.660;16.727
4753868.912;-89.705;-69.626;-66.496;-82.329;-37.551;12.852;14.752;19.670
4753868.920;-87.321;-69.477;-62.734;-82.403;-30.510;17.956;19.334;23.209
4753868.928;-90.599;-72.718;-66.608;-86.352;-37.663;17.062;19.222;22.613
4753868.936;-93.095;-76.219;-68.657;-91.679;-42.580;10.766;13.486;17.956
4753868.944;-88.550;-71.414;-63.181;-84.676;-32.224;10.952;13.039;17.881
4753868.952;-89.593;-71.377;-63.889;-85.607;-32.671;12.666;13.188;19.819
4753868.962;-89.146;-70.669;-65.640;-84.601;-42.059;12.964;12.554;20.266
4753868.970;-89.332;-72.010;-65.230;-86.762;-44.219;11.399;10.617;19.260
4753868.978;-88.178;-73.239;-61.654;-86.278;-33.490;11.884;8.866;20.415
4753868.986;-84.713;-67.838;-58.562;-79.721;-31.367;13.523;9.909;21.681
4753868.994;-82.515;-65.267;-56.811;-79.274;-35.018;12.890;11.958;20.526
4753869.002;-83.745;-68.732;-59.754;-82.739;-37.625;9.760;10.580;15.572
4753869.010;-83.111;-67.614;-59.083;-82.143;-36.918;11.586;11.660;13.560
4753869.018;-82.552;-65.826;-58.934;-78.417;-37.663;15.050;14.603;15.944
4753869.026;-80.727;-64.746;-56.550;-79.125;-34.571;15.199;13.746;18.701
4753869.034;-91.307;-72.233;-68.210;-87.023;-45.374;14.901;11.921;21.383
4753869.042;-91.679;-77.076;-63.293;-92.611;-42.170;13.337;12.219;20.042
4753869.050;-72.569;-63.404;-35.949;-84.713;-11.399;9.090;8.456;16.242
4753869.058;-69.104;-64.261;-23.022;-92.685;5.253;5.104;3.874;13.970
4753869.066;-70.184;-70.371;-13.858;-107.735;19.297;3.651;1.192;12.629
4753869.074;-71.637;-75.325;-6.407;-123.121;32.336;-2.161;-2.235;4.098
4753869.082;-76.741;-81.994;-2.310;-133.961;48.243;-5.253;-3.465;0.484
4753869.090;-81.174;-88.215;2.533;-147.969;62.808;-6.445;-2.012;1.341
4753869.098;-88.923;-97.565;3.316;-162.385;69.812;-13.635;-11.362;-0.969
4753869.106;-101.291;-112.727;-3.465;-181.645;69.812;-18.999;-20.377;-2.086
4753869.114;-114.590;-128.075;-10.505;-200.458;74.990;-16.578;-20.526;0.708
4753869.122;-119.768;-135.377;-10.841;-209.138;79.572;-15.721;-19.930;-1.937
4753869.130;-118.949;-134.073;-5.513;-210.293;90.525;-11.288;-14.268;-1.788
4753869.138;-124.350;-140.443;-7.041;-218.786;93.691;-7.190;-9.015;-0.112
4753869.146;-130.385;-147.112;-15.348;-225.529;81.062;-6.594;-7.488;0.633
4753869.112;-131.615;-147.820;-18.254;-224.635;79.013;-0.745;-0.782;6.258
4753869.120;-137.538;-153.854;-23.469;-229.664;75.251;2.086;-0.335;8.158
4753869.128;-147.857;-164.211;-32.745;-239.499;68.843;-4.135;-9.015;3.353
4753869.136;-149.496;-165.813;-33.565;-238.940;65.677;-7.339;-13.970;1.751
4753869.144;-147.745;-165.030;-31.702;-237.413;69.700;-9.313;-16.317;-1.118
4753869.152;-151.321;-166.818;-38.110;-238.754;60.685;-10.766;-18.999;-0.820
4753869.160;-152.960;-167.526;-39.749;-236.891;60.052;-10.841;-18.664;1.565
4753869.168;-153.854;-168.197;-43.288;-237.450;54.501;-11.623;-17.025;1.863
4753869.176;-148.974;-163.317;-39.637;-232.346;56.438;-10.692;-13.039;1.974
4753869.184;-145.622;-161.044;-35.502;-231.266;59.046;-14.789;-14.938;1.714
4753869.192;-141.896;-157.095;-31.926;-227.466;63.963;-15.870;-14.342;3.837
4753869.200;-137.575;-153.817;-26.226;-223.033;73.463;-14.752;-11.139;5.253
4753869.208;-140.220;-154.078;-31.665;-223.629;59.456;-13.225;-10.170;4.955
4753869.216;-136.718;-153.147;-29.281;-222.661;64.597;-8.494;-7.488;7.711
4753869.224;-133.440;-151.061;-27.604;-218.600;66.273;-6.370;-7.786;8.270
4753869.232;-136.234;-150.949;-29.616;-217.855;62.585;-3.874;-5.998;8.270
4753869.240;-137.314;-150.725;-32.261;-214.279;59.567;-2.645;-4.098;8.121
4753869.248;-142.194;-155.829;-36.806;-220.686;52.974;-6.482;-7.041;4.768
4753869.256;-142.083;-157.245;-34.757;-224.076;56.140;-7.413;-9.574;6.743
4753869.264;-142.530;-156.313;-35.316;-221.916;56.215;-8.605;-10.207;6.407
4753869.272;-141.263;-154.264;-34.273;-220.612;55.432;-6.333;-8.456;6.817
4753869.280;-137.761;-151.917;-33.155;-218.339;54.948;-1.006;-4.955;9.649
4753869.288;-140.443;-152.849;-37.439;-219.941;50.142;-0.894;-5.849;9.909
4753869.296;-137.016;-147.521;-35.092;-214.651;52.564;2.235;-3.688;13.970
4753869.290;-140.145;-151.657;-37.998;-220.165;48.093;-0.522;-7.376;12.219
4753869.298;-140.294;-149.347;-40.419;-217.594;42.953;0.298;-7.786;13.150
4753869.306;-136.644;-145.063;-37.886;-211.149;48.019;0.931;-8.903;15.832
4753869.314;-138.767;-145.547;-41.984;-214.577;42.282;-4.545;-13.784;11.697
4753869.322;-136.010;-142.455;-40.717;-212.565;42.953;-7.190;-14.789;10.580
4753869.330;-132.509;-138.544;-40.717;-207.163;42.580;-7.153;-12.219;9.909
4753869.338;-126.064;-132.434;-34.310;-201.501;48.988;0.410;-3.055;14.789
4753869.346;-125.132;-133.589;-34.608;-204.220;45.598;2.012;-2.161;16.056
4753869.354;-126.250;-135.005;-35.800;-204.332;46.343;-3.278;-6.892;13.150
4753869.362;-126.511;-135.489;-35.875;-204.928;47.386;-7.190;-8.754;10.617
4753869.370;-123.121;-132.434;-31.926;-202.358;51.111;-9.090;-9.723;8.605
4753869.378;-114.217;-123.419;-22.464;-192.784;60.238;-2.570;-2.906;11.735
4753869.386;-115.484;-125.095;-25.742;-194.162;50.999;-4.098;-6.855;10.282
4753869.394;-113.212;-123.084;-25.257;-191.629;51.856;-3.465;-7.413;12.890
4753869.402;-111.274;-120.699;-23.656;-188.649;58.338;-2.049;-5.178;15.683
4753869.410;-112.727;-122.674;-23.656;-190.958;57.779;-4.098;-8.307;14.976
4753869.418;-124.983;-133.216;-35.614;-201.948;39.190;-7.115;-11.139;10.058
4753869.426;-124.313;-132.248;-33.081;-199.080;45.002;-4.917;-7.711;10.245
4753869.434;-109.710;-120.774;-17.695;-190.586;59.977;-7.488;-10.766;7.153
4753869.442;-106.692;-116.192;-15.497;-185.408;60.759;-10.692;-14.156;3.800
4753869.450;-103.973;-112.280;-15.050;-180.267;58.711;-14.529;-15.162;-1.006
4753869.458;-102.930;-110.194;-14.566;-177.994;58.934;-12.480;-10.580;-1.229
4753869.466;-104.532;-114.664;-16.242;-181.571;56.438;-12.480;-11.548;-1.863
4753869.474;-102.818;-114.106;-13.970;-180.639;59.642;-13.858;-13.635;-1.714
4753869.500;-103.042;-113.435;-13.448;-180.565;59.456;-15.460;-17.509;-3.204
4753869.508;-103.116;-113.361;-14.529;-180.267;57.630;-20.117;-21.979;-6.966
4753869.516;-101.440;-111.721;-14.156;-177.771;55.134;-18.962;-22.314;-5.253
4753869.524;-99.950;-110.529;-14.752;-175.647;54.240;-19.446;-21.756;-4.433
4753869.532;-96.336;-107.102;-11.101;-173.151;57.779;-19.260;-18.962;-4.768
4753869.540;-94.660;-104.457;-10.543;-170.060;58.860;-13.858;-14.044;0.447
4753869.548;-94.101;-101.775;-11.660;-166.707;56.475;-14.454;-14.715;0.298
4753869.556;-89.295;-96.038;-8.568;-162.683;59.195;-16.354;-16.242;-2.421
4753869.564;-87.693;-94.324;-7.749;-158.623;57.481;-17.695;-16.764;-4.582
4753869.572;-91.046;-98.832;-9.276;-163.317;56.922;-22.203;-19.781;-10.766
4753869.580;-95.107;-101.887;-13.225;-165.887;49.435;-24.289;-22.277;-15.274
4753869.588;-95.554;-102.334;-14.678;-165.962;45.300;-29.691;-25.630;-20.564
4753869.596;-94.473;-99.912;-13.448;-165.477;48.466;-31.479;-27.977;-20.824
4753869.604;-93.542;-98.236;-12.778;-163.652;52.266;-27.046;-25.667;-16.838
4753869.612;-92.052;-96.001;-13.560;-160.187;46.305;-23.171;-22.613;-13.225
4753869.620;-85.719;-89.444;-7.674;-154.041;52.787;-18.179;-17.509;-8.866
4753869.628;-84.564;-88.476;-7.749;-152.327;53.458;-15.497;-12.815;-7.153
4753869.636;-81.994;-86.464;-4.247;-150.800;57.593;-12.740;-9.164;-4.806
4753869.644;-80.466;-85.346;-4.955;-149.012;56.177;-14.640;-11.921;-5.700
4753869.652;-79.162;-83.745;-5.849;-147.745;55.246;-19.483;-17.025;-10.096
4753869.660;-79.088;-83.335;-6.445;-147.000;56.960;-20.862;-18.515;-11.250
4753869.668;-75.996;-80.839;-5.551;-142.977;55.693;-19.111;-16.652;-8.829
4753869.676;-73.873;-79.684;-4.321;-142.902;53.979;-16.131;-14.715;-8.084
4753869.684;-70.557;-77.374;-0.559;-141.077;59.083;-15.981;-13.001;-9.388
4753869.667;-67.465;-74.655;2.608;-137.202;60.424;-17.360;-12.591;-9.649
4753869.675;-70.184;-78.380;0.112;-140.890;56.624;-19.930;-18.142;-9.947
4753869.683;-73.165;-82.254;-3.651;-143.014;55.321;-21.160;-20.713;-9.872
4753869.691;-73.425;-80.951;-6.184;-141.002;53.272;-19.893;-19.073;-9.276
4753869.699;-72.606;-79.013;-5.253;-138.655;54.017;-18.701;-18.701;-8.233
4753869.707;-71.302;-76.406;-3.166;-137.165;53.346;-16.205;-17.546;-6.147
4753869.715;-65.081;-69.588;3.688;-130.981;61.169;-13.970;-15.013;-3.353
4753869.723;-60.424;-64.969;8.233;-125.691;64.969;-14.231;-14.566;-4.619
4753869.731;-58.077;-62.436;10.133;-122.078;62.957;-11.809;-11.474;-4.992
4753869.739;-58.562;-62.436;8.829;-121.072;61.952;-10.245;-10.245;-3.576
4753869.747;-57.928;-60.201;8.345;-119.098;61.765;-8.270;-8.568;-3.204
4753869.755;-57.109;-59.195;8.382;-118.092;59.530;-5.737;-7.302;-2.794
4753869.763;-54.799;-56.922;9.052;-114.702;59.791;-7.190;-8.717;-3.502
4753869.771;-54.128;-55.172;10.617;-112.616;60.387;-8.158;-7.786;-4.321
4753869.779;-55.544;-58.673;7.860;-116.006;53.905;-12.480;-11.511;-6.445
4753869.787;-56.252;-59.307;5.625;-116.155;54.426;-13.746;-13.411;-6.072
4753869.795;-53.681;-54.948;7.786;-111.125;57.779;-6.296;-8.605;-0.037
4753869.803;-55.432;-56.103;6.109;-112.839;57.295;-5.774;-8.270;-1.714
4753869.811;-52.191;-52.415;9.090;-109.375;60.201;-2.719;-4.508;0.373
4753869.819;-51.893;-53.272;9.835;-109.561;57.183;-6.035;-8.196;-1.378
4753869.827;-49.844;-50.142;11.660;-106.245;57.369;-5.513;-9.052;-0.447
4753869.835;-48.429;-47.684;11.176;-100.434;58.301;-6.892;-9.537;-1.267
4753869.843;-48.801;-49.695;10.990;-102.632;58.487;-13.672;-16.727;-5.625
4753869.851;-49.137;-49.397;9.909;-100.955;57.146;-16.242;-19.372;-9.462
4753869.861;-50.329;-51.558;8.866;-102.632;54.874;-18.254;-20.526;-11.288
4753869.869;-48.913;-49.546;9.499;-99.577;52.862;-14.864;-17.509;-7.562
4753869.877;-48.764;-49.137;8.047;-98.124;52.005;-14.082;-17.621;-6.407
4753869.885;-50.217;-51.856;6.743;-101.924;49.956;-20.228;-22.836;-10.468
4753869.893;-47.982;-50.366;9.537;-100.285;52.564;-20.005;-22.091;-11.139
4753869.901;-65.975;-70.632;-9.611;-120.811;35.278;-21.271;-22.314;-13.784
4753869.909;-60.983;-56.885;-11.958;-98.459;27.008;-22.501;-21.309;-16.168
4753869.917;-33.155;-25.481;6.333;-61.244;32.783;-18.962;-14.268;-12.591
4753869.925;-13.821;-0.820;11.362;-30.175;24.438;-12.927;-7.041;-7.674
4753869.933;-2.049;16.168;8.605;-3.502;10.803;-12.219;-6.072;-8.531
4753869.941;3.576;24.550;-1.155;14.380;-16.429;-15.907;-9.947;-13.374
4753869.949;15.870;39.674;-1.788;37.886;-26.673;-12.815;-6.892;-11.511
4753869.957;23.618;51.856;-4.321;57.556;-36.396;-4.135;2.347;-4.396
4753869.965;24.922;56.922;-10.431;69.141;-47.348;-1.937;8.009;-4.470
4753869.973;23.209;56.960;-16.838;72.718;-55.432;-3.241;7.860;-5.737
4753869.981;19.297;54.501;-24.699;73.612;-64.783;-6.407;2.310;-8.568
4753869.989;15.013;52.713;-28.014;71.973;-63.144;-2.868;2.831;-5.439
4753869.997;13.746;52.229;-29.616;71.712;-64.224;1.565;4.545;-0.671
4753870.005;9.723;47.907;-35.539;67.875;-74.245;-0.969;1.639;-2.794
4753870.013;11.995;50.142;-31.553;69.439;-66.906;2.421;4.582;0.037
4753870.021;9.611;47.609;-32.447;66.459;-67.316;2.943;4.396;-0.633
4753870.029;8.009;47.535;-31.851;66.422;-66.087;3.986;5.923;-0.857
4753870.037;-0.708;37.663;-38.557;56.103;-76.108;1.155;2.943;-2.794
4753870.045;-7.674;29.430;-43.958;48.354;-76.070;-3.278;-2.272;-4.694
4753870.026;-12.703;21.309;-50.291;41.015;-80.951;-7.078;-7.749;-6.780
4753870.034;-15.981;15.758;-54.762;35.577;-83.484;-5.104;-9.984;-5.774
4753870.042;-13.709;17.546;-51.260;37.067;-79.311;2.347;-2.980;-2.608
4753870.050;-11.958;20.154;-47.609;39.525;-76.257;3.465;2.980;-2.272
4753870.058;-6.780;26.450;-43.698;46.529;-70.930;0.037;6.594;-3.874
4753870.066;-3.800;29.355;-42.208;48.690;-72.420;1.155;10.170;-1.192
4753870.074;-8.978;24.103;-47.237;43.064;-76.778;-3.017;6.221;-4.321
4753870.082;-11.697;22.091;-50.738;40.568;-79.907;-4.061;3.986;-5.066
4753870.090;-10.617;24.997;-49.211;41.947;-77.076;1.714;6.594;-1.080
4753870.098;-8.941;26.673;-47.497;43.809;-75.437;1.490;5.029;-0.224
4753870.106;-5.700;30.883;-44.256;46.492;-72.196;2.719;4.396;1.080
4753870.114;-3.353;33.639;-39.600;47.497;-68.322;2.310;1.900;0.298
4753870.122;-3.465;33.602;-41.872;45.672;-73.016;-0.559;-0.931;-3.092
4753870.130;4.135;39.004;-36.620;50.478;-66.571;3.316;5.551;0.671
4753870.138;10.133;43.474;-30.808;56.215;-63.069;6.184;9.798;2.757
4753870.146;12.331;45.672;-28.685;57.742;-61.244;6.855;10.841;2.086
4753870.154;10.654;41.947;-29.132;54.277;-59.456;2.086;7.376;-1.341
4753870.162;10.356;42.319;-29.355;54.874;-61.877;3.092;7.972;0.596
4753870.170;12.182;44.666;-27.604;58.524;-58.822;7.898;12.852;3.614
4753870.178;10.319;41.127;-29.951;53.644;-60.424;7.302;12.033;2.012
4753870.186;12.852;43.325;-26.748;55.470;-55.023;11.325;14.938;5.141
4753870.194;9.425;39.786;-30.771;52.527;-58.524;10.990;12.964;4.917
4753870.202;7.451;37.439;-32.596;50.031;-60.275;8.941;10.580;3.874
4753870.210;4.694;32.224;-35.837;45.113;-62.622;7.674;11.139;1.788
4753870.251;4.284;29.951;-37.625;45.262;-65.081;3.129;9.015;-1.863
4753870.259;12.070;38.631;-30.287;54.985;-57.817;-0.261;4.582;-4.917
4753870.267;8.121;34.906;-34.384;50.031;-61.169;-2.421;-0.373;-6.333
4753870.275;11.213;37.663;-31.814;51.856;-61.095;-3.241;-0.708;-7.749
4753870.283;8.978;34.682;-33.416;48.093;-63.330;-4.992;-1.416;-9.611
4753870.291;9.909;34.720;-33.788;50.440;-63.702;-2.049;2.719;-8.792
4753870.299;10.915;34.869;-33.081;50.440;-62.436;1.006;4.545;-5.737
4753870.307;11.921;34.459;-32.447;49.360;-61.914;-0.075;1.267;-5.253
4753870.315;12.591;31.702;-32.187;42.766;-60.275;-2.012;-1.453;-7.525
4753870.323;11.027;30.808;-34.198;42.133;-63.553;-1.155;-1.937;-7.674
4753870.331;9.909;28.946;-33.863;39.451;-61.169;0.075;-1.565;-5.215
4753870.339;5.364;24.363;-36.284;34.496;-64.485;-0.633;-2.235;-5.886
4753870.347;-0.410;16.242;-41.649;28.275;-68.918;-0.559;-0.745;-5.476
4753870.355;-3.651;13.374;-44.070;25.816;-69.812;0.075;-0.522;-5.066
4753870.363;-1.080;16.503;-40.866;28.349;-64.597;2.794;1.900;-4.731
4753870.371;2.310;21.160;-38.221;33.528;-63.218;2.086;3.055;-6.594
4753870.379;4.061;24.214;-35.241;35.502;-59.754;1.937;3.427;-6.333
4753870.387;8.233;26.673;-29.840;37.625;-54.501;0.820;1.714;-4.843
4753870.395;9.015;26.561;-27.195;37.178;-49.062;-1.416;-1.639;-4.545
4753870.403;10.431;27.865;-24.699;38.333;-44.033;1.751;0.708;-1.527
4753870.411;12.033;28.722;-26.710;41.053;-52.601;0.335;2.161;-4.359
4753870.419;13.672;29.765;-24.661;39.600;-52.676;-2.570;1.043;-9.760
4753870.427;19.781;34.235;-18.291;42.692;-46.417;-1.043;2.272;-7.562
4753870.435;21.718;35.167;-16.131;43.586;-44.815;-2.198;0.522;-7.227
4753870.491;21.607;32.932;-15.758;40.941;-45.225;-4.247;-4.210;-8.903
4753870.499;19.409;30.287;-18.887;38.855;-45.598;-6.817;-8.754;-8.233
4753870.507;16.578;28.946;-20.489;35.092;-46.119;-4.210;-6.743;-3.166
4753870.515;13.374;27.083;-21.979;34.161;-46.939;-1.192;-3.874;-0.559
4753870.523;11.027;24.363;-23.693;32.261;-50.962;-1.006;-2.906;-1.937
4753870.531;13.150;24.848;-21.681;32.894;-49.695;-2.608;-3.874;-3.874
4753870.539;13.411;25.220;-21.979;33.155;-48.988;-5.029;-4.731;-4.508
4753870.547;13.262;24.587;-21.271;31.814;-48.429;-4.619;-4.731;-5.029
4753870.555;14.603;25.071;-18.887;32.224;-44.256;-5.439;-5.811;-4.396
4753870.563;20.750;30.212;-11.437;36.918;-34.496;-4.508;-4.806;-1.490
4753870.571;26.710;36.210;-7.451;43.884;-31.143;-1.863;-1.229;0.745
4753870.579;26.561;36.173;-10.319;44.517;-35.614;-5.886;-4.247;-2.421
4753870.587;29.616;39.488;-6.035;47.758;-31.777;-9.127;-6.557;-8.047
4753870.595;32.485;41.425;-1.751;49.733;-26.599;-8.605;-5.066;-9.909
4753870.603;32.969;41.872;-1.825;49.584;-30.585;-4.843;-1.118;-7.935
4753870.611;33.081;42.282;-1.788;50.664;-30.063;2.123;3.204;-2.757
4753870.619;38.780;47.907;4.694;57.034;-21.495;7.302;4.508;1.416
4753870.627;42.431;50.291;7.413;57.630;-24.363;4.098;3.651;-0.037
4753870.635;43.847;51.185;7.674;60.126;-21.979;-2.459;1.341;-5.551
