Timestamp,AFz,AF3,AF4,AF7,AF8,Pz,P3,P4,2024-04-10 13:49:13.707,fs=125
2342069.927;17.807;20.601;15.609;11.586;25.742;-9.201;1.080;-15.236
2342069.935;17.695;22.538;12.666;13.672;20.117;-5.327;3.837;-12.964
2342069.943;17.993;22.799;14.044;13.225;23.544;-1.676;5.923;-8.978
2342069.951;21.011;24.587;18.924;15.981;29.318;6.407;14.640;0.410
2342069.959;11.735;15.981;10.729;9.388;18.179;2.123;9.872;-6.370
2342069.967;-3.986;0.559;-3.316;-4.843;7.115;-0.261;5.662;-5.253
2342069.975;-16.205;-13.448;-14.640;-16.317;-1.267;0.298;3.688;-6.147
2342069.983;-29.653;-27.753;-26.524;-29.355;-13.337;0.559;1.565;-5.513
2342069.991;-34.012;-33.304;-30.957;-35.241;-20.750;0.857;1.155;-13.635
2342069.999;-26.189;-24.773;-24.028;-26.934;-14.491;8.605;9.425;-12.591
2342070.007;-21.867;-21.942;-19.632;-24.512;-9.760;7.153;8.345;-15.274
2342070.015;-19.483;-19.707;-16.838;-22.054;-9.127;3.390;5.551;-18.887
2342070.023;-9.872;-10.058;-6.445;-13.411;-0.335;-5.253;-0.596;-23.283
2342070.031;3.651;2.719;5.923;-1.416;11.735;-7.376;-1.341;-23.544
2342070.039;5.104;3.614;6.929;-0.335;10.580;-17.844;-10.319;-35.502
2342070.047;4.917;2.645;6.743;0.112;8.717;-21.793;-9.201;-32.671
2342070.055;1.155;-1.267;5.700;-0.522;7.898;-33.341;-16.689;-42.953
2342070.063;11.958;9.164;19.670;11.101;26.934;-26.263;-8.829;-28.089
2342070.071;20.154;16.429;28.461;19.968;38.892;-21.569;-4.731;-26.375
2342070.079;21.830;17.770;30.734;20.564;43.325;-12.331;0.969;-14.603
2342070.087;16.168;11.697;25.630;13.672;37.849;-11.846;-0.931;-17.919
2342070.095;4.135;-0.559;13.821;2.906;27.083;-11.437;-0.671;-18.589
2342070.103;-7.413;-12.964;2.496;-11.027;15.199;-14.380;-6.594;-22.240
2342070.111;-18.664;-22.873;-9.798;-22.165;2.123;-13.895;-10.654;-18.850
2342070.124;-27.269;-31.553;-17.844;-28.908;-5.588;-9.239;-9.723;-14.268
2342070.132;-29.281;-34.012;-20.638;-32.559;-9.052;-5.066;-8.792;-13.448
2342070.140;-28.610;-33.937;-22.613;-31.888;-11.548;-0.782;-4.433;-13.597
2342070.148;-27.269;-31.181;-22.799;-27.567;-12.554;0.075;-3.874;-17.621
2342070.156;-19.893;-23.507;-13.895;-20.415;-1.267;6.333;2.086;-14.044
2342070.164;-18.291;-21.607;-10.394;-18.962;2.347;2.310;-0.075;-18.924
2342070.172;-15.385;-18.813;-7.674;-14.305;3.353;0.931;-0.484;-19.297
2342070.180;-10.990;-15.795;-2.235;-10.543;7.823;0.745;0.969;-18.105
2342070.188;-8.158;-13.709;-0.112;-8.047;10.282;-2.198;-1.267;-16.876
2342070.196;-4.955;-8.605;1.453;-1.900;12.033;-0.857;1.006;-13.448
2342070.204;0.559;-0.149;5.811;6.966;17.025;-1.639;1.527;-9.723
2342070.212;6.557;8.121;11.660;15.832;23.544;-3.129;2.347;-8.270
2342070.220;-0.633;2.980;4.731;11.735;18.030;-0.149;7.078;-3.614
2342070.228;-0.782;2.906;6.892;13.448;18.962;3.651;9.611;-0.820
2342070.236;2.086;2.980;10.096;12.107;20.415;2.831;7.413;-2.906
2342070.244;1.118;1.751;9.425;8.419;19.483;1.788;7.935;-6.631
2342070.252;-4.359;-5.290;5.923;0.335;17.844;0.857;6.147;-5.923
2342070.260;-6.184;-8.866;2.198;-3.912;10.692;0.857;5.886;-5.998
2342070.268;-7.302;-12.331;0.447;-7.935;9.015;-2.384;1.155;-9.388
2342070.276;-4.359;-10.096;3.725;-5.066;12.927;-5.402;-2.980;-12.256
2342070.284;0.261;-3.912;8.903;-0.782;16.093;-0.671;1.416;-10.058
2342070.292;-5.923;-10.990;3.017;-9.388;11.288;-6.482;-3.986;-18.142
2342070.300;-12.778;-17.434;-5.811;-15.013;3.204;-9.611;-4.061;-22.873
2342070.308;-14.417;-17.770;-8.233;-14.082;1.490;-3.986;0.857;-18.775
2342070.332;-18.440;-21.569;-14.007;-18.701;-6.035;-6.296;-1.676;-20.079
2342070.340;-20.228;-23.879;-13.448;-22.911;-4.321;-13.337;-7.562;-22.613
2342070.348;-15.274;-20.154;-8.717;-19.856;1.192;-20.154;-12.107;-26.338
2342070.356;-13.709;-18.068;-6.817;-16.131;2.682;-20.303;-11.288;-23.395
2342070.364;-16.466;-20.862;-7.078;-18.999;3.576;-18.328;-10.729;-19.558
2342070.372;-14.566;-17.993;-6.780;-16.317;2.943;-14.752;-8.792;-14.864
2342070.380;-12.442;-14.007;-4.321;-11.623;3.651;-13.411;-8.047;-17.136
2342070.388;-7.227;-7.898;-0.708;-5.737;6.482;-11.958;-4.061;-17.062
2342070.396;4.843;4.955;8.941;6.333;15.907;-10.543;-0.559;-16.503
2342070.404;4.619;2.459;9.947;2.459;15.721;-14.901;-3.502;-21.122
2342070.412;8.494;4.433;13.635;4.619;19.148;-12.293;-0.969;-16.093
2342070.420;13.560;8.903;18.030;10.692;23.805;-6.519;3.800;-11.511
2342070.428;11.399;4.880;18.142;5.662;24.885;-4.806;2.012;-11.399
2342070.436;6.333;-0.671;11.958;0.000;16.429;-3.949;-1.267;-10.543
2342070.444;2.794;-3.502;7.562;-3.427;14.231;-0.820;-1.006;-8.084
2342070.452;-3.874;-8.382;-0.373;-7.078;7.525;-2.421;-2.384;-8.233
2342070.460;-3.725;-9.015;1.229;-7.823;9.350;-3.316;-0.969;-8.605
2342070.468;-2.496;-7.600;4.023;-4.955;11.139;-3.129;0.149;-10.133
2342070.476;3.837;-1.602;8.494;0.335;15.274;2.310;6.743;-3.427
2342070.484;-1.453;-4.694;3.763;-1.490;12.070;1.378;8.009;-6.631
2342070.492;-10.543;-14.231;-6.072;-12.890;4.731;-3.055;3.129;-9.127
2342070.500;-9.611;-12.293;-6.780;-12.033;3.129;-4.917;1.974;-9.872
2342070.508;-8.419;-10.729;-5.364;-11.884;2.831;-8.792;-2.943;-14.380
2342070.516;-7.562;-7.339;-6.445;-7.525;-1.341;-9.090;-4.135;-14.864
2342070.497;-8.382;-7.302;-6.147;-7.935;-0.261;-9.723;-4.508;-16.205
2342070.505;-7.562;-8.643;-6.109;-10.468;1.490;-6.892;-3.502;-13.039
2342070.513;-6.035;-8.941;-4.172;-10.356;0.671;-6.258;-3.725;-11.399
2342070.521;0.224;-3.465;4.470;-2.757;10.505;-2.235;-0.373;-3.502
2342070.529;-2.347;-6.147;2.272;-4.806;8.382;-3.390;-1.751;-3.241
2342070.537;-7.562;-10.431;-4.135;-9.164;-0.224;-4.657;-1.155;-7.413
2342070.545;-8.121;-11.362;-3.576;-11.623;-0.037;-1.639;1.639;-8.456
2342070.553;0.037;-3.949;4.694;-5.141;9.611;5.476;8.866;0.782
2342070.561;-0.931;-4.880;3.949;-7.264;9.462;4.247;9.239;-0.931
2342070.569;0.522;-2.384;4.247;-3.800;11.958;7.674;12.852;0.782
2342070.577;-5.178;-7.153;-2.421;-8.270;3.949;0.633;4.992;-6.407
2342070.585;-8.121;-10.133;-6.296;-12.778;1.267;-3.166;-0.037;-8.680
2342070.593;-9.760;-11.958;-5.923;-14.901;2.272;-4.061;-2.831;-11.176
2342070.601;-13.672;-15.162;-9.201;-18.887;-2.943;-11.101;-8.568;-18.738
2342070.609;-11.437;-11.958;-6.258;-15.572;1.639;-12.405;-8.121;-18.738
2342070.617;-9.052;-9.164;-5.588;-13.001;2.719;-11.474;-9.760;-15.758
2342070.625;-6.557;-7.525;-4.657;-10.915;2.421;-9.313;-8.494;-11.809
2342070.633;-6.333;-7.637;-4.806;-11.250;2.086;-9.909;-10.021;-10.617
2342070.641;-2.980;-6.221;-0.782;-10.654;7.115;-10.058;-10.356;-10.654
2342070.649;5.364;1.341;9.462;-4.843;18.291;-3.949;-6.221;-6.557
2342070.657;4.545;1.155;8.568;-7.376;16.503;-3.539;-5.774;-6.147
2342070.665;0.000;-3.353;1.900;-11.623;10.952;-5.513;-5.476;-6.892
2342070.673;-9.611;-11.325;-7.376;-18.664;0.745;-15.385;-12.182;-17.956
2342070.681;-3.576;-5.104;-0.149;-11.548;8.158;-11.958;-6.445;-14.752
2342070.676;0.149;-1.006;3.316;-8.456;12.368;-8.792;-3.241;-11.586
2342070.684;-1.863;-4.098;2.198;-11.623;12.442;-8.307;-2.421;-12.554
2342070.692;-1.527;-1.565;-1.751;-7.823;4.955;-3.055;2.012;-11.995
2342070.700;-5.141;-3.092;-5.402;-8.009;2.794;3.055;5.625;-7.041
2342070.708;-9.276;-7.637;-7.376;-11.064;3.614;-0.931;2.645;-8.047
2342070.716;-4.098;-1.937;-0.335;-5.253;9.723;-6.743;-1.341;-12.442
2342070.724;-8.084;-5.402;-5.253;-8.270;4.098;-10.841;-6.184;-15.534
2342070.732;-13.411;-11.325;-11.474;-11.735;-3.204;-13.299;-10.282;-15.236
2342070.740;-16.280;-15.758;-11.697;-16.429;-1.937;-13.374;-14.715;-13.895
2342070.748;-10.766;-9.835;-4.321;-9.835;5.290;-8.456;-13.001;-11.735
2342070.756;-12.368;-11.884;-5.141;-9.649;1.453;-10.841;-11.139;-17.583
2342070.764;-11.846;-12.666;-2.533;-9.127;1.639;-9.723;-7.302;-20.601
2342070.772;-4.135;-6.258;6.966;-2.719;9.984;-8.866;-4.955;-18.999
2342070.780;-6.370;-8.158;5.178;-4.098;7.637;-15.907;-10.356;-23.879
2342070.788;-11.958;-15.199;-1.602;-13.784;1.304;-23.097;-20.191;-28.200
2342070.796;-7.600;-12.778;3.576;-11.437;5.662;-19.073;-17.807;-22.724
2342070.804;-1.043;-6.855;12.182;-3.688;15.199;-16.168;-13.672;-20.266
2342070.812;-0.671;-6.147;11.809;-1.118;13.523;-17.285;-13.337;-21.979
2342070.820;0.410;-4.172;12.517;1.639;14.715;-14.231;-8.978;-20.228
2342070.828;3.576;-0.596;13.821;4.917;15.832;-11.995;-8.158;-18.701
2342070.836;4.023;-0.186;13.001;3.986;14.231;-14.231;-13.299;-18.813
2342070.844;1.006;-2.161;11.288;0.745;11.437;-17.919;-20.862;-16.168
2342070.852;0.373;-0.969;9.052;2.235;8.531;-13.523;-16.540;-14.268
2342070.860;1.863;0.000;9.164;4.321;9.760;-6.817;-9.127;-13.486
2342070.873;-0.633;-4.359;7.562;0.745;8.680;-2.459;-2.272;-11.437
2342070.881;-3.539;-6.855;3.614;-0.484;3.353;-2.608;0.559;-14.491
2342070.889;0.261;-2.719;4.955;2.459;3.129;-2.980;2.645;-17.509
2342070.897;2.682;-0.782;6.892;3.614;4.806;-4.508;1.341;-18.217
2342070.905;1.714;-2.682;8.270;-0.112;6.221;-3.017;2.682;-11.921
2342070.913;0.931;-4.359;7.898;-2.608;7.488;-1.453;2.719;-8.307
2342070.921;1.006;-5.588;8.792;-3.465;9.574;1.192;3.502;-5.402
2342070.929;2.608;-4.880;12.517;-3.465;17.695;1.043;1.565;-5.476
2342070.937;7.674;3.390;16.354;6.109;17.993;2.347;3.390;-3.539
2342070.945;11.101;7.674;20.713;9.462;22.352;1.602;1.490;-5.588
2342070.953;9.388;4.843;18.030;4.321;23.209;-1.229;-2.906;-7.525
2342070.961;7.264;4.023;13.150;4.433;14.007;-2.831;-2.794;-7.972
2342070.969;11.101;8.233;16.317;8.568;17.546;-2.794;-1.788;-6.035
2342070.977;20.266;17.621;24.289;18.068;25.369;1.714;1.676;-1.155
2342070.985;25.742;21.309;31.181;20.862;32.447;6.594;7.525;1.937
2342070.993;13.113;7.823;19.483;6.109;20.713;-1.267;-0.559;-8.047
2342071.001;10.729;5.141;15.832;3.614;14.678;0.745;1.378;-5.253
2342071.009;12.554;7.264;16.764;7.004;14.119;0.224;2.012;-4.768
2342071.017;7.302;2.310;11.809;3.986;11.213;-4.396;-2.123;-7.562
2342071.025;5.588;2.198;10.692;5.551;9.760;-3.427;-0.037;-9.313
2342071.033;5.402;1.788;11.325;5.811;10.952;-0.484;3.353;-11.213
2342071.041;11.064;6.109;18.105;9.015;20.526;8.121;14.603;-3.763
2342071.049;18.813;12.480;26.152;16.093;28.200;12.331;20.042;3.353
2342071.057;22.016;16.764;28.089;20.005;29.877;11.027;17.434;3.316
2342071.066;19.893;14.976;26.934;17.956;28.089;5.290;9.127;-2.161
2342071.074;12.740;6.370;22.762;8.978;24.401;-1.825;-1.863;-8.680
2342071.082;11.735;4.210;23.246;7.711;27.306;3.576;1.937;-0.112
2342071.090;10.431;2.980;20.228;7.972;24.363;-1.192;-4.135;-7.935
2342071.098;12.778;5.215;21.532;10.952;23.060;-3.241;-5.588;-4.619
2342071.106;13.411;6.631;21.160;11.362;22.128;-7.711;-8.307;-7.376
2342071.114;10.580;6.482;16.615;12.182;19.073;-11.995;-9.462;-11.586
2342071.122;5.327;2.272;10.245;8.978;12.778;-10.654;-3.539;-11.995
2342071.130;-10.990;-11.884;-7.078;-4.396;-5.700;-20.005;-9.201;-28.871
2342071.138;-13.746;-12.927;-10.841;-4.992;-8.494;-11.288;0.708;-18.515
2342071.146;-7.153;-5.364;-3.017;1.639;-0.931;-4.470;6.333;-18.403
2342071.154;4.359;4.321;10.133;10.058;15.944;7.041;13.150;-1.304
2342071.162;8.084;5.998;15.125;11.213;19.446;7.153;8.903;0.782
2342071.170;8.307;3.874;16.876;6.631;23.134;1.080;1.341;-1.229
2342071.178;6.445;0.261;17.434;2.943;24.103;-7.711;-8.792;-6.892
2342071.186;7.488;0.931;19.148;4.247;25.369;-6.072;-6.929;-0.224
2342071.194;5.811;-0.261;16.466;2.757;21.532;-9.052;-10.654;-5.029
2342071.202;1.974;-3.278;10.207;0.037;15.162;-11.101;-12.852;-6.333
2342071.210;1.714;-0.149;6.333;4.955;11.325;-6.072;-6.706;0.075
2342071.218;0.335;1.192;0.559;7.860;2.012;-5.439;-5.513;-4.582
2342071.226;4.135;5.886;2.757;13.858;2.868;4.768;7.190;1.937
2342071.234;12.107;14.044;10.207;21.048;8.419;10.990;16.093;0.447
2342071.242;13.299;16.280;12.144;21.979;11.921;15.311;22.501;3.539
2342071.250;13.076;15.572;12.368;21.644;14.566;13.746;19.260;1.304
2342071.261;11.250;11.250;11.586;15.609;14.417;8.419;10.692;0.037
2342071.269;12.331;11.101;12.964;16.466;15.348;6.706;8.307;2.421
2342071.277;11.474;8.792;12.778;14.752;14.268;1.937;3.278;-1.565
2342071.285;4.768;3.017;5.290;8.978;5.402;-2.049;0.782;-3.055
2342071.293;2.831;2.049;1.527;8.121;1.006;-4.843;1.788;-9.239
2342071.301;0.410;-0.186;-3.465;4.880;-2.235;-4.545;5.290;-6.631
2342071.309;2.049;1.080;-2.980;5.588;-4.098;-6.743;5.178;-9.723
2342071.317;9.872;8.680;3.316;13.113;4.210;-2.570;9.201;1.565
2342071.325;13.448;11.027;7.637;13.150;9.201;-2.906;6.147;-0.447
2342071.333;12.629;9.388;6.519;9.611;8.829;-0.857;5.998;3.390
2342071.341;18.515;12.405;11.884;11.511;13.821;4.023;10.915;4.806
2342071.349;17.546;10.170;12.182;10.170;15.497;8.531;14.529;7.227
2342071.357;9.052;2.161;3.912;2.682;6.184;6.557;11.064;5.849
2342071.365;3.390;-3.465;-1.602;-2.831;0.782;5.141;6.333;1.937
2342071.373;-1.900;-8.084;-5.588;-7.451;-0.522;9.388;8.754;8.494
2342071.381;-3.576;-8.903;-6.333;-9.015;-2.496;11.437;9.760;7.004
2342071.389;-5.662;-9.909;-8.419;-10.952;-5.215;16.429;14.864;13.225
2342071.397;2.421;-2.533;-0.820;-4.582;0.224;17.583;16.764;9.090
2342071.405;5.551;-0.522;3.316;-2.608;5.960;20.638;18.738;16.503
2342071.413;-1.341;-6.631;-2.310;-7.898;0.335;9.649;7.078;3.241
2342071.421;1.006;-4.023;-1.006;-5.253;1.937;11.660;9.164;11.064
2342071.429;8.717;3.427;5.774;1.527;7.600;10.133;10.692;2.310
2342071.437;11.399;6.221;6.631;4.880;10.245;9.611;11.623;4.992
2342071.445;15.236;10.990;10.058;10.021;13.299;5.960;8.754;1.565
2342071.458;12.293;7.600;8.978;6.631;7.972;-4.098;-0.522;-18.291
2342071.466;15.497;10.878;13.895;10.170;14.491;6.706;9.350;1.453
2342071.474;13.523;8.009;13.374;8.047;14.268;7.600;9.388;-1.304
2342071.482;13.933;7.749;14.156;8.754;14.752;14.231;15.870;5.700
2342071.490;14.566;8.568;14.268;10.990;12.964;14.938;16.876;3.316
2342071.498;15.944;10.133;15.125;15.721;13.448;12.591;16.168;1.639
2342071.506;17.323;10.505;16.689;18.142;14.417;14.231;16.354;12.964
2342071.514;20.154;13.150;22.016;21.309;17.323;9.984;12.852;1.416
2342071.522;19.558;11.697;24.252;20.564;20.154;7.451;9.723;-2.086
2342071.530;17.658;10.245;22.464;19.595;17.360;6.333;7.488;-6.557
2342071.538;19.893;13.448;24.773;22.650;20.824;9.015;9.835;1.416
2342071.546;15.721;10.580;20.713;21.122;18.589;2.198;4.061;-7.600
2342071.554;11.548;5.178;17.732;15.907;17.099;4.210;6.706;-2.310
2342071.562;11.362;2.943;18.217;13.635;15.050;2.943;7.264;-5.066
2342071.570;9.052;0.224;15.609;11.101;11.176;4.172;8.382;1.937
2342071.578;5.662;-2.496;11.325;10.841;6.147;-0.708;0.857;-6.296
2342071.586;5.923;-0.224;12.890;15.385;8.829;5.737;6.407;5.700
2342071.594;1.527;-3.614;10.766;13.076;6.407;0.410;2.533;-6.706
2342071.602;-3.427;-10.021;6.296;6.557;5.662;-4.508;-0.186;-5.402
2342071.610;1.304;-6.929;9.649;9.909;7.078;-8.345;-1.788;-11.846
2342071.618;2.310;-5.811;9.947;11.027;8.270;-4.359;1.118;-4.917
2342071.626;8.717;0.596;15.087;16.838;9.201;-0.969;4.396;-5.998
2342071.634;13.039;5.737;21.122;21.160;14.827;4.135;10.021;3.204
2342071.642;15.348;9.090;22.985;26.152;18.552;8.792;14.342;8.754
2342071.635;12.740;7.004;18.887;25.034;13.523;8.866;14.268;6.706
2342071.643;13.560;8.978;22.016;25.630;18.030;12.517;18.775;13.262
2342071.651;14.901;11.772;20.824;29.616;13.113;6.557;13.299;0.745
2342071.659;13.560;10.692;18.626;28.946;12.629;5.327;12.293;3.166
2342071.667;11.288;8.568;16.317;25.257;12.480;-5.029;2.906;-10.617
2342071.675;16.242;12.964;20.489;28.610;15.348;-4.731;3.912;-6.519
2342071.683;15.832;12.815;20.862;27.493;13.895;-6.296;2.272;-11.548
2342071.691;13.113;10.543;17.695;24.661;14.342;-0.224;8.680;-0.559
2342071.699;9.984;7.972;13.225;24.140;9.872;-0.596;7.339;-5.625
2342071.707;15.050;12.368;18.589;27.902;16.578;7.637;14.193;5.960
2342071.715;12.107;7.711;17.546;23.544;14.342;3.912;10.058;5.215
2342071.723;17.248;11.809;23.171;28.238;19.521;-0.745;5.588;-7.600
2342071.731;19.260;14.454;23.618;30.585;21.122;8.568;15.125;7.972
2342071.739;17.211;13.597;22.165;29.504;19.073;9.611;15.981;5.253
2342071.747;16.019;11.660;21.271;27.940;16.503;5.551;12.256;-5.141
2342071.755;9.127;3.688;14.827;18.515;12.815;6.743;12.740;3.800
2342071.763;5.141;0.261;12.591;15.199;10.170;-1.639;3.390;-7.823
2342071.771;9.723;4.806;15.385;20.638;10.654;5.998;10.282;4.619
2342071.779;15.944;11.176;19.930;26.599;15.460;12.778;16.168;9.425
2342071.787;16.801;11.884;20.415;29.653;11.399;11.623;16.429;-0.522
2342071.795;15.572;11.250;19.521;29.355;11.809;18.366;25.816;13.895
2342071.803;19.968;15.050;24.624;31.963;18.924;15.013;24.214;5.141
2342071.811;26.114;20.228;30.398;35.465;27.604;19.893;28.275;15.348
2342071.819;24.736;20.415;27.977;35.018;23.618;14.640;21.793;8.419
2342071.831;22.054;18.999;24.103;33.081;19.930;14.678;22.277;14.342
2342071.839;22.016;18.366;23.842;33.006;17.993;12.293;18.477;9.090
2342071.847;18.701;14.305;20.675;29.318;17.025;16.056;19.819;13.560
2342071.855;16.280;10.952;18.328;26.263;16.503;14.827;19.670;13.039
2342071.863;14.119;8.866;15.832;23.469;13.188;7.600;13.672;7.190
2342071.871;14.380;8.307;16.615;21.681;13.784;6.445;12.256;6.221
2342071.879;12.666;5.625;14.901;19.819;12.144;7.637;13.411;7.115
2342071.887;14.715;8.419;18.068;22.426;16.727;10.766;15.721;10.096
2342071.895;14.678;8.233;18.291;21.346;17.211;9.239;11.809;7.972
2342071.903;7.600;0.484;13.374;15.534;11.958;6.594;8.829;7.227
2342071.911;9.015;1.304;15.497;17.695;15.870;8.792;11.623;9.872
2342071.919;14.454;5.141;20.005;20.377;20.452;10.841;14.827;12.591
2342071.927;16.950;7.488;22.911;20.936;20.862;7.264;9.760;8.829
2342071.935;10.617;2.086;16.056;16.168;14.789;4.619;6.184;4.210
2342071.943;14.976;6.966;19.968;22.501;17.546;11.809;13.150;12.144
2342071.951;11.139;5.998;14.529;21.681;11.399;8.792;13.709;4.619
2342071.959;12.815;6.557;15.497;21.569;14.156;12.070;19.297;10.096
2342071.967;11.548;4.470;13.635;18.217;9.276;5.625;14.305;2.608
2342071.975;9.425;2.310;10.729;14.491;6.966;6.147;15.125;4.210
2342071.983;6.668;-0.037;7.339;10.207;2.272;3.688;12.405;1.863
2342071.991;19.446;11.548;19.595;20.079;15.423;10.617;17.844;8.494
2342071.999;20.675;13.001;20.415;20.638;18.924;10.096;14.491;8.717
2342072.007;17.472;8.531;18.403;16.801;16.727;8.382;8.605;6.445
2342072.015;16.131;6.445;15.646;13.523;11.623;7.004;4.321;5.104
2342072.026;18.626;9.499;18.626;14.938;14.305;11.623;8.717;12.442
2342072.034;30.063;22.464;28.051;29.206;23.469;16.913;17.807;17.956
2342072.042;31.255;25.518;28.461;33.081;22.538;15.311;18.664;15.944
2342072.050;33.379;28.163;30.994;36.657;21.569;9.015;14.454;9.835
2342072.058;40.531;35.539;40.270;46.603;29.504;10.245;15.795;11.101
2342072.066;47.535;42.506;48.280;53.160;33.453;9.499;15.497;9.239
2342072.074;57.332;53.272;59.418;63.591;40.755;9.350;13.374;12.815
2342072.082;69.998;66.981;72.047;79.498;51.521;11.101;13.895;17.062
2342072.090;83.148;83.335;87.135;99.018;59.605;7.078;11.064;11.213
2342072.098;96.187;98.385;104.010;115.857;66.161;0.037;3.949;6.892
2342072.106;110.678;112.690;120.364;132.881;76.182;-0.410;1.490;7.786
2342072.114;128.150;129.789;140.145;152.737;91.270;3.092;4.023;13.337
2342072.122;139.698;143.088;152.327;167.042;97.305;6.743;6.333;12.368
2342072.130;150.762;153.743;165.477;178.777;108.294;13.784;13.374;19.148
2342072.138;153.407;155.754;166.856;181.571;109.151;13.113;15.385;16.093
2342072.146;144.318;145.249;156.797;169.165;98.385;14.231;17.546;12.517
2342072.154;149.161;150.390;160.076;171.997;102.408;21.644;25.593;19.744
2342072.162;145.957;146.180;155.233;164.695;101.626;24.550;26.971;22.911
2342072.170;131.503;130.273;140.332;146.329;90.189;22.054;23.916;23.358
2342072.178;118.762;116.415;127.405;129.081;83.596;20.303;21.830;22.538
2342072.186;107.773;104.718;113.882;116.192;76.443;18.179;19.670;21.234
2342072.194;92.946;89.593;98.459;100.508;66.757;10.468;9.127;15.907
2342072.202;87.321;82.068;94.213;91.232;62.808;7.190;4.359;7.041
2342072.210;81.174;73.649;89.668;82.217;62.995;15.497;13.784;16.205
2342072.221;67.763;59.754;74.357;69.104;44.927;13.374;12.368;11.213
2342072.229;61.281;54.538;67.614;65.267;39.414;11.064;12.070;7.339
2342072.237;59.642;52.489;65.900;63.926;40.755;12.517;14.678;9.239
2342072.245;50.664;43.325;57.779;54.538;36.545;7.786;9.723;5.476
2342072.253;41.835;34.459;49.621;45.858;29.020;3.688;5.551;1.863
2342072.261;41.761;34.273;48.727;45.560;27.716;4.470;6.780;0.447
2342072.269;41.127;33.118;47.870;44.927;30.585;7.488;9.425;7.413
2342072.277;43.213;34.943;50.366;46.939;33.341;10.543;10.803;7.823
2342072.285;44.033;35.167;50.999;47.833;36.359;16.615;13.560;15.683
2342072.293;38.743;30.138;46.864;40.866;29.877;13.858;10.431;8.307
2342072.301;37.104;27.604;46.194;38.631;28.685;16.801;14.864;9.686
2342072.309;33.863;24.550;42.357;38.110;23.991;18.179;18.328;9.574
2342072.317;29.653;20.266;37.476;34.124;19.185;16.764;18.589;7.115
2342072.325;29.877;19.893;38.445;34.198;20.936;19.073;21.197;9.984
2342072.333;29.020;19.222;37.812;33.826;20.191;18.254;19.819;5.737
2342072.341;27.865;17.472;37.700;31.032;21.979;18.515;19.334;9.350
2342072.349;17.956;7.637;28.014;20.899;10.133;11.437;9.649;6.557
2342072.357;10.915;0.708;21.495;14.156;2.868;4.396;1.863;-0.633
2342072.365;9.649;-1.602;20.117;11.586;4.023;2.645;-2.868;2.086
2342072.373;9.984;0.373;21.905;13.560;5.253;0.931;-2.719;-1.080
2342072.381;10.692;1.229;22.687;11.846;8.047;3.502;2.012;4.396
2342072.389;13.635;2.868;25.667;12.405;10.803;3.204;1.304;-1.751
2342072.397;12.480;1.900;22.762;13.821;5.737;5.700;5.513;3.763
2342072.405;8.345;-0.410;16.503;13.113;-2.235;4.135;4.396;0.410
2342072.418;7.488;0.075;17.025;14.082;1.080;5.327;5.849;1.751
2342072.426;4.619;-2.123;14.752;14.044;-0.261;4.135;4.396;0.149
2342072.434;3.092;-2.757;13.933;13.672;0.335;5.141;5.513;0.186
2342072.442;6.668;1.416;16.615;17.732;4.210;10.468;10.282;7.004
2342072.450;13.001;6.631;22.165;22.613;10.356;13.039;9.984;8.382
2342072.458;11.660;4.917;20.452;21.793;9.276;10.990;6.258;9.090
2342072.466;7.786;1.676;17.136;18.999;7.488;7.637;4.619;3.874
2342072.474;9.164;2.906;19.819;19.930;10.431;9.611;8.196;4.694
2342072.482;8.456;-0.075;18.813;16.391;9.686;6.817;5.513;2.310
2342072.490;7.637;-1.267;16.876;14.044;5.849;3.055;1.118;-1.378
2342072.498;7.674;-0.447;14.342;15.125;3.017;2.533;0.931;-0.633
2342072.506;2.459;-4.023;7.078;10.543;-3.502;0.298;0.149;-0.224
2342072.514;3.651;-3.390;7.488;9.798;-3.502;0.186;-0.037;-0.112
2342072.522;9.798;3.055;12.703;16.280;0.335;4.321;4.172;0.075
2342072.530;9.611;3.204;13.299;16.652;2.086;6.631;7.898;3.353
2342072.538;9.090;2.384;15.348;15.423;4.396;4.023;3.949;-2.123
2342072.546;8.196;2.198;14.268;14.678;4.917;7.711;6.557;6.296
2342072.554;9.686;4.098;15.646;16.317;5.662;5.811;4.880;3.651
2342072.562;12.070;5.923;17.174;18.738;7.860;6.817;6.892;8.158
2342072.570;17.136;10.319;21.979;22.799;10.282;4.210;3.763;2.421
2342072.578;14.529;7.860;18.924;19.558;8.717;0.969;0.149;2.906
2342072.586;18.515;11.325;22.724;22.203;13.597;3.688;3.204;1.118
2342072.594;19.558;11.697;23.767;22.873;15.534;7.711;7.339;7.711
2342072.602;18.254;9.984;22.948;20.862;12.815;5.700;4.135;4.321
2342072.610;20.415;12.554;23.954;25.257;14.305;10.245;8.829;9.127
2342072.618;14.268;8.009;17.509;21.346;7.264;6.445;5.290;5.849
2342072.626;13.225;8.084;15.274;21.048;3.576;6.780;8.345;3.427
2342072.634;14.678;9.686;16.354;21.569;5.998;7.637;9.164;7.488
2342072.642;14.342;7.749;15.385;17.136;4.433;4.061;4.582;3.353
2342072.650;11.139;4.061;11.884;13.039;2.570;2.943;2.272;4.731
2342072.658;9.276;5.215;8.456;15.572;-1.416;1.267;-0.261;1.341
2342072.666;8.382;3.614;7.562;12.666;-0.224;0.857;-1.416;3.651
2342072.674;11.437;6.072;11.288;15.087;3.949;2.757;1.341;1.639
2342072.682;10.245;4.470;10.468;13.933;3.949;5.029;2.980;3.763
2342072.690;14.976;9.052;14.752;18.217;9.574;9.090;5.104;5.588
2342072.698;12.890;6.258;13.299;15.087;7.562;5.253;-0.410;7.302
2342072.706;19.372;10.878;20.415;19.148;14.529;6.780;1.229;7.302
2342072.714;20.862;12.480;21.569;20.303;16.019;6.258;2.868;8.084
2342072.722;18.477;10.394;17.397;17.285;11.250;0.149;-2.682;0.000
2342072.730;22.352;13.113;22.464;19.558;17.472;9.276;5.737;13.076
2342072.738;28.573;20.154;28.461;24.736;22.426;11.511;6.221;8.978
2342072.746;32.969;25.816;30.920;29.802;25.518;20.303;15.385;24.289
2342072.754;24.699;19.036;21.942;22.836;14.156;11.474;8.717;9.350
2342072.762;22.352;15.385;19.260;16.578;13.225;10.692;8.270;11.697
2342072.770;23.060;16.615;18.366;18.999;13.001;10.356;9.947;11.250
2342072.778;21.309;16.093;16.131;20.526;11.846;8.568;8.903;7.972
2342072.786;21.830;17.546;15.572;22.613;11.101;10.803;12.256;12.070
2342072.794;20.377;16.429;14.752;20.973;9.499;11.213;11.325;10.245
2342072.792;22.240;19.446;16.131;23.320;10.803;17.025;15.534;13.076
2342072.800;25.108;22.464;18.366;26.934;12.256;22.762;18.477;17.732
2342072.808;19.930;17.248;12.852;22.203;6.184;17.509;10.878;9.015
2342072.816;21.830;18.589;15.534;22.613;12.256;18.179;10.952;15.460
2342072.824;21.271;18.664;16.913;22.016;14.529;14.752;7.600;9.947
2342072.832;20.973;18.403;15.758;21.979;11.735;20.899;14.678;17.844
2342072.840;23.246;20.042;17.956;23.805;13.784;20.713;18.068;14.491
2342072.848;24.512;22.203;20.415;25.444;17.472;23.432;22.128;22.538
2342072.856;21.346;19.558;16.578;23.656;10.915;15.162;12.815;10.915
2342072.864;19.781;16.540;14.938;19.744;9.537;11.921;9.201;14.305
2342072.872;20.899;16.093;18.366;17.323;8.978;4.880;1.229;2.123
2342072.880;26.114;20.862;26.003;24.401;18.850;11.250;7.078;13.113
2342072.888;28.610;24.326;28.014;29.728;20.452;8.568;3.241;7.562
2342072.896;29.132;27.157;27.604;32.596;16.652;6.445;1.416;7.004
2342072.904;39.712;38.072;38.892;43.586;25.034;5.476;3.166;1.974
2342072.912;50.738;50.813;49.099;58.748;32.969;9.574;7.786;11.399
2342072.920;56.550;59.418;54.277;68.843;32.410;8.754;6.184;7.488
2342072.928;67.912;74.431;66.906;90.599;43.549;14.715;12.331;16.093
2342072.936;86.054;97.901;82.180;117.868;50.813;13.970;10.617;12.778
2342072.944;106.245;124.760;102.818;148.863;64.857;22.613;18.999;22.165
2342072.952;132.136;155.270;132.173;185.668;88.140;26.263;22.538;25.593
2342072.960;148.416;173.301;152.960;204.854;101.216;24.475;21.271;23.656
2342072.968;156.425;178.404;164.434;205.934;105.612;23.097;19.111;22.836
2342072.976;179.894;200.570;189.506;230.148;124.387;26.748;23.097;23.246
2342072.986;185.221;204.556;197.180;234.582;128.113;28.908;27.083;27.679
2342072.994;177.883;195.689;190.809;226.423;116.862;14.491;14.976;13.001
2342073.002;186.749;202.693;201.464;233.576;126.846;16.280;17.881;21.420
2342073.010;192.896;208.952;207.275;239.350;129.789;16.056;17.881;19.409
2342073.018;202.358;218.749;215.024;246.540;137.202;22.203;28.610;29.244
2342073.026;198.074;213.720;210.851;239.424;131.167;18.813;27.865;17.174
2342073.034;200.756;214.614;214.316;241.436;134.669;16.913;25.444;19.595
2342073.042;209.399;223.741;220.835;251.606;140.779;23.544;29.877;25.555
2342073.050;205.785;216.886;217.743;242.256;141.077;31.330;36.582;31.702
2342073.058;194.237;202.954;207.052;225.194;134.781;26.599;30.845;27.567
2342073.066;176.057;183.135;187.978;202.134;118.390;24.550;28.424;26.375
2342073.074;154.525;159.182;166.520;174.195;102.669;16.727;22.277;16.801
2342073.082;135.191;138.655;145.473;150.055;89.779;17.695;23.358;15.534
2342073.090;120.476;122.860;130.758;132.844;82.441;18.142;22.762;16.578
2342073.098;106.581;107.996;114.404;116.974;68.322;15.832;21.718;12.890
2342073.106;101.291;100.285;108.331;109.039;64.969;14.864;20.489;10.543
2342073.114;94.101;91.679;102.259;99.838;64.448;12.070;18.775;8.382
2342073.122;83.037;77.635;91.903;83.335;58.636;14.640;19.930;11.027
2342073.130;80.690;74.171;90.264;78.194;58.413;19.930;22.687;17.248
2342073.138;72.531;66.087;80.615;70.818;52.303;21.644;23.507;17.472
2342073.146;60.908;54.389;68.955;58.860;41.611;16.727;19.744;11.437
2342073.154;49.435;42.319;58.338;47.572;35.055;12.107;15.609;9.090
2342073.162;41.053;34.943;48.988;39.376;26.599;10.058;13.970;7.488
2342073.170;30.734;24.363;37.849;28.424;16.131;2.310;5.364;1.080
2342073.181;22.911;16.056;30.622;19.260;11.660;-1.974;-1.155;-1.527
2342073.189;24.661;17.770;32.820;19.632;14.491;1.304;1.825;0.373
2342073.197;23.246;14.380;30.883;15.721;14.603;5.104;7.153;2.757
2342073.205;16.801;7.860;22.538;8.792;5.923;6.892;9.611;2.272
2342073.213;16.615;7.786;21.458;8.643;6.594;9.462;10.133;3.465
2342073.221;10.990;1.527;15.050;3.092;1.676;7.004;5.700;1.825
2342073.229;14.864;6.855;19.558;7.376;6.855;13.188;11.623;9.984
2342073.237;9.686;1.378;14.715;0.373;2.570;11.884;10.617;9.537
2342073.245;0.484;-8.792;7.041;-9.127;-5.029;8.531;7.562;6.109
2342073.253;-0.447;-9.649;4.657;-8.345;-4.992;11.660;12.368;8.307
2342073.261;-3.651;-10.766;-0.149;-8.047;-9.686;14.268;16.764;10.245
2342073.269;-12.740;-19.483;-8.792;-16.429;-17.583;6.333;10.394;2.123
2342073.277;-24.028;-30.473;-19.856;-27.381;-28.126;-4.284;1.416;-4.321
2342073.285;-26.710;-34.310;-21.979;-32.373;-27.753;-7.413;-1.639;-6.892
2342073.293;-24.438;-31.665;-20.005;-30.361;-26.785;-2.235;4.508;-2.831
2342073.301;-28.089;-35.204;-25.742;-33.341;-34.049;-1.118;4.731;-1.863
2342073.309;-32.224;-37.812;-29.504;-35.204;-35.875;-1.267;3.614;-3.055
2342073.317;-29.728;-33.937;-26.599;-31.292;-30.324;3.949;7.302;0.596
2342073.325;-28.610;-32.596;-23.991;-30.138;-26.934;5.551;5.886;4.135
2342073.333;-33.826;-38.296;-27.493;-36.955;-31.516;-1.453;-2.943;0.782
2342073.341;-34.757;-42.357;-27.530;-42.282;-31.143;-1.825;-4.433;3.986
2342073.349;-28.163;-35.763;-21.011;-36.210;-24.736;3.763;2.533;6.780
2342073.357;-27.046;-32.857;-20.787;-31.516;-24.252;5.737;5.625;4.284
2342073.365;-28.573;-33.900;-21.495;-32.112;-23.954;2.943;4.508;1.788
2342073.376;-28.349;-33.453;-21.197;-32.485;-23.432;3.166;4.545;1.751
2342073.384;-23.767;-29.057;-17.621;-28.051;-20.675;4.321;4.545;4.657
2342073.392;-26.748;-32.522;-18.217;-31.553;-20.489;1.825;0.782;2.086
2342073.400;-22.687;-29.095;-14.007;-27.940;-16.280;2.272;2.012;0.782
2342073.408;-19.334;-26.338;-12.256;-25.220;-15.385;-0.894;-1.527;-4.135
2342073.416;-23.879;-30.026;-17.174;-28.275;-20.191;-4.433;-4.731;-4.061
2342073.424;-27.120;-32.783;-20.191;-28.871;-21.830;-5.439;-3.576;-2.533
2342073.432;-33.639;-38.631;-26.785;-35.241;-28.200;-7.413;-3.837;-2.161
2342073.440;-35.129;-38.408;-28.983;-36.247;-31.181;-4.172;0.447;1.304
2342073.448;-26.673;-27.195;-21.793;-25.108;-23.060;4.917;9.239;5.662
2342073.456;-28.461;-28.834;-23.171;-28.051;-23.358;3.651;6.817;3.874
2342073.464;-33.379;-34.496;-28.834;-33.677;-31.255;-0.186;1.937;1.676
2342073.472;-31.069;-32.447;-28.536;-32.336;-30.734;0.745;1.788;4.843
2342073.480;-29.691;-30.547;-29.095;-29.989;-29.020;1.639;1.937;5.327
2342073.488;-25.257;-26.673;-26.077;-27.269;-26.040;2.272;2.570;4.284
2342073.496;-17.770;-20.713;-17.658;-23.805;-16.168;5.104;5.700;7.153
2342073.504;-19.222;-23.283;-19.372;-27.567;-15.609;3.614;3.129;6.035
2342073.512;-33.081;-37.178;-33.937;-41.351;-28.275;-8.121;-8.866;-8.866
2342073.520;-32.969;-35.353;-34.012;-38.967;-28.946;-2.831;-0.633;-2.161
2342073.528;-24.959;-27.269;-26.077;-29.467;-21.048;2.235;6.892;3.986
2342073.536;-22.948;-25.593;-23.730;-28.014;-18.589;-0.186;4.210;2.459
2342073.544;-21.495;-23.767;-22.501;-25.928;-17.732;-1.639;2.049;-0.745
2342073.552;-20.601;-22.389;-21.234;-25.034;-15.832;0.931;4.172;0.186
2342073.560;-16.280;-17.844;-15.534;-21.197;-9.090;5.290;6.743;5.849
2342073.556;-19.297;-20.713;-18.962;-23.879;-14.603;2.496;3.204;2.757
2342073.564;-22.203;-25.108;-21.718;-28.610;-17.434;0.075;-1.602;1.341
2342073.572;-23.767;-27.902;-24.140;-32.783;-20.564;-0.298;-4.135;4.284
2342073.580;-27.120;-29.616;-28.573;-46.268;-26.561;-0.224;-2.123;3.949
2342073.588;-31.628;-34.161;-32.373;-65.640;-29.430;-2.161;-2.459;-0.820
2342073.596;-27.455;-30.324;-27.567;-63.442;-24.289;8.345;8.941;6.445
2342073.604;-24.922;-29.504;-25.928;-62.697;-22.948;16.131;16.727;13.709
2342073.612;-30.696;-35.726;-33.565;-69.477;-29.467;13.299;12.591;11.288
2342073.620;-29.616;-34.347;-33.155;-68.136;-26.226;13.970;13.001;14.827
2342073.628;-34.161;-36.657;-36.433;-69.328;-27.195;13.523;11.474;13.486
2342073.636;-32.298;-33.006;-35.129;-63.442;-30.398;5.178;2.459;2.198
2342073.644;-22.911;-24.997;-25.891;-55.321;-23.469;3.912;1.602;3.912
2342073.652;-21.346;-24.475;-26.524;-56.177;-22.799;2.533;0.186;4.247
2342073.660;-16.578;-21.011;-22.464;-52.713;-18.775;5.327;2.310;7.451
2342073.668;-18.142;-22.873;-25.183;-54.203;-20.564;5.774;2.831;12.517
2342073.676;-27.381;-31.292;-34.086;-63.069;-28.275;-0.112;-0.484;5.886
2342073.684;-27.493;-31.292;-33.006;-63.553;-26.710;0.484;3.576;4.992
2342073.692;-23.320;-27.008;-29.132;-57.966;-23.805;-0.857;5.551;2.310
2342073.700;-22.128;-25.630;-31.553;-54.985;-27.567;-2.198;3.912;1.490
2342073.708;-26.897;-28.163;-38.669;-58.860;-35.986;-3.129;2.868;-0.559
2342073.716;-23.469;-22.799;-35.018;-54.799;-30.398;4.098;8.866;7.190
2342073.724;-18.887;-18.068;-31.255;-49.360;-28.387;4.061;8.978;2.757
2342073.732;-16.354;-16.503;-28.983;-47.088;-24.065;8.047;13.933;8.903
2342073.740;-21.346;-20.675;-34.459;-51.595;-29.840;4.731;8.196;3.502
2342073.751;-19.148;-16.764;-32.969;-47.311;-27.902;7.674;7.898;6.221
2342073.759;-13.858;-11.474;-28.983;-42.319;-23.767;8.717;7.264;12.852
2342073.767;-15.497;-14.640;-30.398;-45.039;-24.848;0.373;1.229;6.482
2342073.775;-17.919;-17.919;-33.826;-47.311;-25.630;2.645;4.843;9.798
2342073.783;-13.672;-12.890;-29.840;-42.468;-21.756;9.127;10.692;14.380
2342073.791;-10.990;-10.505;-27.604;-40.941;-21.793;9.947;12.778;10.766
2342073.799;-16.652;-14.827;-33.267;-44.629;-28.461;11.027;13.150;12.182
2342073.807;-23.358;-23.246;-37.104;-52.191;-32.485;9.276;8.307;14.789
2342073.815;-27.902;-29.914;-40.494;-58.822;-35.129;2.943;0.671;9.313
2342073.823;-28.759;-31.516;-39.153;-60.536;-33.192;-4.731;-4.284;2.757
2342073.831;-23.879;-25.332;-35.204;-53.830;-29.057;-4.657;-2.608;3.204
2342073.839;-22.985;-24.177;-34.496;-52.415;-27.455;-0.261;1.006;4.955
2342073.847;-32.671;-32.783;-42.729;-61.952;-35.092;1.602;0.522;8.009
2342073.855;-35.539;-36.173;-45.076;-66.683;-37.178;2.682;0.447;8.941
2342073.863;-33.043;-33.230;-42.990;-65.602;-36.396;3.166;-0.522;6.780
2342073.871;-29.020;-29.951;-39.488;-61.914;-31.590;4.843;1.565;8.605
2342073.879;-30.324;-32.447;-39.712;-63.814;-32.708;-0.335;-3.166;0.671
2342073.887;-30.100;-32.149;-40.159;-62.920;-34.086;0.969;-1.900;3.539
2342073.895;-27.716;-29.393;-37.961;-60.797;-30.324;5.998;1.788;12.331
2342073.903;-34.831;-36.098;-43.847;-67.726;-36.024;0.931;-4.768;4.582
2342073.911;-30.063;-31.590;-40.755;-65.230;-32.075;4.880;-4.545;8.009
2342073.919;-21.905;-23.171;-35.167;-58.077;-27.828;4.582;-4.508;5.774
2342073.927;-18.030;-19.446;-31.777;-55.172;-25.444;1.080;-6.407;2.384
2342073.935;-17.248;-19.111;-30.622;-52.974;-25.332;-0.633;-5.811;2.086
2342073.962;-22.240;-24.959;-35.167;-56.438;-28.238;-6.519;-10.729;-3.874
2342073.970;-25.630;-28.349;-38.221;-59.232;-32.000;-6.929;-10.394;-4.843
2342073.978;-27.902;-29.653;-39.004;-59.940;-33.714;0.335;-4.247;1.565
2342073.986;-26.710;-28.834;-35.986;-57.220;-31.032;3.576;-2.310;6.407
2342073.994;-29.318;-30.212;-40.382;-56.736;-36.471;-4.433;-10.766;-2.384
2342074.002;-30.808;-31.553;-40.121;-56.885;-38.147;-10.580;-16.987;-12.890
2342074.010;-27.418;-31.441;-34.720;-55.581;-31.777;-7.153;-11.809;-10.617
2342074.018;-27.902;-31.590;-33.863;-54.911;-30.808;-6.184;-9.276;-11.399
2342074.026;-28.051;-30.585;-33.639;-51.185;-31.628;-2.459;-5.290;-5.439
2342074.034;-22.016;-25.406;-27.195;-46.082;-23.171;5.737;3.763;3.502
2342074.042;-23.134;-26.971;-29.281;-48.205;-29.057;6.445;4.843;2.682
2342074.050;-22.314;-26.301;-26.189;-47.535;-26.487;5.513;1.714;3.576
2342074.058;-26.822;-30.100;-29.467;-51.297;-30.249;1.378;-4.768;1.192
2342074.066;-30.361;-32.447;-34.124;-51.409;-37.588;-4.247;-12.219;-2.272
2342074.074;-31.814;-36.582;-34.571;-54.911;-37.700;-1.639;-10.729;1.676
2342074.082;-28.461;-34.757;-27.157;-53.495;-29.206;-8.605;-15.423;-6.445
2342074.090;-11.325;-17.360;-9.239;-37.439;-11.697;-7.115;-11.772;-0.186
2342074.098;-8.792;-15.683;-5.327;-35.502;-11.474;-7.302;-10.021;-2.012
2342074.106;-13.933;-20.713;-9.425;-39.376;-14.305;3.427;0.894;10.878
2342074.114;-20.117;-26.040;-16.056;-45.784;-18.626;4.917;1.267;9.462
2342074.122;-30.622;-36.918;-28.498;-56.587;-29.020;4.657;0.410;12.890
2342074.130;-40.941;-47.646;-40.010;-66.757;-42.543;-5.476;-8.903;-2.235
2342074.138;-40.308;-46.454;-39.265;-66.012;-40.121;-6.631;-6.929;-2.533
2342074.146;-41.723;-46.343;-41.611;-64.634;-43.288;-9.276;-8.009;-7.562
2342074.143;-40.419;-45.411;-40.196;-63.144;-40.159;-7.302;-6.631;-4.098
2342074.151;-36.694;-42.059;-36.061;-59.269;-38.706;-6.035;-5.849;-5.402
2342074.159;-36.508;-42.766;-36.024;-58.673;-37.886;-4.731;-6.072;-4.806
2342074.167;-34.980;-38.855;-34.422;-53.979;-35.800;2.384;2.496;-1.118
2342074.175;-33.602;-36.135;-34.608;-51.968;-36.471;0.894;2.608;-6.929
2342074.183;-36.396;-39.712;-39.898;-55.470;-41.090;-4.955;-4.135;-12.405
2342074.191;-37.104;-40.196;-41.351;-55.321;-41.574;-6.557;-6.817;-11.586
2342074.199;-31.516;-34.906;-35.018;-50.850;-35.092;-6.184;-5.960;-11.325
2342074.207;-23.805;-29.318;-24.289;-47.386;-23.022;-2.421;-3.055;-3.949
2342074.215;-18.179;-25.332;-15.944;-44.107;-14.007;0.224;-1.080;-1.043
2342074.223;-15.125;-21.383;-13.448;-39.414;-13.597;2.794;1.639;3.614
2342074.231;-13.225;-18.738;-11.437;-35.763;-13.374;1.453;2.012;1.006
2342074.239;-15.721;-20.117;-14.901;-36.322;-15.870;0.298;1.490;0.261
2342074.247;-23.209;-25.630;-23.097;-41.313;-23.916;-4.023;-3.204;-0.969
2342074.255;-28.200;-29.542;-31.032;-44.219;-33.602;-4.880;-4.470;-0.931
2342074.263;-29.206;-31.292;-33.453;-46.454;-35.763;-2.682;-2.421;-0.894
2342074.271;-26.263;-28.349;-28.238;-44.294;-28.759;1.788;0.969;3.017
2342074.279;-25.034;-27.306;-27.381;-42.431;-28.089;1.155;-0.410;2.198
2342074.287;-19.185;-20.415;-21.532;-33.900;-25.034;7.153;6.184;5.625
2342074.295;-16.429;-16.913;-18.515;-29.691;-22.687;10.468;9.798;7.153
2342074.303;-20.601;-21.718;-24.140;-34.012;-27.344;10.170;10.617;6.780
2342074.311;-22.054;-21.383;-28.014;-32.075;-33.230;7.339;7.674;-0.410
2342074.319;-13.374;-12.070;-19.595;-23.358;-23.022;11.697;12.144;1.490
2342074.327;-11.884;-9.201;-18.664;-21.830;-22.873;12.182;12.852;1.043
2342074.335;-10.543;-7.749;-17.099;-21.420;-19.744;11.139;11.995;0.745
2342074.343;-10.654;-8.196;-17.434;-22.426;-19.968;8.829;11.250;0.261
2342074.351;-13.225;-10.952;-16.764;-24.550;-20.415;4.917;7.227;-0.931
2342074.359;-4.917;-3.725;-7.749;-16.801;-10.915;3.576;4.172;-0.298
2342074.367;-6.147;-3.949;-13.113;-17.509;-16.354;5.178;4.694;1.602
2342074.375;-7.488;-4.284;-15.087;-17.025;-15.274;3.614;2.906;2.012
2342074.383;-3.800;-1.714;-9.872;-14.976;-14.007;2.086;-1.043;1.043
2342074.391;-14.417;-13.895;-18.924;-28.946;-20.526;1.416;-3.986;3.763
2342074.399;-16.540;-17.248;-20.675;-32.894;-21.569;0.820;-5.253;3.539
2342074.407;-13.337;-14.566;-16.764;-29.840;-17.732;-4.098;-8.829;-0.186
2342074.415;-10.803;-11.884;-15.646;-27.083;-16.987;-7.935;-11.325;-2.421
2342074.423;-10.654;-10.654;-16.280;-25.891;-17.062;-5.811;-8.345;-3.241
2342074.431;-14.529;-14.454;-19.222;-30.547;-20.564;-5.886;-7.227;-6.035
2342074.439;-22.203;-24.736;-26.003;-41.425;-25.593;-15.721;-14.901;-15.013
2342074.447;-22.464;-25.257;-25.220;-43.139;-24.959;-16.503;-15.646;-13.895
2342074.455;-25.593;-28.312;-28.610;-47.050;-26.487;-15.423;-14.976;-10.766
2342074.463;-25.295;-28.685;-28.685;-46.939;-26.599;-12.107;-11.809;-7.339
2342074.471;-25.593;-28.424;-29.467;-46.529;-28.834;-13.597;-13.597;-5.960
2342074.479;-24.363;-26.412;-28.089;-43.772;-27.679;-15.162;-15.832;-3.241
2342074.487;-23.060;-23.656;-27.642;-40.755;-28.126;-17.062;-18.030;-8.121
2342074.495;-20.191;-21.346;-26.412;-38.184;-25.034;-11.511;-13.635;-2.198
2342074.503;-16.093;-17.434;-23.246;-34.124;-21.905;-3.539;-6.668;2.794
2342074.511;-10.915;-11.064;-18.701;-28.312;-17.248;0.931;-1.900;4.768
2342074.519;-5.811;-4.955;-14.044;-23.767;-13.225;1.229;0.745;3.725
2342074.516;1.192;1.751;-6.109;-15.758;-7.711;4.657;6.296;9.313
2342074.524;3.241;3.278;-2.719;-14.156;-3.241;1.676;2.012;9.201
2342074.532;5.327;5.364;-0.820;-12.219;-0.075;3.763;1.527;13.374
2342074.540;0.410;2.310;-6.072;-15.721;-6.109;-0.484;-4.359;10.096
2342074.548;-5.811;-4.247;-14.380;-23.134;-15.162;-10.021;-13.150;0.037
2342074.556;-4.768;-4.172;-12.964;-23.022;-12.703;-11.474;-14.044;-0.075
2342074.564;-7.190;-5.923;-15.236;-24.810;-14.342;-12.740;-15.907;-3.353
2342074.572;-8.792;-8.941;-17.174;-28.275;-15.385;-11.250;-13.448;-3.316
2342074.580;-9.201;-9.127;-16.652;-28.647;-14.715;-10.878;-12.293;-4.023
2342074.588;-8.643;-10.245;-15.944;-29.393;-13.672;-14.566;-11.548;-8.605
2342074.596;-6.333;-8.866;-13.411;-27.195;-9.649;-10.692;-5.029;-5.513
2342074.604;-8.307;-9.574;-15.646;-26.971;-12.405;-8.531;-3.017;-3.986
2342074.612;-13.076;-16.280;-21.122;-33.639;-16.838;-9.835;-7.153;-2.012
2342074.620;-17.025;-19.073;-24.363;-37.104;-21.867;-9.201;-9.835;0.447
2342074.628;-16.913;-18.328;-25.146;-37.551;-22.687;-10.133;-13.113;-2.906
2342074.636;-19.409;-20.936;-27.604;-39.823;-24.736;-8.792;-13.188;0.410
2342074.644;-26.114;-26.412;-32.671;-45.709;-28.238;-16.317;-23.693;-6.892
2342074.652;-22.165;-21.346;-29.057;-39.451;-22.501;-11.586;-19.222;-1.267
2342074.660;-13.448;-12.517;-20.787;-29.579;-16.689;-2.533;-8.233;4.172
2342074.668;-13.672;-12.740;-22.426;-30.696;-20.377;-5.476;-9.015;-0.037
2342074.676;-6.668;-5.662;-16.466;-24.103;-13.188;-5.960;-7.749;-1.490
2342074.684;-1.602;-0.186;-12.256;-17.807;-8.196;-5.737;-5.253;-3.129
2342074.692;-4.582;-3.353;-14.864;-21.085;-10.356;-5.551;-3.912;-3.017
2342074.700;-9.052;-6.631;-17.546;-24.326;-13.784;-1.974;-1.118;1.788
2342074.710;-6.333;-4.172;-13.039;-20.526;-7.488;3.800;1.639;9.686
2342074.718;-9.760;-7.562;-16.131;-24.065;-10.915;0.037;-3.725;5.439
2342074.726;-13.970;-11.548;-21.681;-28.834;-17.099;-5.625;-9.947;-0.559
2342074.734;-12.182;-8.233;-23.171;-24.736;-20.638;-7.860;-10.766;-1.118
2342074.742;-10.431;-5.104;-23.283;-20.787;-21.160;-7.413;-8.009;-0.075
2342074.750;-12.107;-7.413;-24.810;-24.512;-21.756;-8.792;-7.786;0.149
2342074.758;-4.247;1.602;-17.285;-16.056;-16.727;-3.502;0.186;0.671
2342074.766;-6.631;-0.186;-19.893;-18.403;-16.727;-6.482;-1.453;-1.974
2342074.774;-10.803;-4.917;-24.252;-22.314;-19.819;-9.798;-5.700;-5.513
2342074.782;-5.066;0.186;-17.360;-15.981;-13.709;-2.868;-0.596;-1.304
2342074.790;-2.459;1.825;-13.821;-15.460;-10.058;-1.788;-0.298;1.453
2342074.798;-2.719;1.118;-14.678;-18.701;-11.213;-3.092;-3.427;3.278
2342074.806;-6.557;-2.980;-18.850;-21.532;-14.417;-5.513;-6.706;3.688
2342074.814;-7.711;-3.949;-20.303;-20.899;-14.864;-4.098;-5.141;6.706
2342074.822;-5.439;-3.390;-16.950;-19.185;-11.586;-1.937;-3.614;7.600
2342074.830;-3.204;-1.490;-14.715;-16.801;-9.127;0.298;-3.390;7.041
2342074.838;0.298;2.794;-10.580;-11.995;-6.482;5.960;0.708;10.654
2342074.846;-5.104;-1.788;-16.689;-15.125;-13.448;1.974;-4.135;7.786
2342074.854;-9.611;-6.855;-20.713;-20.228;-17.658;-4.061;-10.170;3.614
2342074.862;-3.874;-0.410;-13.411;-14.901;-9.164;1.602;-2.943;9.313
2342074.870;0.708;4.396;-9.499;-9.127;-6.557;2.906;-0.373;7.562
2342074.878;0.037;2.868;-9.425;-9.239;-6.296;1.639;-3.278;5.066
2342074.886;-2.161;0.596;-11.027;-10.990;-8.754;0.186;-5.402;4.247
2342074.894;-7.562;-5.364;-15.385;-15.572;-11.474;-3.614;-8.084;-0.708
2342074.905;-8.419;-7.786;-14.231;-17.025;-8.419;-2.012;-6.445;-0.410
2342074.913;-5.215;-6.370;-10.543;-16.019;-4.061;3.986;-1.118;7.227
2342074.921;-0.484;-1.676;-4.843;-12.219;0.410;7.339;1.043;10.282
2342074.929;0.373;-0.075;-4.619;-10.096;-0.075;5.700;2.086;6.519
2342074.937;1.043;1.527;-4.508;-5.811;1.155;4.657;3.539;6.035
2342074.945;1.155;1.118;-4.545;-5.290;0.633;4.582;3.353;2.980
2342074.953;-0.745;-1.341;-5.998;-7.935;-2.831;8.792;6.147;5.998
2342074.961;-0.782;-1.155;-7.376;-7.041;-4.396;12.703;9.052;11.437
2342074.969;0.075;0.410;-6.855;-6.184;-2.533;9.462;6.333;10.207
2342074.977;1.863;2.682;-4.470;-3.539;1.490;6.333;4.172;13.225
2342074.985;-0.075;1.937;-4.806;-4.582;0.298;-4.545;-5.849;-1.751
2342074.993;3.092;4.210;-1.341;-1.788;3.651;-1.006;-4.508;4.768
2342075.001;6.296;6.258;1.714;0.224;3.539;1.565;-2.868;4.172
2342075.009;1.453;2.719;-3.837;-4.396;-2.086;1.006;-3.502;3.017
2342075.017;0.671;2.198;-5.588;-4.247;-3.614;4.321;0.186;7.600
2342075.025;-1.751;0.373;-6.333;-4.955;-5.886;1.751;-0.037;5.290
2342075.033;-3.576;-1.751;-7.115;-7.004;-5.402;-2.161;-3.241;2.459
2342075.041;2.570;4.359;-1.788;-0.894;-0.447;0.671;-0.969;4.396
2342075.049;7.823;9.909;2.906;5.141;3.576;3.688;2.272;7.004
2342075.057;9.537;10.319;5.737;4.880;9.835;4.470;1.825;7.860
2342075.065;15.162;17.025;11.921;9.984;16.093;9.164;7.078;12.666
2342075.073;18.701;20.452;13.597;13.635;16.540;9.835;8.307;13.709
2342075.081;20.005;21.756;13.188;16.205;17.062;9.052;5.551;13.001
2342075.089;20.564;23.022;12.815;18.179;15.683;11.362;6.221;17.546
2342075.101;14.976;18.105;6.557;14.529;8.978;7.935;2.645;9.798
2342075.109;13.784;17.248;5.811;12.591;8.158;9.686;7.227;9.052
2342075.117;11.809;14.231;4.768;8.754;7.004;13.709;11.772;13.039
2342075.125;8.568;10.990;2.086;5.998;5.290;16.280;13.746;11.995
2342075.133;8.680;12.368;3.166;7.413;5.513;17.323;15.050;15.162
2342075.141;8.978;12.778;3.055;8.084;4.992;16.093;13.709;14.752
2342075.149;8.792;9.947;3.390;5.253;7.264;15.683;12.144;15.236
2342075.157;9.127;9.164;3.465;3.576;5.104;8.903;5.849;10.282
2342075.165;13.858;14.789;9.127;8.382;9.537;7.674;5.178;9.947
2342075.173;15.572;17.732;10.915;9.947;13.337;2.049;-0.149;5.439
2342075.181;14.044;15.311;10.021;6.296;13.076;0.037;-0.708;4.992
2342075.189;13.821;15.274;8.643;7.413;12.480;3.837;6.743;5.513
2342075.197;9.313;11.250;3.986;5.439;7.935;5.811;8.754;6.407
2342075.205;1.229;3.390;-3.427;-2.459;0.894;5.886;7.376;9.574
2342075.213;-1.229;1.900;-5.774;-5.066;0.335;4.098;6.184;5.327
2342075.221;1.825;5.029;-4.284;-2.682;2.049;7.004;9.090;7.376
2342075.229;2.608;6.184;-3.986;-1.788;2.123;8.941;7.860;9.388
2342075.237;2.421;5.513;-4.880;-1.453;-0.522;6.035;5.923;6.631
2342075.245;-1.974;0.671;-7.972;-7.041;-4.545;2.943;2.757;6.892
2342075.253;-11.586;-8.531;-16.876;-14.789;-12.666;-5.253;-5.662;1.751
2342075.261;-9.686;-6.743;-15.832;-13.001;-12.517;-7.488;-8.643;2.980
2342075.269;-6.929;-3.129;-13.523;-10.729;-9.425;-10.207;-12.256;2.608
2342075.277;-0.708;2.943;-7.004;-5.476;-1.527;-8.419;-9.574;4.210
2342075.285;-3.204;0.037;-9.239;-9.239;-3.725;-8.084;-8.047;3.241
2342075.312;-6.147;-2.235;-13.597;-10.692;-7.525;-5.364;-4.806;4.172
2342075.320;-4.172;-0.633;-12.852;-8.196;-5.886;0.484;0.447;8.494
2342075.328;-1.304;4.135;-9.909;-2.980;-1.155;10.654;9.611;20.079
2342075.336;-8.121;-2.012;-15.944;-9.239;-7.302;2.868;3.427;9.984
2342075.344;-10.505;-4.210;-16.876;-12.070;-9.984;0.559;-0.298;8.568
2342075.352;-15.162;-9.201;-20.303;-16.131;-12.293;-4.508;-7.823;4.843
2342075.360;-13.895;-7.935;-19.372;-14.864;-10.058;-6.631;-10.803;2.645
2342075.368;-11.250;-4.359;-17.695;-11.288;-10.133;-3.166;-6.333;3.465
2342075.376;-12.778;-4.247;-18.887;-11.511;-11.735;-4.247;-5.960;0.224
2342075.384;-15.087;-6.370;-21.905;-14.938;-14.603;-5.886;-6.370;-3.986
2342075.392;-10.356;-1.527;-16.987;-10.282;-6.631;-0.186;0.000;5.178
2342075.400;-9.574;-1.751;-17.248;-8.754;-8.233;0.931;0.484;7.078
2342075.408;-13.523;-5.998;-20.973;-12.368;-13.150;-1.788;-3.502;4.247
2342075.416;-7.674;-0.149;-15.087;-7.227;-6.370;2.049;-2.272;10.096
2342075.424;-4.284;3.465;-12.554;-4.508;-4.582;5.327;1.341;12.629
2342075.432;-4.508;3.427;-14.864;-5.290;-8.121;0.224;-2.608;6.370
2342075.440;0.335;8.382;-10.245;-1.006;-4.023;1.900;-1.378;8.307
2342075.448;-2.868;5.439;-13.597;-3.316;-7.227;-1.974;-5.886;6.221
2342075.456;-8.345;-0.410;-16.391;-9.201;-9.239;-7.302;-11.064;4.433
2342075.464;-10.394;-1.192;-17.360;-8.717;-13.225;-9.239;-10.356;1.900
2342075.472;-5.364;5.588;-11.548;-0.261;-7.674;-5.476;-6.557;2.421
2342075.480;3.614;13.374;-1.378;8.494;0.671;-1.416;-3.614;5.849
2342075.488;9.015;19.036;4.694;14.417;2.235;0.000;-4.806;5.178
2342075.496;14.268;23.507;9.947;19.073;6.258;1.267;-4.396;4.917
2342075.475;25.854;34.869;22.352;32.522;17.658;5.737;1.267;11.958
2342075.483;35.577;45.784;33.975;44.554;25.257;7.264;5.104;13.225
2342075.491;45.821;56.885;44.964;57.779;30.734;4.582;2.719;13.597
2342075.499;59.083;68.508;59.642;68.732;42.804;5.923;4.917;15.199
2342075.507;71.153;80.205;73.873;81.547;51.334;2.645;2.123;10.505
2342075.515;89.295;98.161;94.250;100.285;63.367;1.602;2.570;7.078
2342075.523;97.193;105.835;103.563;108.667;67.912;4.061;5.811;8.196
2342075.531;97.714;104.606;105.761;107.214;69.253;8.941;9.350;14.193
2342075.539;100.061;106.804;110.827;110.269;73.127;4.992;3.576;12.219
2342075.547;97.230;104.941;108.592;108.182;70.296;3.278;0.708;12.554
2342075.555;92.536;100.769;104.904;104.159;68.173;0.335;-2.943;9.090
2342075.563;86.725;95.963;97.789;98.981;64.373;-1.565;-6.594;10.990
2342075.571;80.541;89.705;87.619;92.946;55.023;-5.215;-10.431;7.451
2342075.579;76.182;85.868;81.472;87.656;52.974;-8.829;-11.213;2.384
2342075.587;68.434;77.151;72.308;75.772;48.131;-9.313;-10.505;3.316
2342075.595;70.259;79.274;71.041;75.884;50.180;-6.631;-8.382;3.763
2342075.603;62.995;71.675;60.648;67.055;42.617;-9.611;-10.878;-0.745
2342075.611;57.332;65.304;53.272;58.636;37.253;-3.204;-2.645;2.906
2342075.619;52.638;60.685;48.131;54.128;34.422;1.155;4.284;5.029
2342075.627;50.850;59.530;44.964;52.191;34.459;4.061;7.711;5.402
2342075.635;46.976;55.842;39.525;47.088;30.361;7.339;7.674;10.990
2342075.643;41.798;50.105;32.671;41.686;25.742;9.574;8.270;13.076
2342075.651;39.600;47.460;29.206;37.663;23.469;8.754;7.413;13.188
2342075.659;33.714;40.904;23.879;29.244;22.203;1.155;1.118;5.923
2342075.684;25.742;32.187;15.050;21.197;15.013;-4.470;-3.614;0.224
2342075.692;19.781;27.344;9.239;16.093;9.425;-2.235;-1.676;1.974
2342075.700;16.503;23.730;6.706;11.437;6.855;2.459;2.831;5.327
2342075.708;12.144;17.807;1.639;6.221;2.086;6.296;5.215;6.407
2342075.716;13.560;20.675;3.129;10.058;4.955;15.795;13.597;13.225
2342075.724;8.009;14.715;-1.900;3.129;2.310;14.864;10.505;16.168
2342075.732;6.855;12.703;-1.527;0.782;3.800;15.795;9.835;20.713
2342075.740;3.390;8.568;-2.533;-1.602;1.490;8.233;2.496;17.881
2342075.748;0.745;4.694;-2.310;-3.316;2.608;3.986;0.149;14.566
2342075.756;8.643;11.697;7.413;4.880;10.394;6.072;4.321;12.070
2342075.764;7.935;9.201;6.482;3.278;6.519;7.674;8.345;11.809
2342075.772;-1.155;0.410;-2.757;-4.992;-2.086;5.737;9.388;9.015
2342075.780;-7.153;-5.364;-7.190;-9.090;-8.233;7.190;7.898;8.754
2342075.788;-13.523;-11.176;-13.486;-12.852;-13.970;6.370;5.476;3.353
2342075.796;-9.164;-5.178;-9.164;-5.066;-12.517;11.213;10.058;4.284
2342075.804;0.671;3.837;0.186;4.359;-0.298;18.887;17.583;12.256
2342075.812;6.407;8.456;6.743;8.568;9.760;22.538;21.569;17.695
2342075.820;6.221;6.706;6.668;5.476;8.494;18.030;16.354;15.236
2342075.828;7.562;7.562;9.127;6.296;9.686;15.236;13.635;15.795
2342075.836;4.619;5.178;6.333;4.880;4.433;9.239;6.370;10.170
2342075.844;1.825;3.651;2.980;3.763;2.421;5.886;2.459;5.513
2342075.852;1.304;4.731;1.453;4.284;2.459;9.872;8.456;9.350
2342075.860;2.347;6.445;2.719;4.545;4.731;14.380;12.219;16.168
2342075.868;-2.794;2.757;-2.645;2.421;-1.602;10.431;7.115;12.778
2342075.865;-1.267;4.396;-0.596;4.731;0.857;8.568;8.233;10.654
2342075.873;3.241;8.419;3.576;7.376;6.594;11.511;10.952;14.789
2342075.881;-2.980;0.410;-2.272;0.298;-0.335;8.680;6.333;11.735
2342075.889;-8.941;-6.855;-7.823;-4.917;-5.327;8.717;4.023;12.852
2342075.897;-13.784;-12.331;-12.629;-9.276;-9.164;7.711;0.075;12.591
2342075.905;-21.309;-19.670;-19.148;-16.540;-15.423;0.633;-7.525;5.327
2342075.913;-24.550;-21.420;-21.718;-18.328;-19.856;-3.092;-10.096;-0.447
2342075.921;-22.613;-18.924;-20.005;-13.933;-15.050;-0.745;-4.135;1.825
2342075.929;-20.862;-16.913;-19.446;-10.878;-13.523;1.080;0.335;1.267
2342075.937;-14.864;-11.139;-15.870;-5.551;-8.307;5.923;5.588;7.153
2342075.945;-9.462;-5.364;-10.282;-0.708;-1.118;9.835;10.356;12.554
2342075.953;-10.803;-5.513;-11.399;1.714;-2.719;9.239;11.213;11.921
2342075.961;-13.225;-7.600;-13.672;1.602;-7.488;2.757;3.725;5.439
2342075.969;-11.288;-6.743;-10.207;1.378;-6.109;-2.868;-2.161;-0.671
2342075.977;-7.339;-3.725;-6.743;3.055;-2.533;-2.421;-1.527;-1.080
2342075.985;-9.313;-5.700;-9.052;0.559;-5.625;-8.829;-9.537;-10.282
2342075.993;-4.470;-2.682;-3.502;4.470;1.229;-9.462;-11.511;-5.327
2342076.001;-6.706;-5.029;-4.768;2.272;-0.298;-14.380;-17.807;-6.966
2342076.009;-8.047;-6.557;-4.955;-0.782;-2.049;-15.497;-19.260;-9.201
2342076.017;-5.588;-3.725;-1.676;1.490;-1.527;-11.884;-13.374;-8.345
2342076.025;-7.786;-4.433;-5.215;0.894;-4.806;-13.188;-12.480;-9.835
2342076.033;-14.715;-11.660;-14.417;-6.221;-14.417;-19.968;-17.993;-16.242
2342076.041;-12.890;-9.425;-12.703;-3.725;-12.778;-15.907;-14.193;-15.609
2342076.049;-12.256;-7.935;-11.325;-2.757;-11.101;-8.978;-9.090;-9.388
2342076.061;-8.941;-3.614;-8.643;1.378;-8.233;0.559;-0.522;-2.310
2342076.069;-7.078;-2.235;-6.147;3.651;-6.482;5.774;5.886;2.868
2342076.077;-14.789;-10.505;-13.113;-4.657;-13.858;0.820;-0.298;0.335
2342076.085;-14.454;-11.548;-10.952;-6.706;-8.978;-1.602;-2.496;-0.745
2342076.093;-14.268;-9.499;-11.511;-4.806;-9.276;-3.614;-3.055;-2.049
2342076.101;-12.964;-8.196;-11.101;-1.676;-8.531;-2.980;-2.123;-2.533
2342076.109;-12.666;-7.525;-10.990;-1.267;-11.139;-3.763;-2.757;-2.906
2342076.117;-9.686;-5.886;-9.388;-1.788;-9.909;-6.855;-7.115;-5.178
2342076.125;-10.058;-7.711;-9.649;-4.135;-8.345;-8.866;-9.350;-5.960
2342076.133;-7.413;-5.327;-5.700;-0.820;-1.639;-9.611;-10.245;-7.115
2342076.141;-2.347;0.149;-1.639;5.066;0.969;-6.668;-6.221;-5.960
2342076.149;-2.123;1.378;-2.272;6.855;-2.421;-2.943;-2.421;-4.210
2342076.157;-3.129;0.186;-3.539;4.843;-3.763;0.112;-1.453;-2.086
2342076.165;0.820;4.172;0.447;7.600;1.304;4.843;3.390;2.421
2342076.173;-0.671;1.527;-1.229;5.402;0.820;3.129;2.496;1.714
2342076.181;-2.012;1.006;-3.166;4.172;0.373;3.539;2.757;3.241
2342076.189;-8.941;-3.017;-10.394;-0.522;-7.823;1.341;0.708;0.224
2342076.197;-9.537;-2.272;-12.629;1.602;-9.313;0.969;1.006;-0.261
2342076.205;-10.431;-4.731;-14.566;-1.378;-11.958;0.149;-0.112;1.118
2342076.213;-13.188;-8.270;-18.030;-5.029;-15.534;-2.123;-3.427;0.857
2342076.221;-19.744;-14.044;-25.891;-10.319;-22.985;-8.903;-9.947;-4.843
2342076.229;-23.209;-18.552;-28.275;-14.976;-25.220;-13.933;-15.758;-10.207
2342076.237;-22.203;-18.552;-25.928;-14.193;-24.661;-15.460;-17.323;-12.703
2342076.245;-19.409;-15.907;-23.171;-12.144;-21.532;-14.827;-16.578;-11.660
2342076.286;-19.483;-14.193;-23.879;-9.649;-23.395;-20.862;-21.495;-17.360
2342076.294;-10.021;-2.943;-14.380;3.986;-14.678;-16.317;-16.429;-12.442
2342076.302;-2.533;4.284;-5.141;10.356;-5.849;-12.554;-10.803;-11.586
2342076.310;-1.304;5.774;-4.359;11.846;-6.258;-9.649;-7.972;-9.090
2342076.318;4.247;12.144;1.118;17.546;-2.086;-5.774;-4.992;-4.657
2342076.326;8.456;15.721;7.562;19.446;3.874;-5.513;-5.215;-4.694
2342076.334;13.039;18.217;13.635;20.862;9.947;-2.943;-1.900;-2.608
2342076.342;13.858;19.446;15.609;22.762;11.250;0.335;0.596;2.272
2342076.350;11.623;16.652;13.746;20.489;8.494;-4.023;-3.725;-4.061
2342076.358;21.309;24.140;24.438;27.046;18.813;1.080;1.118;0.633
2342076.366;30.845;32.298;34.757;35.390;21.830;4.694;3.874;3.763
2342076.374;38.855;40.159;42.096;43.325;25.295;4.880;2.719;1.453
2342076.382;55.619;58.487;58.003;65.155;39.041;8.903;6.817;4.806
2342076.390;71.041;75.437;75.586;85.458;51.670;2.459;1.714;1.043
2342076.398;85.905;92.350;92.797;104.345;67.540;3.390;3.427;1.639
2342076.406;93.095;98.944;103.787;112.504;74.580;1.490;3.278;1.676
2342076.414;92.909;96.075;107.028;110.045;73.835;-4.396;-0.633;-4.433
2342076.422;93.840;94.734;111.461;107.773;77.635;-8.047;-3.763;-10.692
2342076.430;96.150;97.267;114.068;109.673;81.807;-8.047;-4.023;-9.350
2342076.438;90.487;92.536;107.549;104.010;76.853;-3.949;-1.416;-4.508
2342076.446;79.013;80.243;94.101;89.295;69.179;-1.788;0.000;0.335
2342076.454;65.826;65.453;80.764;72.941;61.803;-2.198;-0.559;4.247
2342076.462;52.117;50.478;64.969;56.177;51.148;-5.551;-3.092;-2.310
2342076.470;41.835;40.978;50.440;44.741;43.362;-4.433;0.261;-3.651
2342076.436;28.834;27.455;37.141;29.206;36.582;-8.866;-3.651;-5.811
2342076.444;17.360;14.938;24.550;14.678;27.455;-8.717;-5.476;-4.396
2342076.452;13.225;8.456;20.452;4.135;26.226;-5.439;-4.321;0.224
2342076.460;9.127;4.135;14.491;-2.682;20.303;-6.035;-4.433;1.416
2342076.468;4.433;-0.335;6.668;-5.811;13.001;-7.264;-3.651;0.708
2342076.476;6.780;3.278;8.494;-1.304;18.030;0.484;6.296;3.986
2342076.484;-0.186;-3.725;0.373;-8.419;12.554;-2.906;3.092;0.782
2342076.492;-4.843;-8.829;-4.396;-14.380;7.451;-4.917;0.484;-1.825
2342076.500;-6.184;-10.096;-4.508;-16.801;9.723;-4.321;0.261;0.261
2342076.508;-6.519;-9.574;-7.264;-17.211;5.625;-4.508;-0.261;1.639
2342076.516;-3.129;-4.992;-6.258;-15.050;7.637;-1.900;1.304;4.023
2342076.524;-4.917;-8.233;-8.084;-18.775;5.439;-5.960;-3.166;-2.906
2342076.532;-6.482;-8.754;-10.990;-18.887;1.900;-5.998;-3.837;-4.210
2342076.540;-14.938;-15.087;-19.595;-24.885;-4.135;-7.674;-5.290;-5.290
2342076.548;-17.919;-18.515;-22.389;-27.865;-2.421;-6.147;-4.247;-2.719
2342076.556;-20.526;-21.271;-23.060;-29.467;-3.166;-7.637;-6.333;-5.439
2342076.564;-31.255;-31.255;-32.447;-36.955;-13.337;-11.399;-8.531;-9.574
2342076.572;-43.027;-42.282;-44.219;-45.784;-24.252;-16.801;-13.076;-14.417
2342076.580;-38.147;-35.800;-39.563;-37.588;-19.334;-10.915;-7.525;-8.382
2342076.588;-30.063;-27.679;-32.559;-27.940;-16.391;-7.115;-4.172;-4.098
2342076.596;-27.567;-25.854;-28.312;-24.103;-13.784;-1.676;1.006;0.745
2342076.604;-21.048;-19.521;-19.595;-16.019;-7.078;5.886;8.345;7.376
2342076.612;-18.664;-17.360;-15.236;-12.591;-3.912;4.582;8.531;3.763
2342076.620;-20.824;-19.558;-16.503;-12.144;-3.614;6.035;9.798;3.688
2342076.659;-23.134;-19.744;-19.297;-10.803;-9.835;6.892;10.282;2.868
2342076.667;-22.203;-18.664;-16.317;-10.245;-7.376;7.898;10.841;7.339
2342076.675;-22.352;-20.340;-15.199;-11.623;-8.009;2.496;4.545;0.484
2342076.683;-16.429;-15.981;-9.574;-8.084;-2.310;2.421;5.513;-0.447
2342076.691;-14.640;-14.603;-5.588;-4.992;0.447;4.955;7.860;1.341
2342076.699;-16.168;-16.838;-5.215;-4.917;2.123;3.539;6.482;2.757
2342076.707;-19.595;-20.675;-8.456;-8.196;-2.123;3.688;6.258;2.310
2342076.715;-20.191;-22.538;-7.749;-10.245;-1.192;5.849;7.562;3.427
2342076.723;-22.464;-26.561;-9.313;-15.385;-2.980;6.258;6.147;3.837
2342076.731;-29.989;-34.310;-18.142;-24.214;-12.256;5.662;5.439;1.788
2342076.739;-21.048;-24.997;-7.078;-14.007;-0.447;0.931;1.490;0.298
2342076.747;-28.163;-32.336;-13.411;-22.985;-2.794;-2.421;-1.974;-2.570
2342076.755;-43.996;-48.392;-29.579;-38.706;-11.884;-4.768;-7.302;-6.370
2342076.763;-48.280;-52.676;-33.490;-43.400;-13.858;-3.688;-7.004;-3.502
2342076.771;-52.676;-56.736;-36.098;-46.641;-16.466;-2.310;-4.172;-2.533
2342076.779;-55.507;-59.642;-40.084;-47.125;-20.675;-0.559;-1.527;-1.565
2342076.787;-68.098;-72.271;-54.054;-57.183;-31.814;-4.098;-4.955;-6.482
2342076.795;-65.602;-69.886;-51.707;-53.048;-28.424;-0.224;-0.782;-5.290
2342076.803;-59.865;-63.591;-45.598;-46.901;-20.899;5.551;3.316;2.496
2342076.811;-64.000;-67.763;-48.913;-51.707;-25.779;-0.261;-1.639;-3.166
2342076.819;-64.559;-70.482;-50.962;-53.346;-28.759;-5.513;-6.147;-6.147
2342076.827;-50.552;-56.066;-36.284;-38.259;-13.597;4.508;5.662;2.012
2342076.835;-50.664;-54.911;-35.875;-36.880;-13.672;3.800;5.960;0.857
2342076.843;-55.768;-59.903;-42.506;-42.915;-20.750;-4.172;-4.470;-6.445
2342076.826;-67.204;-73.351;-54.464;-57.779;-33.751;-16.280;-19.036;-18.701
2342076.834;-51.036;-58.487;-38.929;-42.692;-19.073;0.261;-4.061;0.559
2342076.842;-36.843;-44.815;-23.209;-29.504;-5.700;10.282;5.886;10.543
2342076.850;-38.445;-45.449;-25.146;-31.143;-10.692;1.639;-2.123;0.969
2342076.858;-38.072;-43.213;-25.854;-27.902;-12.890;0.075;-3.502;-1.900
2342076.866;-35.577;-41.686;-22.687;-25.779;-8.419;3.651;0.410;2.198
2342076.874;-39.525;-48.243;-26.636;-33.416;-12.144;-1.788;-3.390;-2.608
2342076.882;-45.076;-55.172;-30.585;-40.941;-15.832;-5.700;-8.121;-5.439
2342076.890;-44.629;-54.315;-28.834;-39.190;-13.895;-0.782;-4.917;-1.267
2342076.898;-38.892;-47.237;-22.836;-30.398;-7.264;6.855;1.490;6.594
2342076.906;-29.765;-37.178;-13.635;-20.005;-0.037;10.952;6.258;8.754
2342076.914;-31.292;-39.414;-16.503;-21.346;-4.172;3.353;-2.310;1.639
2342076.922;-30.026;-38.259;-16.317;-20.564;-4.582;-0.447;-5.811;-0.931
2342076.930;-30.138;-38.594;-16.168;-20.787;-3.651;-5.215;-9.239;-4.284
2342076.938;-33.937;-44.666;-19.819;-25.965;-6.706;-8.866;-12.368;-5.774
2342076.946;-36.210;-48.801;-21.271;-29.579;-10.282;-17.211;-22.203;-14.938
2342076.954;-32.708;-44.890;-18.291;-26.226;-9.723;-16.764;-20.713;-14.454
2342076.962;-20.228;-32.447;-5.290;-14.715;2.012;-5.662;-8.792;-7.674
2342076.970;-27.306;-39.600;-13.299;-22.501;-5.029;-0.745;-5.066;-3.241
2342076.978;-31.553;-43.921;-17.285;-26.450;-8.196;-6.892;-11.437;-8.270
2342076.986;-35.167;-46.641;-20.452;-26.412;-7.562;-19.521;-23.581;-21.271
2342076.994;-41.276;-54.240;-27.865;-34.869;-10.356;-14.268;-18.328;-17.658
2342077.002;-44.741;-59.158;-31.441;-41.276;-10.729;-12.554;-17.956;-16.540
2342077.010;-55.656;-71.451;-42.506;-53.123;-16.168;-10.133;-14.678;-13.188
2342077.021;-56.103;-73.202;-42.766;-53.719;-12.890;-5.476;-10.058;-5.029
2342077.029;-68.322;-84.937;-55.507;-66.683;-24.773;-13.262;-18.664;-11.809
2342077.037;-66.943;-83.111;-56.140;-67.689;-23.954;-15.646;-22.389;-15.274
2342077.045;-65.118;-81.584;-53.123;-66.273;-20.713;-16.466;-25.444;-16.019
2342077.053;-67.465;-83.297;-55.358;-66.385;-23.395;-17.099;-25.332;-17.993
2342077.061;-65.118;-80.317;-53.868;-62.920;-23.060;-17.434;-25.630;-18.440
2342077.069;-61.467;-75.586;-51.148;-59.754;-21.048;-13.560;-21.383;-16.317
2342077.077;-55.470;-69.290;-46.752;-54.985;-16.019;-9.872;-17.658;-11.660
2342077.085;-50.738;-65.416;-42.766;-51.893;-10.505;-10.207;-19.781;-9.537
2342077.093;-51.633;-66.459;-43.027;-52.638;-10.468;-6.780;-17.248;-5.364
2342077.101;-48.131;-60.946;-40.345;-45.672;-6.892;-6.407;-20.489;-4.694
2342077.109;-51.372;-64.187;-43.958;-48.429;-10.803;-11.139;-24.922;-13.150
2342077.117;-52.825;-68.173;-44.890;-52.676;-11.995;-12.740;-25.146;-14.901
2342077.125;-52.378;-69.849;-43.437;-54.352;-11.548;-11.697;-22.203;-12.778
2342077.133;-48.205;-65.155;-39.153;-50.217;-9.462;-4.992;-14.491;-8.382
2342077.141;-45.262;-62.175;-38.035;-48.541;-9.201;-1.602;-11.995;-7.339
2342077.149;-44.182;-61.654;-37.216;-49.025;-7.488;-0.969;-11.884;-5.737
2342077.157;-39.712;-57.071;-33.975;-43.996;-8.456;-2.645;-14.342;-6.966
2342077.165;-41.164;-56.699;-34.869;-44.368;-9.127;-4.061;-16.429;-9.052
2342077.173;-42.133;-56.103;-35.390;-43.586;-7.860;-12.033;-24.214;-15.870
2342077.181;-38.892;-50.552;-33.155;-37.700;-4.470;-9.947;-22.724;-12.256
2342077.189;-31.441;-42.655;-26.934;-30.883;2.943;-0.335;-11.884;-2.906
2342077.197;-20.191;-31.069;-17.174;-20.601;12.293;8.158;-3.837;5.662
2342077.205;-17.211;-28.946;-13.672;-19.334;15.125;6.407;-2.868;2.161
2342077.216;-16.503;-30.249;-12.591;-22.389;15.907;7.786;-0.075;1.043
2342077.224;-20.675;-36.955;-17.136;-29.244;11.474;8.903;0.000;2.012
2342077.232;-18.813;-34.682;-13.299;-28.089;13.262;5.178;-2.421;-3.390
2342077.240;-23.507;-38.408;-18.552;-31.590;6.221;-0.186;-6.743;-5.998
2342077.248;-24.624;-37.514;-20.750;-28.275;3.241;-13.523;-20.117;-16.913
2342077.256;-22.128;-33.304;-21.644;-24.065;-1.378;-20.377;-26.263;-22.128
2342077.264;-15.944;-27.195;-17.397;-17.509;-0.112;-7.488;-13.895;-9.574
2342077.272;-19.930;-30.398;-20.564;-21.793;-3.576;-2.459;-8.717;-6.631
2342077.280;-13.635;-25.667;-14.305;-20.228;2.719;6.631;-0.931;-0.373
2342077.288;-18.850;-33.714;-20.117;-31.479;-3.614;11.697;3.837;2.384
2342077.296;-20.228;-36.508;-20.154;-34.906;-4.396;8.121;-1.639;-1.304
2342077.304;-19.707;-38.706;-18.775;-35.502;1.006;2.049;-10.096;-4.806
2342077.312;-26.338;-46.529;-25.108;-42.431;-1.304;3.055;-10.468;-4.955
2342077.320;-36.135;-57.332;-33.267;-52.229;-6.072;-1.006;-14.864;-8.419
2342077.328;-44.294;-64.075;-40.606;-56.475;-9.984;-6.333;-20.042;-12.852
2342077.336;-53.719;-73.202;-50.068;-64.969;-17.174;-4.135;-19.148;-11.548
2342077.344;-51.633;-72.382;-48.392;-62.957;-15.572;5.364;-9.649;-3.912
2342077.352;-55.842;-78.455;-52.489;-68.508;-19.707;0.224;-11.884;-11.325
2342077.360;-56.550;-78.864;-52.527;-70.296;-17.993;1.080;-9.798;-8.717
2342077.368;-48.429;-70.520;-43.921;-62.920;-10.468;11.884;1.192;3.614
2342077.376;-55.358;-77.933;-50.701;-71.153;-19.595;4.768;-8.866;-1.453
2342077.384;-57.146;-80.355;-54.762;-73.574;-23.320;-5.178;-21.085;-9.611
2342077.392;-58.971;-81.472;-57.332;-72.718;-26.636;-8.717;-23.656;-14.678
2342077.400;-62.734;-85.421;-60.461;-76.517;-30.734;-7.674;-23.097;-11.288
2342077.395;-48.988;-71.712;-45.635;-62.622;-17.807;8.978;-3.278;2.198
2342077.403;-45.225;-68.322;-41.835;-60.424;-15.907;10.356;-2.682;3.353
2342077.411;-51.782;-74.059;-49.584;-66.571;-24.252;2.272;-11.735;-5.253
2342077.419;-54.166;-75.437;-51.819;-67.316;-25.108;5.960;-6.892;3.129
2342077.427;-61.914;-83.372;-59.493;-74.953;-33.341;0.671;-9.760;-4.135
2342077.435;-55.544;-77.114;-52.638;-69.514;-26.748;6.780;-3.651;1.304
2342077.443;-50.291;-73.053;-46.864;-64.336;-19.297;15.758;9.239;7.749
2342077.451;-41.462;-64.857;-37.812;-55.209;-10.058;16.615;9.611;12.629
2342077.459;-42.133;-63.851;-36.806;-54.389;-11.362;3.502;-3.837;-4.359
2342077.467;-53.458;-75.847;-47.497;-67.353;-25.034;-8.009;-15.497;-17.323
2342077.475;-41.910;-64.187;-35.875;-55.619;-13.933;13.039;4.657;8.941
2342077.483;-39.078;-60.275;-32.932;-51.297;-11.250;20.564;14.119;10.543
2342077.491;-31.069;-49.993;-24.140;-39.563;-3.278;30.547;21.458;21.048
2342077.499;-48.950;-67.465;-39.674;-59.009;-18.589;23.358;12.554;8.382
2342077.507;-54.836;-74.618;-45.300;-66.422;-26.040;-0.112;-9.872;-15.832
2342077.515;-48.429;-68.434;-37.551;-59.940;-20.303;-4.172;-13.299;-16.876
2342077.523;-42.804;-63.293;-31.479;-52.638;-13.821;5.588;-1.192;-10.282
2342077.531;-47.274;-67.353;-36.098;-55.358;-17.136;2.012;-6.482;-11.548
2342077.539;-55.283;-75.325;-44.331;-62.510;-24.028;-4.135;-14.529;-18.515
2342077.547;-42.468;-62.212;-31.106;-49.174;-11.362;11.809;0.373;-0.112
2342077.555;-41.611;-61.579;-29.616;-48.093;-11.511;12.815;4.321;-0.969
2342077.563;-49.211;-71.079;-35.912;-58.860;-16.131;6.743;-0.708;-6.706
2342077.571;-44.331;-65.379;-30.510;-53.868;-10.505;18.217;11.288;5.588
2342077.579;-30.100;-52.005;-14.342;-40.121;4.731;24.699;18.254;13.672
2342077.605;-38.259;-61.579;-21.346;-50.031;-3.204;5.551;-6.519;1.080
2342077.613;-46.454;-68.694;-30.436;-55.805;-12.293;-0.894;-10.468;-8.494
2342077.621;-29.802;-51.074;-14.193;-36.545;2.347;16.019;5.290;3.874
2342077.629;-25.183;-47.311;-10.654;-33.192;4.843;19.632;8.345;6.482
2342077.637;-30.622;-52.378;-17.285;-37.178;-2.235;14.417;3.427;1.118
2342077.645;-30.771;-52.415;-19.260;-35.502;-4.321;25.742;16.019;10.170
2342077.653;-21.160;-43.586;-9.611;-26.450;5.402;39.563;26.561;25.220
2342077.661;-26.338;-47.572;-13.486;-30.361;-0.373;25.295;11.362;10.394
2342077.669;-22.948;-43.139;-9.798;-26.263;3.465;23.842;14.156;7.562
2342077.677;-29.355;-50.701;-13.262;-36.322;0.261;12.144;1.378;-3.651
2342077.685;-21.048;-43.474;-5.066;-28.387;6.631;19.111;7.339;7.339
2342077.693;-18.924;-40.941;-4.619;-26.263;5.364;20.489;7.786;3.390
2342077.701;-13.001;-34.720;1.527;-21.532;11.288;35.875;22.724;17.807
2342077.709;-12.293;-36.135;2.608;-23.842;11.250;46.603;30.436;30.659
2342077.717;-16.391;-40.941;-0.335;-29.318;7.525;47.386;30.510;31.665
2342077.725;-13.076;-36.843;4.470;-25.257;12.405;34.682;15.683;20.117
2342077.733;-2.086;-25.928;15.236;-12.331;23.022;27.455;12.405;3.502
2342077.741;2.123;-23.171;19.148;-7.153;27.083;34.422;19.856;12.293
2342077.749;11.139;-14.715;28.387;3.055;34.943;46.380;31.367;22.277
2342077.757;6.706;-19.073;24.550;-0.186;31.888;49.695;31.590;26.450
2342077.765;-7.153;-33.155;10.543;-13.784;15.981;38.296;18.291;14.566
2342077.773;-18.664;-44.033;-0.186;-24.624;5.625;42.357;20.936;19.260
2342077.781;-10.431;-36.769;8.456;-17.248;15.087;59.493;39.041;28.796
2342077.789;-9.686;-36.582;8.680;-16.429;14.305;51.036;32.075;19.521
2342077.787;-16.093;-42.431;1.825;-26.859;6.706;36.769;18.515;2.086
2342077.795;-2.645;-32.075;17.062;-18.254;21.756;35.353;13.039;3.427
2342077.803;8.233;-22.352;31.218;-7.674;35.949;45.635;23.693;8.494
2342077.811;-1.267;-31.479;22.948;-13.933;26.412;39.712;18.552;0.261
2342077.819;18.664;-9.909;42.096;8.307;43.102;69.775;43.474;24.699
2342077.827;11.176;-18.775;36.322;-3.166;35.986;70.594;43.474;20.303
2342077.835;-2.868;-32.745;24.177;-17.583;22.650;62.995;35.204;9.723
2342077.843;-9.090;-38.743;18.887;-23.656;17.770;56.140;27.977;0.037
2342077.851;-25.257;-54.874;4.359;-39.153;3.390;40.382;14.268;-21.830
2342077.859;-37.290;-68.210;-4.172;-54.054;-8.047;21.309;-8.196;-48.131
2342077.867;-6.855;-37.439;28.238;-24.959;21.532;54.277;25.444;-25.034
2342077.875;13.597;-17.099;50.962;-4.917;41.611;72.904;45.635;-8.233
2342077.883;12.517;-17.360;54.203;-2.719;44.331;76.070;48.578;-10.058
2342077.891;3.912;-27.269;49.174;-10.692;39.190;59.940;30.547;-29.057
2342077.899;-1.490;-30.361;44.666;-13.448;33.826;55.619;25.630;-32.112
2342077.907;-1.006;-29.579;48.764;-11.288;34.086;53.234;25.183;-40.755
2342077.915;14.007;-17.211;68.843;3.688;52.452;50.627;24.587;-47.944
2342077.923;2.049;-32.149;62.995;-12.070;43.623;31.255;1.378;-68.098
2342077.931;9.984;-23.507;76.368;0.782;52.080;38.706;7.339;-63.330
2342077.939;61.691;26.226;134.967;53.644;96.038;48.205;18.030;-58.673
2342077.947;73.500;39.786;151.284;68.955;100.695;36.843;1.080;-66.720
2342077.955;107.177;78.976;191.294;115.372;129.454;35.875;2.719;-73.537
2342077.963;144.914;118.352;233.650;160.001;155.643;41.798;11.772;-72.792
2342077.971;160.858;136.569;254.065;182.651;166.260;41.686;14.193;-73.761
2342077.981;172.220;151.023;271.760;203.326;175.834;40.084;14.268;-76.666
2342077.989;177.734;156.686;278.540;208.654;174.679;35.316;13.523;-85.458
2342077.997;192.039;169.165;295.006;223.368;186.041;48.131;26.897;-68.918
2342078.005;216.477;193.678;321.753;248.812;207.946;68.620;46.827;-40.866
2342078.013;223.927;201.836;326.894;256.747;208.132;65.751;50.217;-37.812
2342078.021;217.557;195.540;321.046;251.941;198.632;60.685;44.331;-33.043
2342078.029;212.938;187.792;320.077;245.273;194.311;57.556;41.761;-30.063
2342078.037;213.720;190.102;320.785;247.173;193.380;40.606;26.524;-40.829
2342078.045;226.609;202.172;334.047;259.466;204.816;48.615;35.614;-26.748
2342078.053;241.883;217.035;350.364;271.946;218.637;60.052;49.025;-12.442
2342078.061;256.523;229.850;368.208;283.718;236.593;68.583;55.917;0.745
2342078.069;254.512;228.100;369.735;282.936;234.619;67.689;55.172;2.235
2342078.077;247.620;219.680;364.259;271.797;225.045;65.640;52.229;1.416
2342078.085;239.983;214.390;353.791;266.321;216.179;73.351;57.966;8.866
2342078.093;238.158;211.857;354.201;264.980;217.631;75.810;61.244;12.852
2342078.101;244.044;216.551;362.210;267.886;223.480;66.124;49.621;6.817
2342078.109;241.809;212.044;361.390;257.678;222.139;67.316;50.366;12.815
2342078.117;254.288;222.288;372.566;268.333;234.060;85.533;70.296;34.682
2342078.125;253.394;220.202;370.294;266.731;230.148;79.907;63.069;32.187
2342078.133;249.408;213.496;367.388;257.790;225.268;81.398;64.261;32.559
2342078.141;235.327;200.458;351.816;245.124;210.777;81.658;61.430;40.531
2342078.149;209.026;172.034;327.304;216.365;186.525;60.424;38.482;20.601
2342078.157;216.402;178.553;333.041;220.612;194.199;75.661;55.358;34.571
2342078.165;206.903;166.409;322.275;204.705;186.749;80.764;60.126;40.457
2342078.177;184.737;140.816;297.837;175.536;167.415;66.124;45.635;25.071
2342078.185;185.892;139.363;295.602;169.165;170.320;81.882;60.014;47.982
2342078.193;175.573;126.697;281.632;152.551;159.927;86.315;64.149;53.458
2342078.201;160.784;109.486;261.255;130.832;142.604;78.492;55.581;48.727
2342078.209;146.776;97.305;242.591;114.292;128.746;75.810;54.799;47.535
2342078.217;133.924;85.048;228.472;100.583;119.209;72.755;52.005;43.996
2342078.225;120.290;70.445;213.422;85.197;107.661;68.508;43.400;47.125
2342078.233;107.959;58.115;197.627;70.669;95.516;68.210;43.884;42.580
2342078.241;83.856;34.422;168.756;46.603;69.961;55.060;31.292;30.994
2342078.249;74.916;24.550;158.623;34.459;64.448;61.281;37.551;37.737
2342078.257;56.848;6.855;139.289;17.062;48.056;57.444;36.061;31.143
2342078.265;24.922;-24.810;104.569;-13.821;19.707;47.162;24.065;29.504
2342078.273;15.311;-33.118;92.499;-22.687;12.405;41.425;16.391;26.189
2342078.281;2.757;-44.107;76.182;-33.714;-1.080;40.345;14.491;25.369
2342078.289;-11.325;-58.562;62.250;-49.025;-11.250;49.919;23.283;40.084
2342078.297;-36.024;-84.825;39.004;-74.655;-32.112;28.722;5.141;15.460
2342078.305;-27.567;-76.182;44.964;-65.751;-25.295;44.927;23.395;31.963
2342078.313;-30.994;-78.753;40.680;-68.657;-29.206;49.807;26.561;32.783
2342078.321;-52.117;-100.620;19.483;-90.413;-47.311;35.726;12.480;23.320
2342078.329;-53.272;-100.546;17.360;-90.599;-47.199;44.852;24.512;31.777
2342078.337;-59.009;-105.798;13.001;-94.548;-49.323;48.317;28.089;35.651
2342078.345;-68.806;-113.733;4.061;-101.626;-58.189;42.580;21.122;32.522
2342078.353;-68.918;-112.429;3.874;-99.204;-59.381;44.033;20.638;33.230
2342078.361;-75.176;-119.545;-2.943;-105.835;-66.422;42.394;17.136;36.657
2342078.356;-36.694;-80.205;37.178;-66.422;-26.524;79.945;56.513;73.239
2342078.364;-5.476;-48.168;68.359;-31.851;4.135;111.684;87.656;105.090
2342078.372;-4.619;-46.976;70.296;-29.579;6.184;109.784;84.303;104.047
2342078.380;0.633;-40.270;76.108;-22.985;11.437;111.498;88.066;106.283
2342078.388;10.617;-29.989;85.980;-14.156;18.030;115.037;91.679;111.051
2342078.396;12.144;-24.922;88.625;-5.364;18.924;112.318;89.295;106.283
2342078.404;37.774;0.335;120.886;22.389;38.445;107.214;83.968;105.239
2342078.412;63.069;27.530;147.372;52.229;54.948;104.755;81.137;106.022
2342078.420;82.850;49.397;170.544;76.517;71.786;113.472;89.519;113.398
2342078.428;91.828;58.934;181.235;88.103;78.492;118.464;95.405;117.123
2342078.436;103.004;70.706;195.540;103.153;89.854;116.304;91.009;117.943
2342078.444;100.732;70.333;195.019;104.234;87.433;111.647;86.464;113.510
2342078.452;100.732;72.122;195.429;104.606;88.587;107.400;81.994;111.088
2342078.460;97.528;67.838;191.815;96.522;87.991;94.809;72.420;94.809
2342078.468;103.526;74.320;194.423;99.614;94.138;101.700;82.552;102.445
2342078.476;93.654;64.149;183.582;84.862;87.135;102.371;82.701;105.500
2342078.484;73.798;46.492;159.927;64.299;67.726;94.064;75.251;93.728
2342078.492;60.312;34.422;142.381;48.503;57.891;92.424;73.686;90.674
2342078.500;46.007;21.271;124.834;32.969;46.678;86.538;65.677;80.690
2342078.508;34.161;8.829;107.251;18.515;36.061;88.662;66.273;87.656
2342078.516;27.120;2.496;97.230;12.964;30.771;91.828;71.675;91.158
2342078.524;9.537;-14.417;79.125;-6.519;17.807;83.856;63.479;83.596
2342078.532;-9.499;-32.708;57.817;-27.381;3.725;81.062;61.207;79.907
2342078.540;-25.220;-45.225;40.121;-38.482;-10.617;86.650;65.863;79.609
2342078.566;-32.298;-50.180;31.739;-42.133;-16.093;86.240;66.534;83.148
2342078.574;-42.021;-58.599;22.203;-51.148;-21.122;74.282;57.295;72.643
2342078.582;-52.862;-68.955;11.697;-62.734;-27.791;66.236;50.254;60.797
2342078.590;-57.518;-72.643;4.768;-66.236;-33.267;63.218;49.174;55.134
2342078.598;-70.035;-83.819;-7.376;-78.194;-42.357;58.971;46.678;48.019
2342078.606;-67.018;-80.429;-6.296;-76.927;-37.067;70.296;56.699;61.244
2342078.614;-63.144;-75.400;-2.459;-71.526;-30.994;77.486;61.542;64.373
2342078.622;-74.729;-85.235;-14.268;-80.168;-41.761;71.973;50.366;56.960
2342078.630;-83.931;-94.362;-25.518;-90.078;-52.117;67.651;41.276;52.862
2342078.638;-81.174;-90.562;-21.793;-86.352;-47.386;75.549;47.646;56.922
2342078.646;-82.962;-91.270;-25.108;-85.682;-49.360;74.767;49.323;53.793
2342078.654;-95.181;-103.116;-35.092;-96.597;-57.481;64.448;41.313;46.939
2342078.662;-102.594;-108.965;-43.213;-102.147;-63.702;55.879;34.235;40.010
2342078.670;-88.066;-94.138;-30.920;-88.848;-49.882;65.900;45.635;52.191
2342078.678;-94.362;-99.987;-36.508;-94.324;-55.619;51.707;34.422;37.886
2342078.686;-106.804;-110.082;-52.415;-105.239;-71.414;38.706;22.799;26.152
2342078.694;-108.257;-109.039;-53.942;-106.655;-71.563;37.961;23.097;23.767
2342078.702;-107.735;-107.288;-52.266;-104.234;-69.290;33.565;18.142;21.309
2342078.710;-113.025;-111.163;-58.375;-109.524;-74.916;27.269;11.362;15.497
2342078.718;-108.965;-106.394;-52.117;-105.388;-68.061;31.032;15.646;15.199
2342078.726;-120.513;-116.266;-64.559;-116.751;-78.455;19.372;5.066;9.015
2342078.734;-129.454;-121.295;-70.967;-123.680;-82.999;12.256;-2.198;-0.633
2342078.742;-118.650;-108.965;-59.009;-112.504;-70.445;24.512;10.245;10.245
2342078.750;-105.575;-95.852;-47.572;-100.695;-60.350;35.241;21.569;22.016
2342078.745;-117.421;-104.494;-60.424;-109.710;-73.090;33.751;22.352;17.956
2342078.753;-119.396;-106.059;-63.553;-112.206;-75.214;33.677;22.985;25.630
2342078.761;-82.962;-70.855;-27.269;-79.684;-47.721;37.700;28.685;35.912
2342078.769;-72.382;-60.350;-19.670;-72.271;-43.809;33.714;25.593;37.625
2342078.777;-60.014;-48.503;-11.250;-64.522;-38.706;32.261;24.848;40.643
2342078.785;-44.480;-33.751;3.055;-52.564;-28.387;32.745;25.555;44.927
2342078.793;-39.339;-28.200;4.023;-51.372;-25.555;33.826;27.418;55.432
2342078.801;-55.619;-42.655;-17.546;-68.322;-42.468;23.767;18.142;46.417
2342078.809;-62.026;-48.690;-26.375;-75.214;-45.784;28.796;23.730;56.587
2342078.817;-80.131;-66.087;-47.013;-93.393;-61.356;20.005;13.597;55.172
2342078.825;-88.327;-72.420;-55.917;-101.030;-66.981;18.366;14.827;54.017
2342078.833;-84.899;-68.843;-56.364;-99.577;-64.373;27.046;23.730;67.651
2342078.841;-84.117;-66.906;-58.450;-98.646;-64.000;25.816;22.165;69.849
2342078.849;-89.891;-72.531;-67.577;-105.724;-70.594;20.973;17.732;65.193
2342078.857;-89.519;-71.116;-69.737;-106.171;-70.557;23.991;20.154;69.030
2342078.865;-80.690;-61.914;-60.610;-98.087;-58.152;37.514;34.124;81.360
2342078.873;-93.207;-74.096;-75.921;-110.380;-71.190;27.902;26.226;74.059
2342078.881;-114.553;-94.548;-97.901;-130.869;-92.685;6.035;9.090;53.346
2342078.889;-118.762;-99.018;-104.420;-135.526;-97.267;-4.135;4.023;44.443
2342078.897;-114.143;-94.660;-102.296;-133.514;-94.399;-3.725;4.843;47.982
2342078.905;-114.180;-92.946;-102.669;-131.465;-94.883;-9.164;-0.596;44.107
2342078.913;-108.816;-86.427;-99.055;-124.201;-89.705;-5.290;4.247;52.191
2342078.921;-109.822;-85.384;-101.142;-122.637;-90.376;-0.969;9.798;53.160
2342078.929;-114.813;-89.779;-108.741;-127.330;-95.889;-5.439;5.811;46.827
2342078.941;-113.547;-87.991;-110.045;-126.772;-93.579;-8.345;1.527;40.382
2342078.949;-121.556;-93.579;-118.427;-130.758;-101.514;-17.621;-8.158;29.095
2342078.957;-116.415;-87.768;-113.100;-126.399;-93.281;-14.752;-3.651;35.129
2342078.965;-106.767;-75.288;-104.234;-114.851;-81.696;-8.903;3.316;35.241
2342078.973;-105.835;-70.781;-106.990;-110.231;-84.937;-10.356;3.055;30.808
2342078.981;-93.281;-58.077;-97.230;-97.342;-76.666;-3.353;11.288;37.812
2342078.989;-93.170;-58.413;-96.560;-99.652;-75.698;-10.133;5.364;27.083
2342078.997;-98.124;-64.149;-102.520;-107.624;-79.907;-16.391;-1.304;21.160
2342079.005;-99.093;-63.963;-102.483;-107.288;-79.423;-16.019;-0.559;21.458
2342079.013;-106.245;-71.861;-108.778;-114.553;-86.613;-25.928;-9.388;12.778
2342079.021;-98.497;-64.373;-103.749;-106.096;-81.472;-21.495;-4.247;17.397
2342079.029;-94.175;-56.960;-98.757;-99.167;-77.002;-19.595;-0.857;15.534
2342079.037;-102.110;-65.491;-106.655;-108.629;-84.601;-29.914;-12.107;8.084
2342079.045;-105.686;-67.651;-109.002;-111.051;-84.862;-31.516;-14.938;5.178
2342079.053;-104.383;-65.900;-107.512;-109.598;-83.484;-29.467;-12.740;8.531
2342079.061;-105.277;-66.906;-110.604;-110.753;-85.719;-29.728;-10.990;10.356
2342079.069;-114.590;-75.549;-120.141;-119.470;-95.330;-35.688;-15.609;1.192
2342079.077;-110.455;-71.004;-120.029;-115.447;-96.895;-29.393;-8.196;10.058
2342079.085;-113.025;-71.637;-124.238;-117.607;-100.322;-32.037;-12.107;8.494
2342079.093;-116.229;-76.331;-129.044;-122.823;-103.861;-38.818;-20.005;3.874
2342079.101;-120.401;-83.148;-134.520;-130.087;-107.847;-41.462;-24.885;4.992
2342079.109;-118.911;-82.962;-131.242;-130.944;-102.259;-42.059;-24.475;6.296
2342079.117;-127.293;-90.636;-144.169;-139.400;-113.286;-50.664;-31.888;4.582
2342079.125;-134.222;-96.634;-153.296;-144.020;-125.021;-53.868;-35.539;5.215
2342079.138;-137.016;-98.534;-160.411;-142.157;-132.211;-55.134;-38.259;8.009
2342079.146;-120.737;-83.968;-143.200;-125.468;-118.427;-38.743;-21.979;23.656
2342079.154;-119.396;-83.447;-131.540;-124.760;-106.171;-37.141;-19.670;16.652
2342079.162;-129.566;-96.932;-142.641;-137.985;-109.673;-45.635;-26.785;11.697
2342079.170;-134.446;-103.489;-148.639;-142.977;-115.521;-52.452;-30.361;9.127
2342079.178;-139.587;-107.586;-154.972;-143.088;-123.456;-59.195;-37.923;0.149
2342079.186;-136.346;-102.781;-149.533;-136.346;-119.023;-55.619;-34.682;-2.012
2342079.194;-138.804;-104.308;-147.186;-136.085;-119.060;-57.183;-33.379;-9.611
2342079.202;-141.710;-108.741;-149.384;-139.512;-123.084;-62.175;-38.780;-13.635
2342079.210;-130.236;-99.055;-136.457;-130.422;-111.908;-58.450;-36.992;-7.115
2342079.218;-119.694;-90.264;-126.138;-120.439;-103.377;-56.513;-35.316;-3.278
2342079.226;-118.688;-90.338;-123.791;-117.719;-102.520;-56.587;-35.614;-2.906
2342079.234;-117.421;-88.811;-116.080;-113.063;-95.628;-57.742;-33.714;-9.835
2342079.242;-71.935;-45.002;-62.808;-68.806;-52.042;-53.570;-29.653;-2.496
2342079.250;-51.558;-23.879;-40.829;-48.317;-43.884;-64.112;-42.804;-9.164
2342079.258;-26.301;0.186;-15.274;-22.389;-28.461;-67.987;-46.380;-16.354
2342079.266;1.490;27.195;12.890;5.811;-9.127;-61.579;-41.015;-5.998
2342079.274;13.225;41.313;27.269;16.764;-0.820;-65.789;-43.921;-17.248
2342079.282;29.057;55.209;44.703;30.883;15.460;-59.530;-34.720;-8.233
2342079.290;29.802;58.413;48.541;33.341;15.199;-65.751;-41.500;-26.301
2342079.298;35.428;67.428;55.172;43.847;20.415;-63.553;-39.823;-29.095
2342079.306;35.577;61.840;55.954;34.831;21.495;-74.282;-51.744;-43.884
2342079.314;29.504;54.501;49.919;23.171;19.558;-69.588;-48.541;-41.537
2342079.322;29.989;52.415;46.082;18.515;17.583;-59.791;-38.669;-39.190
2342079.329;17.323;38.072;29.653;1.229;8.345;-52.787;-29.467;-32.447
2342079.337;-13.970;5.066;-5.849;-33.900;-22.948;-73.537;-50.664;-58.897
2342079.345;-23.246;-4.396;-21.011;-43.996;-33.602;-70.557;-48.615;-55.172
2342079.353;-24.624;-7.674;-25.444;-48.503;-35.167;-73.761;-53.123;-58.860
2342079.361;-34.384;-19.334;-40.755;-60.089;-47.460;-77.002;-58.487;-59.381
2342079.369;-41.313;-26.487;-47.833;-66.385;-51.074;-75.959;-56.177;-58.562
2342079.377;-45.262;-30.883;-54.128;-68.843;-53.607;-65.304;-44.703;-48.690
2342079.385;-52.415;-38.892;-65.863;-76.033;-63.293;-64.559;-43.958;-48.354
2342079.393;-60.573;-48.615;-75.996;-85.533;-71.712;-72.792;-53.719;-55.805
2342079.401;-65.006;-54.650;-84.974;-90.227;-78.529;-78.790;-60.126;-56.401
2342079.409;-68.806;-57.593;-89.407;-91.009;-78.827;-71.786;-53.197;-47.609
2342079.417;-62.808;-51.558;-84.154;-83.782;-69.775;-58.189;-38.818;-34.869
2342079.425;-67.428;-57.742;-89.407;-91.344;-71.861;-55.730;-37.216;-31.553
2342079.433;-90.748;-81.249;-110.865;-115.186;-92.238;-73.798;-54.650;-50.366
2342079.441;-96.224;-88.178;-119.358;-122.711;-97.826;-77.859;-58.673;-53.570
2342079.449;-87.470;-79.349;-110.231;-112.839;-87.097;-61.877;-44.256;-38.594
2342079.457;-95.852;-86.576;-119.284;-119.619;-95.330;-67.055;-52.042;-48.056
2342079.465;-107.251;-97.603;-133.440;-129.826;-107.586;-69.775;-51.558;-49.435
2342079.473;-101.924;-90.301;-127.032;-121.035;-101.179;-62.697;-41.835;-49.472
2342079.481;-98.981;-86.874;-124.648;-118.129;-98.050;-63.218;-44.294;-47.199
2342079.489;-103.414;-90.003;-126.027;-123.121;-97.752;-71.712;-55.730;-61.989
2342079.497;-103.340;-86.538;-120.774;-119.209;-92.611;-76.778;-61.654;-80.764
2342079.505;-106.730;-87.246;-124.276;-118.650;-98.459;-81.845;-65.342;-96.560
2342079.513;-107.437;-88.997;-126.548;-123.307;-98.795;-76.331;-60.014;-87.731
2342079.526;-116.304;-99.167;-140.592;-136.085;-113.882;-78.343;-59.977;-83.782
2342079.534;-104.830;-88.178;-128.075;-126.287;-102.557;-66.534;-46.454;-68.136
2342079.542;-109.784;-93.728;-135.750;-132.024;-113.845;-73.053;-52.527;-71.339
2342079.550;-111.200;-95.405;-138.357;-135.899;-114.851;-74.431;-53.719;-69.998
2342079.558;-120.476;-101.998;-147.335;-143.349;-121.482;-81.025;-59.940;-72.606
2342079.566;-117.160;-98.906;-147.447;-142.343;-122.525;-76.033;-54.128;-65.155
2342079.574;-122.786;-104.606;-153.743;-148.937;-124.499;-77.784;-56.699;-66.273
2342079.582;-133.179;-116.117;-164.434;-161.082;-133.514;-87.991;-70.110;-73.649
2342079.590;-135.079;-119.433;-166.781;-165.515;-134.259;-86.240;-69.253;-68.396
2342079.598;-134.148;-115.037;-168.122;-159.405;-133.403;-82.999;-64.857;-67.428
2342079.606;-120.066;-101.775;-158.846;-146.329;-126.921;-78.566;-59.530;-59.605
2342079.614;-120.029;-103.265;-159.368;-150.949;-130.758;-77.635;-60.573;-58.226
2342079.622;-127.852;-110.902;-167.787;-159.293;-137.165;-84.303;-70.147;-62.510
2342079.630;-122.376;-105.202;-165.068;-155.829;-131.913;-80.839;-65.453;-56.066
2342079.638;-129.417;-112.355;-172.742;-165.068;-138.059;-87.023;-68.769;-62.995
2342079.646;-112.914;-97.975;-158.362;-151.098;-123.493;-78.380;-57.407;-48.839
2342079.654;-108.629;-94.213;-154.898;-148.006;-120.066;-78.529;-56.326;-49.099
2342079.662;-122.599;-108.518;-169.314;-163.056;-135.638;-93.170;-71.786;-61.542
2342079.670;-121.593;-109.635;-169.389;-165.664;-135.042;-83.633;-63.293;-44.815
2342079.678;-113.696;-102.334;-162.125;-158.399;-127.703;-76.517;-56.401;-39.898
2342079.686;-112.839;-101.961;-167.079;-156.909;-132.807;-76.629;-56.401;-33.975
2342079.694;-118.464;-106.767;-174.716;-161.566;-140.704;-80.429;-62.324;-32.298
2342079.702;-114.851;-102.296;-173.561;-157.207;-138.357;-74.059;-56.885;-17.136
2342079.710;-107.959;-96.187;-170.395;-151.098;-134.110;-68.285;-51.372;-10.505
2342079.706;-113.137;-101.998;-173.673;-157.654;-137.575;-78.119;-60.089;-20.340
2342079.714;-113.547;-101.887;-176.951;-156.686;-141.077;-79.460;-59.381;-18.664
2342079.722;-106.394;-94.101;-168.458;-147.745;-133.626;-73.984;-54.277;-17.919
2342079.730;-106.171;-93.058;-167.750;-144.839;-131.987;-68.136;-48.950;-10.952
2342079.738;-106.357;-93.319;-169.836;-144.914;-132.062;-66.161;-47.609;-10.654
2342079.746;-105.537;-93.319;-166.669;-147.372;-127.591;-68.434;-51.111;-16.205
2342079.754;-102.818;-92.760;-165.105;-148.565;-126.660;-70.930;-53.383;-17.658
2342079.762;-95.442;-83.633;-156.835;-138.357;-120.364;-63.591;-45.821;-14.678
2342079.770;-96.895;-84.192;-157.170;-138.134;-122.264;-67.726;-49.584;-18.477
2342079.778;-95.554;-83.409;-155.680;-138.283;-123.046;-66.310;-48.839;-15.534
2342079.786;-92.685;-80.317;-148.676;-134.856;-117.756;-64.373;-47.050;-21.830
2342079.794;-89.593;-78.119;-146.516;-133.514;-113.174;-63.255;-46.939;-20.973
2342079.802;-93.952;-81.770;-148.490;-137.351;-115.484;-73.947;-56.550;-39.041
2342079.810;-93.207;-79.013;-148.602;-132.173;-116.527;-74.692;-58.375;-44.964
2342079.818;-88.774;-74.059;-143.759;-124.834;-111.535;-72.606;-54.538;-45.449
2342079.826;-80.578;-65.491;-133.626;-116.304;-102.855;-68.471;-48.131;-44.815
2342079.834;-78.604;-64.895;-133.626;-115.559;-102.744;-68.918;-48.578;-42.357
2342079.842;-87.433;-72.718;-141.710;-123.344;-111.870;-82.329;-61.169;-62.138
2342079.850;-80.094;-64.187;-136.197;-115.000;-107.363;-82.478;-63.144;-62.659
2342079.858;-64.485;-49.099;-122.190;-99.689;-91.232;-69.998;-52.154;-49.137
2342079.866;-63.479;-48.056;-118.949;-97.752;-88.625;-70.930;-52.825;-55.209
2342079.874;-56.662;-44.145;-112.839;-92.126;-82.888;-62.250;-44.592;-44.145
2342079.882;-54.054;-41.164;-108.257;-86.911;-76.890;-59.009;-40.941;-43.884
2342079.890;-60.350;-47.460;-116.117;-92.201;-87.060;-68.024;-51.036;-52.378
2342079.931;-67.130;-56.699;-122.450;-99.726;-90.748;-71.190;-53.570;-53.011
2342079.939;-61.207;-51.148;-112.578;-93.058;-82.441;-65.304;-47.237;-50.962
2342079.947;-54.836;-46.305;-109.896;-86.986;-83.297;-62.138;-45.411;-45.076
2342079.955;-53.421;-45.672;-106.022;-85.197;-76.778;-60.983;-43.251;-45.486
2342079.963;-52.080;-45.523;-104.383;-84.303;-77.300;-65.081;-46.566;-46.454
2342079.971;-59.940;-53.383;-114.664;-89.593;-87.470;-71.190;-53.421;-50.999
2342079.979;-63.814;-56.513;-116.192;-90.525;-89.444;-72.084;-55.768;-53.160
2342079.987;-53.793;-47.423;-110.865;-78.566;-80.019;-59.642;-43.511;-37.439
2342079.995;-55.134;-47.795;-112.355;-78.455;-84.452;-54.054;-38.929;-34.794
2342080.003;-59.940;-53.868;-114.962;-86.837;-83.596;-55.842;-41.649;-37.476
2342080.011;-43.884;-38.855;-100.546;-69.290;-70.110;-37.104;-21.644;-17.546
2342080.019;-28.200;-21.793;-83.596;-50.180;-50.776;-20.154;-2.831;-2.496
2342080.027;-26.226;-21.383;-86.129;-49.435;-50.217;-16.950;-1.304;8.866
2342080.035;-43.884;-40.419;-103.600;-66.981;-66.645;-39.451;-23.283;-11.101
2342080.043;-48.056;-45.002;-108.890;-71.526;-71.488;-42.208;-24.624;-11.139
2342080.051;-48.839;-47.050;-110.082;-74.431;-72.494;-43.847;-28.834;-15.125
2342080.059;-47.423;-44.666;-107.847;-71.935;-70.035;-50.887;-35.912;-25.444
2342080.067;-53.346;-51.893;-117.198;-78.492;-77.449;-55.730;-40.755;-22.836
2342080.075;-57.854;-55.879;-118.576;-82.254;-79.051;-57.369;-41.164;-29.691
2342080.083;-54.277;-52.452;-114.478;-78.529;-77.784;-61.281;-44.629;-33.975
2342080.091;-64.410;-62.436;-128.224;-86.986;-93.095;-60.089;-42.021;-33.714
2342080.099;-71.041;-65.602;-133.701;-87.433;-99.577;-66.087;-51.670;-40.308
2342080.107;-68.247;-62.697;-132.509;-83.037;-97.789;-60.163;-45.300;-32.410
2342080.115;-74.282;-66.943;-135.563;-86.576;-100.806;-75.065;-57.220;-49.472
2342080.096;-75.847;-66.273;-137.053;-86.278;-103.377;-77.114;-56.028;-50.478
2342080.104;-64.485;-56.364;-129.454;-75.363;-96.895;-63.702;-41.984;-38.370
2342080.112;-65.640;-56.848;-129.156;-75.921;-96.858;-68.545;-46.156;-51.297
2342080.120;-61.616;-52.005;-128.187;-72.382;-95.069;-61.914;-40.494;-42.766
2342080.128;-65.565;-56.140;-129.342;-78.455;-95.777;-62.287;-41.202;-47.758
2342080.136;-63.777;-53.458;-129.007;-74.506;-94.883;-63.963;-44.070;-48.876
2342080.144;-47.944;-37.514;-114.553;-56.028;-78.343;-51.744;-32.075;-35.390
2342080.152;-50.180;-36.582;-114.292;-51.782;-78.119;-61.020;-41.686;-50.403
2342080.160;-52.042;-40.270;-117.607;-53.644;-81.994;-67.875;-48.429;-53.719
2342080.168;-45.076;-32.410;-106.096;-44.852;-70.706;-63.442;-45.300;-53.197
2342080.176;-33.937;-23.022;-92.946;-36.247;-59.791;-60.350;-43.437;-46.790
2342080.184;-29.877;-21.420;-89.034;-34.347;-57.220;-66.310;-51.968;-45.933
2342080.192;-17.136;-5.998;-72.159;-15.311;-44.703;-66.571;-51.036;-54.650
2342080.200;5.625;18.924;-47.274;16.652;-26.301;-53.607;-38.445;-42.431
2342080.208;28.647;45.933;-20.526;50.068;-6.258;-47.199;-33.155;-41.313
2342080.216;44.405;61.765;-2.943;67.689;3.129;-49.286;-35.204;-43.139
2342080.224;68.769;84.415;25.369;93.505;25.705;-44.331;-29.579;-35.800
2342080.232;94.548;112.206;56.587;124.313;47.795;-41.761;-25.965;-36.694
2342080.240;108.965;125.729;70.482;139.102;58.264;-36.918;-19.409;-26.412
2342080.248;123.903;139.400;87.693;153.519;69.849;-29.989;-14.603;-19.856
2342080.256;113.286;125.468;77.002;138.469;55.730;-37.439;-22.352;-27.008
2342080.264;121.035;130.832;81.733;141.487;62.324;-21.830;-9.835;-7.264
2342080.272;128.560;137.761;90.227;145.063;69.067;-5.662;3.725;9.574
2342080.280;105.985;112.467;66.645;114.888;61.728;-17.919;-7.525;0.820
2342080.290;63.144;71.265;20.750;70.818;21.905;-49.248;-40.755;-42.059
2342080.298;62.622;70.818;14.566;66.645;21.309;-37.365;-30.473;-28.834
2342080.306;50.478;56.326;-2.645;47.572;9.052;-39.376;-31.851;-27.120
2342080.314;36.098;43.437;-14.007;30.957;-1.192;-42.804;-32.224;-37.737
2342080.322;30.249;36.955;-23.544;22.836;-7.115;-37.551;-26.301;-26.152
2342080.330;17.658;24.922;-35.949;9.313;-12.554;-39.823;-29.244;-27.902
2342080.338;3.316;8.941;-52.340;-8.196;-23.507;-46.194;-35.502;-30.212
2342080.346;-1.974;1.900;-61.020;-16.615;-29.616;-47.907;-37.551;-29.802
2342080.354;1.490;9.462;-52.303;-9.276;-20.303;-41.984;-29.691;-39.227
2342080.362;-3.129;5.849;-53.942;-14.789;-21.681;-46.529;-33.006;-53.272
2342080.370;-0.447;10.245;-48.876;-11.623;-15.423;-43.660;-31.218;-60.499
2342080.378;1.974;12.293;-51.185;-10.803;-13.970;-36.880;-27.269;-50.962
2342080.386;-1.825;7.190;-58.748;-17.211;-19.819;-32.075;-23.060;-41.425
2342080.394;-2.123;6.594;-55.656;-18.552;-16.876;-33.416;-23.991;-42.282
2342080.402;-7.786;-2.533;-64.820;-30.771;-23.432;-44.331;-36.582;-38.967
2342080.410;-6.557;-0.112;-63.293;-30.026;-21.867;-43.511;-33.267;-43.027
2342080.418;-9.052;-2.794;-66.608;-34.086;-24.699;-44.331;-32.224;-40.382
2342080.426;-14.827;-8.047;-73.053;-41.462;-28.536;-43.660;-31.777;-35.763
2342080.434;-9.499;-1.863;-63.591;-36.694;-18.440;-34.906;-22.538;-31.032
2342080.442;-21.830;-16.131;-79.013;-51.595;-32.037;-40.308;-28.536;-32.075
2342080.450;-30.622;-23.097;-85.235;-59.344;-38.221;-45.225;-32.447;-42.543
2342080.458;-25.965;-19.670;-80.690;-55.544;-34.980;-40.531;-27.642;-34.012
2342080.466;-29.057;-24.065;-86.464;-60.424;-40.047;-44.629;-31.330;-36.806
2342080.474;-29.095;-23.246;-84.266;-60.722;-36.880;-46.007;-32.708;-43.735
2342080.485;-31.516;-28.275;-89.668;-67.353;-40.568;-44.107;-31.702;-33.602
2342080.493;-33.565;-31.181;-91.009;-71.600;-41.462;-47.684;-36.173;-40.717
2342080.501;-24.959;-23.730;-84.005;-65.081;-37.067;-47.013;-35.763;-36.508
2342080.509;-13.262;-13.076;-74.469;-54.911;-28.461;-36.657;-26.450;-20.638
2342080.517;-1.602;2.049;-62.175;-38.184;-18.589;-28.126;-17.025;-17.844
2342080.525;5.849;8.531;-60.722;-31.702;-15.236;-16.727;-2.980;1.267
2342080.533;2.980;5.141;-59.344;-36.135;-20.452;-18.962;-3.763;-5.513
2342080.541;-4.061;-2.384;-64.969;-44.331;-21.644;-25.816;-11.176;-9.686
2342080.549;-2.421;-1.527;-66.943;-43.735;-22.538;-23.060;-10.356;-2.235
2342080.557;-8.717;-5.290;-71.377;-47.125;-28.089;-31.106;-17.211;-17.397
2342080.565;-5.029;-3.874;-71.116;-45.672;-26.114;-19.558;-5.513;5.700
2342080.573;-4.619;-4.061;-69.328;-44.890;-23.283;-14.082;-1.565;17.211
2342080.581;-22.985;-24.103;-86.986;-64.410;-40.978;-31.702;-17.658;-4.768
2342080.589;-32.037;-34.645;-95.926;-74.469;-49.397;-37.700;-24.363;-5.215
2342080.597;-38.408;-39.786;-98.646;-78.008;-53.123;-41.164;-27.381;-14.529
2342080.605;-30.510;-32.932;-93.207;-70.259;-48.354;-29.914;-16.093;0.745
2342080.613;-26.077;-27.232;-85.495;-61.616;-42.729;-27.791;-13.076;-1.229
2342080.621;-18.477;-20.340;-77.523;-53.979;-37.514;-17.509;-4.545;12.144
2342080.629;-17.695;-21.420;-77.337;-55.470;-37.514;-10.021;1.974;22.724
2342080.637;-23.618;-26.822;-78.194;-59.791;-39.190;-17.658;-4.768;6.966
2342080.645;-11.660;-17.881;-65.751;-49.062;-26.524;-7.004;4.694;28.163
2342080.653;-15.385;-22.091;-64.261;-50.366;-26.077;-15.981;-5.364;15.125
2342080.661;-17.136;-24.289;-61.914;-49.733;-22.538;-16.391;-7.078;14.864
2342080.669;-6.706;-15.050;-50.142;-41.910;-13.933;-16.876;-10.394;14.566
2342080.666;8.345;2.086;-28.536;-25.295;2.012;-22.389;-17.174;1.974
2342080.674;20.415;16.838;-17.919;-7.190;7.041;-13.858;-9.090;17.025
2342080.682;51.446;47.758;21.756;27.977;34.086;-13.448;-5.662;9.164
2342080.690;98.422;93.393;77.970;76.592;72.829;-6.817;1.080;12.591
2342080.698;117.309;110.939;99.428;96.932;84.229;-5.960;-1.863;11.511
2342080.706;133.701;128.932;122.041;117.123;100.173;-9.499;-2.831;-3.539
2342080.714;139.587;134.371;128.336;120.960;102.334;-10.878;-4.917;-2.049
2342080.722;149.496;143.573;143.051;113.808;113.733;-6.035;0.484;-6.519
2342080.730;143.759;135.712;136.644;84.788;108.145;-2.570;5.439;-3.725
2342080.738;136.122;125.729;126.250;68.992;98.422;-0.037;7.898;-0.410
2342080.746;125.132;114.851;116.155;55.581;91.083;-5.513;2.086;-13.672
2342080.754;109.524;97.789;92.760;35.912;72.494;-7.376;-2.012;-9.760
2342080.762;88.736;79.684;70.371;17.993;54.687;-12.182;-6.109;-23.767
2342080.770;90.115;82.850;67.204;20.787;55.730;-4.619;1.155;-14.640
2342080.778;86.389;78.343;58.040;16.987;50.217;-0.373;3.614;-1.602
2342080.786;72.159;65.304;43.549;5.141;37.476;-13.597;-8.643;-20.824
2342080.794;71.153;63.218;36.396;4.880;33.639;-3.427;-0.410;1.490
2342080.802;61.840;55.730;26.748;-3.166;25.369;-9.164;-5.700;-5.737
2342080.810;51.446;45.300;13.709;-13.635;15.087;-15.944;-10.617;-9.425
2342080.818;51.185;43.735;10.170;-14.380;13.746;-6.668;-1.304;5.327
2342080.826;52.564;46.082;12.144;-10.990;19.148;-2.161;1.937;6.929
2342080.834;52.974;45.821;5.960;-10.654;12.554;5.476;5.402;26.412
2342080.842;41.611;35.465;-3.763;-18.589;1.043;-3.017;-2.421;5.700
2342080.850;40.010;32.522;-6.221;-20.377;2.347;1.676;1.825;16.429
2342080.860;32.522;23.805;-15.683;-29.057;-4.284;0.931;1.341;21.979
2342080.868;26.748;20.452;-18.887;-30.287;-7.637;-3.017;-1.118;10.096
2342080.876;23.954;17.919;-25.854;-32.783;-16.019;-4.843;-4.023;13.933
2342080.884;19.036;15.609;-27.157;-34.198;-17.434;-14.603;-11.288;-8.978
2342080.892;26.561;24.624;-19.483;-25.220;-7.898;-7.786;-6.109;-1.937
2342080.900;25.891;24.997;-23.581;-24.773;-12.107;-7.376;-4.396;3.502
2342080.908;26.040;25.891;-22.240;-22.687;-11.846;-17.807;-11.362;-13.821
2342080.916;23.432;21.718;-29.504;-26.524;-16.987;-17.658;-11.101;-4.917
2342080.924;19.185;17.732;-28.647;-29.989;-16.391;-16.093;-10.245;-5.998
2342080.932;16.429;14.603;-29.504;-30.808;-17.472;-12.740;-8.158;-0.298
2342080.940;14.454;13.188;-33.751;-30.324;-21.979;-15.944;-12.703;-4.508
2342080.948;11.995;11.772;-35.688;-31.330;-25.369;-28.908;-23.469;-28.312
2342080.956;12.517;10.282;-40.419;-33.304;-29.653;-28.573;-22.948;-20.973
2342080.964;16.280;14.603;-32.224;-27.977;-22.426;-23.805;-17.658;-28.238
2342080.972;13.560;9.835;-33.937;-32.149;-25.481;-23.432;-16.987;-26.152
2342080.980;16.429;11.474;-32.336;-28.722;-23.097;-17.472;-10.952;-16.727
2342080.988;11.697;7.115;-33.341;-30.175;-23.656;-25.555;-16.093;-34.384
2342080.996;12.480;4.657;-37.029;-32.298;-26.263;-22.762;-14.231;-24.699
2342081.004;15.609;7.525;-33.602;-28.200;-23.544;-21.346;-11.958;-31.218
2342081.012;17.174;7.339;-35.763;-26.934;-24.848;-9.686;-0.894;-14.193
2342081.020;2.421;-10.505;-52.080;-43.921;-38.818;-16.652;-11.325;-12.070
2342081.028;13.262;0.298;-36.247;-32.149;-26.524;-29.691;-24.326;-29.393
2342081.036;20.824;5.588;-32.969;-25.295;-22.464;-20.377;-13.970;-8.233
2342081.044;10.245;-5.066;-44.107;-33.975;-34.161;-26.152;-18.589;-18.179
2342081.071;9.462;-9.462;-47.870;-38.557;-35.875;-22.948;-16.429;-4.806
2342081.079;20.899;1.006;-40.159;-26.561;-26.412;-9.947;-2.906;12.256
2342081.087;13.337;-4.172;-44.517;-29.653;-31.292;-12.852;-4.508;1.565
2342081.095;8.754;-8.084;-50.440;-32.485;-36.396;-6.743;1.416;15.944
2342081.103;10.058;-4.917;-46.380;-28.051;-32.857;-10.915;1.304;0.261
2342081.111;11.846;-1.453;-43.400;-23.283;-31.702;-8.009;4.470;4.359
2342081.119;-1.453;-13.188;-56.662;-34.347;-44.256;-19.073;-7.935;-2.719
2342081.127;2.235;-7.302;-49.360;-28.089;-37.551;-24.065;-10.580;-20.675
2342081.135;0.447;-9.015;-51.707;-28.983;-40.382;-27.604;-14.976;-29.728
2342081.143;4.992;-0.894;-38.743;-20.377;-28.983;-30.957;-17.136;-55.693
2342081.151;17.919;12.033;-26.077;-6.557;-18.626;-20.526;-8.568;-43.176
2342081.159;22.240;14.864;-25.891;-4.619;-18.738;-17.360;-6.221;-30.622
2342081.167;20.936;15.423;-26.934;-3.874;-19.446;-20.862;-9.052;-38.967
2342081.175;4.508;-2.161;-49.584;-20.377;-41.090;-26.785;-19.521;-29.318
2342081.183;-0.298;-6.668;-53.681;-24.214;-46.156;-33.863;-25.854;-44.927
2342081.191;14.231;6.817;-39.078;-11.139;-32.596;-21.458;-11.101;-29.877
2342081.199;14.938;7.413;-39.190;-10.729;-33.863;-18.999;-6.817;-20.936
2342081.207;8.047;1.341;-43.698;-14.938;-39.600;-28.536;-15.423;-36.135
2342081.215;16.913;9.052;-38.110;-7.562;-33.155;-18.887;-6.296;-15.087
2342081.223;21.681;14.193;-31.479;-2.421;-26.375;-16.801;-3.874;-24.028
2342081.231;16.280;9.984;-38.818;-6.445;-34.235;-19.595;-4.955;-28.200
2342081.239;28.275;21.346;-29.989;3.651;-22.538;-7.786;7.190;-14.193
2342081.247;26.822;20.042;-28.722;2.570;-24.214;-15.125;0.522;-30.249
2342081.255;30.473;21.532;-27.008;3.688;-20.601;-5.327;7.860;-9.015
2342081.251;27.604;20.377;-26.859;4.359;-19.707;-13.262;-1.714;-22.873
2342081.259;18.105;10.021;-37.476;-5.662;-28.387;-19.372;-11.101;-23.283
2342081.267;13.262;4.694;-42.990;-11.548;-31.590;-20.787;-10.990;-20.042
2342081.275;17.136;9.574;-36.322;-5.588;-27.381;-22.985;-8.605;-28.275
2342081.283;6.519;-3.390;-49.286;-18.589;-39.749;-27.865;-15.013;-21.532
2342081.291;13.970;3.986;-38.631;-10.468;-28.126;-24.624;-13.672;-26.710
2342081.299;3.688;-5.513;-52.154;-19.558;-39.265;-25.108;-16.540;-20.526
2342081.307;0.484;-8.605;-57.630;-21.197;-43.102;-17.807;-12.591;-6.706
2342081.315;1.453;-7.786;-53.197;-18.515;-42.245;-26.077;-20.377;-22.687
2342081.323;-3.017;-13.635;-62.585;-22.687;-51.484;-17.434;-11.250;-3.986
2342081.331;0.484;-11.139;-55.172;-18.701;-44.629;-14.193;-6.817;-7.488
2342081.339;-2.123;-16.578;-56.364;-23.134;-46.492;-13.597;-7.488;-1.527
2342081.347;-1.714;-16.615;-56.028;-22.762;-46.343;-8.345;-3.576;8.345
2342081.355;5.811;-7.786;-46.045;-11.660;-38.557;-8.419;0.149;-3.055
2342081.363;1.825;-14.119;-52.005;-18.254;-45.076;-8.084;0.671;5.811
2342081.371;-0.335;-17.136;-49.807;-22.799;-44.145;-15.050;-7.600;-9.462
2342081.379;4.470;-11.660;-44.964;-17.248;-39.078;-10.841;-4.582;0.410
2342081.387;-6.780;-21.681;-56.736;-26.748;-50.105;-16.429;-13.001;0.410
2342081.395;-13.784;-26.487;-59.716;-30.138;-52.787;-24.959;-22.836;-15.683
2342081.403;-9.388;-24.401;-55.730;-30.212;-47.199;-10.543;-11.250;12.890
2342081.411;-15.832;-29.393;-59.977;-36.061;-51.185;-14.715;-13.635;0.335
2342081.419;-21.867;-34.794;-67.241;-38.967;-57.593;-15.274;-12.890;3.092
2342081.427;-21.867;-34.496;-66.757;-37.365;-55.544;-14.342;-12.107;4.694
2342081.435;-26.971;-38.892;-66.459;-42.729;-54.166;-28.685;-26.785;-18.664
2342081.431;-21.979;-31.963;-63.553;-35.465;-51.744;-17.323;-16.652;-1.006
2342081.439;-15.907;-23.618;-54.613;-26.040;-43.474;-16.950;-14.901;-14.640
2342081.447;-15.721;-23.358;-53.793;-24.624;-42.617;-14.156;-13.262;-12.964
2342081.455;-14.491;-23.842;-51.409;-23.320;-39.712;-13.784;-14.752;-12.703
2342081.463;-1.788;-10.058;-34.459;-9.425;-25.854;-18.962;-17.956;-26.710
2342081.471;9.798;1.341;-22.911;0.522;-18.850;-10.952;-11.213;-6.407
2342081.479;24.736;18.887;-0.037;23.395;-0.522;-14.193;-14.901;-21.011
2342081.487;52.154;50.887;29.951;61.095;20.303;-8.270;-9.201;-13.113
2342081.495;76.070;76.219;56.773;90.711;36.210;-12.405;-12.256;-10.915
2342081.503;109.114;112.168;95.740;132.844;63.889;-13.486;-11.325;-17.881
2342081.511;131.913;135.638;115.819;159.107;74.320;-5.551;-4.023;2.012
2342081.519;155.792;158.437;143.982;183.433;93.468;-10.096;-5.066;-15.497
2342081.527;169.948;172.146;160.933;199.005;107.326;-8.643;-1.863;-11.399
2342081.535;181.235;183.396;170.879;210.516;115.447;-0.969;5.700;-2.757
2342081.543;184.588;184.849;174.493;212.826;114.739;-2.049;4.768;-15.236
2342081.551;174.679;172.555;160.970;199.266;103.079;4.843;9.201;1.676
2342081.559;162.050;159.219;151.135;182.651;97.342;-5.402;0.000;-15.572
2342081.567;159.219;157.766;143.945;180.192;93.579;-4.657;1.714;-11.697
2342081.575;139.140;136.606;117.756;155.903;72.755;-5.141;0.484;-7.674
2342081.583;122.301;120.141;100.136;136.457;60.424;-10.803;-2.384;-20.787
2342081.591;108.033;105.985;79.647;120.327;44.219;-7.153;1.900;-7.823
2342081.599;88.997;86.203;60.946;95.218;29.355;-19.148;-8.643;-27.418
2342081.607;83.931;81.360;52.936;88.736;27.195;-11.399;-1.863;-13.746
2342081.615;71.712;69.365;38.818;76.890;18.254;-9.239;-0.931;-9.537
2342081.626;61.542;61.728;29.244;70.147;12.554;-18.477;-8.680;-25.369
2342081.634;53.346;51.185;19.148;59.009;7.562;-16.987;-11.139;-9.872
2342081.642;45.858;43.772;14.342;50.440;4.880;-22.016;-15.087;-24.140
2342081.650;55.917;53.421;24.401;58.264;16.876;-9.984;-2.645;-9.462
2342081.658;48.578;45.858;12.815;50.105;6.258;-12.144;-4.694;-12.703
2342081.666;42.357;39.823;7.711;44.107;2.608;-18.440;-13.448;-27.902
2342081.674;33.453;31.777;-2.049;34.682;-2.235;-10.841;-9.574;-10.580
2342081.682;29.355;29.989;-4.284;32.783;-1.155;-12.033;-9.350;-20.564
2342081.690;21.793;22.613;-11.958;25.854;-5.886;-16.615;-14.119;-18.217
2342081.698;19.893;19.893;-14.231;21.942;-7.264;-9.462;-6.072;-6.557
2342081.706;18.105;19.148;-11.362;20.042;-4.210;-10.096;-3.614;-15.609
2342081.714;18.962;20.713;-12.890;21.681;-1.788;-2.645;3.725;-0.335
2342081.722;20.154;24.587;-11.474;24.699;1.974;-18.179;-15.646;-21.048
2342081.730;18.664;24.587;-14.678;24.326;0.633;-18.068;-16.019;-20.415
2342081.738;17.993;23.134;-16.615;23.656;0.075;-12.740;-7.711;-14.007
2342081.746;23.171;29.318;-10.580;28.014;6.519;-14.864;-9.052;-23.469
2342081.754;24.438;29.728;-12.144;26.263;5.923;-12.033;-9.313;-13.150
2342081.762;26.003;31.739;-9.313;29.169;9.090;-16.429;-13.784;-27.977
2342081.770;25.369;30.883;-10.990;29.504;9.649;-8.009;-6.333;-17.323
2342081.778;20.787;25.779;-17.248;23.432;5.327;-4.955;-4.843;-13.560
2342081.786;15.050;19.707;-20.899;15.795;3.912;-11.548;-13.039;-27.418
2342081.794;15.832;22.501;-23.395;18.924;2.421;1.900;-1.006;-4.917
2342081.802;15.236;25.108;-23.469;22.613;3.166;-0.484;-0.522;-14.789
2342081.810;10.058;19.744;-29.914;18.887;-2.570;-4.210;-1.714;-20.154
2342081.822;18.813;27.344;-22.613;26.673;7.302;4.619;8.866;-7.860
2342081.830;28.573;37.812;-12.256;36.620;18.701;6.407;11.474;-11.064
2342081.838;14.342;23.097;-27.791;19.446;4.321;4.433;4.619;2.310
2342081.846;12.405;21.495;-28.275;16.354;4.433;-2.943;-4.135;-10.431
2342081.854;12.368;20.601;-29.914;14.529;4.657;-3.166;-3.502;-7.078
2342081.862;16.317;26.263;-26.599;20.787;9.313;2.682;3.316;-1.714
2342081.870;15.683;27.306;-25.742;21.607;7.600;-0.186;0.261;-12.629
2342081.878;9.686;19.185;-31.143;10.170;2.719;0.186;-0.782;0.671
2342081.886;10.617;19.781;-27.940;11.027;4.955;-6.966;-8.121;-10.766
2342081.894;-2.198;7.264;-40.345;-0.931;-6.594;-14.156;-17.546;-10.505
2342081.902;-1.416;7.004;-40.755;-1.304;-5.327;-5.029;-9.425;1.341
2342081.910;1.267;10.803;-37.774;3.092;-1.192;3.092;-1.416;2.682
2342081.918;8.531;15.795;-30.287;7.488;9.127;19.595;15.646;29.020
2342081.926;-8.419;-2.012;-44.182;-11.958;-4.470;-8.978;-14.231;-3.129
2342081.934;-14.305;-6.892;-53.085;-17.099;-12.182;-12.219;-17.583;0.671
2342081.942;-7.898;0.000;-46.678;-11.921;-3.874;-3.502;-6.370;11.772
2342081.950;-1.676;8.680;-39.563;-5.253;1.714;-7.935;-8.941;3.092
2342081.958;-4.806;5.923;-42.841;-8.866;-0.149;-2.868;-3.241;17.397
2342081.966;-9.984;0.261;-45.076;-13.709;-1.267;-7.190;-9.015;4.768
2342081.974;-4.433;6.296;-40.382;-7.711;3.688;4.210;2.943;16.429
2342081.982;-4.284;7.190;-38.780;-6.817;5.290;4.172;4.396;7.562
2342081.990;-11.176;2.272;-39.823;-11.362;2.757;-14.007;-11.548;-32.820
2342081.998;-19.558;-6.855;-46.752;-20.303;-3.241;-16.205;-14.976;-28.722
2342082.006;-16.280;-3.092;-40.382;-15.460;2.868;-16.987;-15.534;-34.682
2342082.017;-5.662;6.519;-29.132;-4.694;14.715;-5.960;-5.998;-18.068
2342082.025;-3.949;6.817;-26.710;-4.284;17.211;-3.800;-6.407;-9.201
2342082.033;-11.437;-2.384;-31.516;-12.554;12.368;-13.374;-15.274;-21.160
2342082.041;-12.070;-3.576;-34.384;-11.176;8.270;-7.637;-8.158;-9.723
2342082.049;-3.465;6.221;-25.406;0.224;14.715;-3.651;-2.421;-12.927
2342082.057;-1.490;8.009;-21.569;2.123;17.770;-2.347;-2.049;-8.829
2342082.065;-4.470;2.682;-23.618;-3.725;16.205;-3.725;-4.992;-11.176
2342082.073;-2.049;4.321;-20.303;-2.012;18.664;-7.451;-8.084;-24.810
2342082.081;-1.565;3.166;-21.644;-1.751;16.689;-1.714;-3.092;-13.858
2342082.089;1.602;6.631;-17.919;4.508;21.048;2.719;1.416;-19.409
2342082.097;-7.786;-3.465;-26.077;-4.806;14.678;-0.931;-4.210;-18.664
2342082.105;-14.901;-7.227;-35.539;-7.711;6.929;8.345;4.172;-8.792
2342082.113;1.192;11.921;-18.626;15.348;18.403;13.374;10.245;-8.717
2342082.121;13.039;21.495;-4.508;25.108;26.561;11.846;7.264;-1.527
2342082.129;27.902;35.837;9.276;42.133;35.539;19.409;16.727;-3.129
2342082.137;42.655;50.664;18.962;60.685;38.743;16.168;14.454;-4.433
2342082.145;57.966;64.671;33.565;77.747;44.480;14.752;12.331;-4.880
2342082.153;85.905;95.628;62.585;116.900;65.714;25.332;24.736;1.416
2342082.161;102.893;114.702;76.853;142.232;72.569;27.642;27.306;12.182
2342082.169;110.194;126.027;84.676;160.597;73.835;20.042;22.873;-1.565
2342082.177;119.731;136.904;94.138;176.169;76.331;20.191;22.240;3.166
2342082.185;125.617;142.828;97.975;185.557;74.320;22.687;23.358;6.221
2342082.193;130.758;146.702;104.494;191.294;78.827;19.856;20.415;1.192
2342082.201;130.609;143.871;103.712;187.941;79.013;25.146;21.830;15.721
2342082.210;123.270;134.781;96.746;177.287;71.339;22.091;16.801;10.431
2342082.218;103.116;110.865;75.288;149.682;52.601;18.328;14.231;13.486
2342082.226;95.777;102.744;65.006;138.618;46.864;18.477;13.672;19.222
2342082.234;91.977;100.434;58.524;134.148;42.655;20.154;16.205;19.707
2342082.242;74.580;81.435;38.594;112.131;29.765;27.828;21.979;38.631
2342082.250;56.028;62.771;19.930;91.344;16.615;15.013;10.245;17.956
2342082.258;68.918;74.282;29.616;100.322;29.877;27.679;23.879;32.298
2342082.266;63.963;68.881;21.830;91.642;25.146;34.086;28.759;41.388
2342082.274;49.770;54.836;8.717;77.151;13.672;27.046;20.638;28.946
2342082.282;32.037;35.800;-8.456;58.003;0.261;24.028;18.775;30.398
2342082.290;30.100;35.316;-7.637;57.966;1.378;22.054;19.707;23.209
2342082.298;25.779;30.622;-13.150;52.638;-3.055;16.280;13.933;25.071
2342082.306;29.355;33.937;-8.605;53.309;3.055;16.615;13.672;23.022
2342082.314;34.980;37.663;0.596;54.799;12.554;16.615;11.474;16.019
2342082.322;34.347;35.204;0.820;52.415;13.262;24.624;15.199;32.112
2342082.330;35.241;39.041;3.725;55.656;14.342;24.289;13.672;24.773
2342082.338;26.487;30.510;-6.966;48.541;6.221;18.291;9.499;17.472
2342082.346;30.845;35.018;-2.161;54.464;14.678;22.389;15.646;18.291
2342082.354;32.410;37.290;2.682;57.369;16.950;19.893;15.460;5.886
2342082.362;15.125;18.477;-12.182;37.067;1.937;12.517;9.015;2.123
2342082.370;17.248;22.762;-9.313;41.425;6.631;11.474;8.047;-6.221
2342082.378;29.653;35.502;2.272;52.713;19.073;23.246;19.670;7.339
2342082.386;25.854;28.536;-0.037;45.188;18.328;26.748;23.954;13.337
2342082.394;11.958;13.672;-10.654;29.877;6.147;11.213;10.729;-7.935
2342082.390;9.313;12.554;-15.870;29.765;-0.633;11.660;10.245;-1.006
2342082.398;10.729;15.274;-13.486;33.081;1.602;11.064;8.978;-3.390
2342082.406;6.221;12.629;-19.036;28.908;-2.347;10.431;7.525;3.278
2342082.414;3.129;10.170;-21.569;24.624;-5.700;8.531;5.849;4.731
2342082.422;0.186;8.196;-21.420;22.016;-6.817;0.745;-1.602;-1.453
2342082.430;-1.639;7.935;-25.481;24.065;-11.586;9.499;7.898;13.746
2342082.438;3.837;12.927;-19.521;30.324;-5.029;16.615;12.442;14.752
2342082.446;3.986;13.262;-20.079;31.143;-4.955;19.558;16.838;19.148
2342082.454;-0.894;8.531;-25.854;26.226;-11.772;19.036;15.944;18.030
2342082.462;-5.588;3.465;-29.691;20.340;-15.348;18.887;15.832;14.901
2342082.470;-9.276;0.000;-35.986;17.323;-20.824;20.675;20.489;23.767
2342082.478;-3.241;5.253;-28.946;22.426;-13.746;10.580;10.245;16.764
2342082.486;-6.706;1.527;-34.012;17.695;-16.727;11.362;11.213;21.458
2342082.494;-13.858;-5.104;-40.084;9.611;-21.830;6.333;6.557;12.815
2342082.502;-25.146;-14.901;-48.988;-0.857;-32.745;-8.717;-9.574;-4.694
2342082.510;-14.976;-2.906;-40.047;12.293;-24.103;-0.484;-0.596;10.431
2342082.518;-18.924;-5.253;-42.953;11.213;-27.865;-4.657;-4.247;0.447
2342082.526;-23.097;-8.866;-48.317;8.382;-35.390;-8.531;-9.686;-5.141
2342082.534;-10.096;4.396;-35.241;22.314;-24.922;-1.229;-2.161;0.559
2342082.542;-1.676;13.672;-25.295;34.645;-17.844;1.416;3.576;-5.551
2342082.550;-2.272;14.268;-24.736;36.471;-19.856;2.943;4.545;-1.229
2342082.558;2.682;20.377;-18.142;42.841;-17.136;1.378;1.565;-9.239
2342082.566;13.448;33.192;-7.339;57.593;-12.293;9.947;11.250;-1.639
2342082.574;27.157;50.627;8.121;81.733;-1.937;11.735;13.858;-1.080
2342082.586;43.288;69.402;22.352;105.463;4.880;12.740;16.801;-4.508
2342082.594;54.128;82.403;30.212;123.009;8.158;15.795;18.217;7.898
2342082.602;84.750;113.733;63.926;156.499;32.596;11.511;14.603;0.298
2342082.610;107.475;140.332;86.948;186.339;49.323;19.521;25.481;8.233
2342082.618;116.639;149.198;95.442;195.876;52.676;18.850;25.034;6.929
2342082.626;115.000;144.094;93.803;187.643;46.603;11.846;16.689;-3.427
2342082.634;97.640;120.997;75.325;162.087;29.206;6.706;9.388;-3.241
2342082.642;94.026;115.409;69.700;154.003;26.412;13.113;17.844;-2.012
2342082.650;85.793;106.357;59.344;143.126;20.154;11.884;17.546;0.894
2342082.658;82.627;102.296;54.166;136.606;19.632;16.578;22.836;8.307
2342082.666;65.491;83.186;36.769;115.968;5.253;5.774;15.944;-8.270
2342082.674;57.779;73.090;27.195;104.383;-0.075;9.388;15.423;0.298
2342082.682;41.313;56.624;8.307;85.793;-13.895;5.402;8.680;-7.004
2342082.690;34.682;49.919;0.112;76.555;-17.062;10.356;13.411;1.788
2342082.698;30.734;44.294;-4.247;69.886;-19.148;15.795;16.764;10.803
2342082.706;27.120;40.717;-7.898;67.651;-22.277;14.268;15.721;3.278
2342082.714;25.593;39.637;-12.107;69.775;-26.189;19.819;24.028;14.342
2342082.722;28.275;41.313;-8.978;72.680;-21.979;22.948;26.561;15.162
2342082.730;29.504;38.184;-7.227;69.663;-18.589;27.530;28.722;23.805
2342082.738;29.057;33.565;-5.513;64.559;-13.374;31.739;31.702;28.089
2342082.746;15.683;17.248;-16.056;48.988;-22.016;20.601;19.073;15.385
2342082.754;7.302;7.488;-26.114;40.308;-31.665;20.415;18.515;24.624
2342082.762;10.990;10.543;-21.160;44.629;-29.653;25.108;24.289;24.624
2342082.770;13.076;12.219;-16.764;46.976;-23.544;27.418;27.940;26.338
2342082.781;14.119;13.970;-15.758;50.515;-23.432;30.026;28.983;29.802
2342082.789;12.070;10.580;-15.162;46.752;-22.948;22.203;22.314;15.385
2342082.797;8.121;4.917;-15.870;41.686;-23.507;19.073;20.750;13.001
2342082.805;5.513;3.204;-15.795;41.910;-25.593;15.944;20.638;3.166
2342082.813;1.006;-0.373;-20.564;39.265;-34.459;13.411;17.434;2.235
2342082.821;-1.602;-2.682;-21.532;36.322;-33.975;8.978;13.895;-3.316
2342082.829;9.984;8.047;-7.749;46.492;-19.930;15.981;19.446;0.335
2342082.837;5.774;4.433;-11.288;42.953;-27.940;16.764;17.285;-5.513
2342082.845;5.700;6.482;-7.339;45.598;-26.189;15.125;19.073;-20.601
2342082.853;7.153;8.084;-4.508;44.815;-23.730;20.750;24.550;-12.703
2342082.861;-0.596;0.931;-14.566;34.161;-34.869;23.730;26.971;-6.370
2342082.869;5.662;6.333;-8.382;37.178;-29.542;30.063;32.783;-3.017
2342082.877;-14.752;-14.342;-27.046;15.646;-47.572;20.154;21.532;-5.364
2342082.885;-11.437;-8.903;-23.134;22.165;-45.933;20.638;23.656;-10.766
2342082.893;-5.476;-2.980;-17.844;27.567;-39.674;21.197;26.710;-5.700
2342082.901;-3.427;-2.086;-14.938;27.344;-36.806;22.314;25.742;1.118
2342082.909;-8.978;-7.525;-19.073;22.054;-39.302;20.042;21.607;-2.384
2342082.917;-4.284;-2.012;-16.876;29.244;-39.712;19.222;19.446;1.304
2342082.925;-9.127;-7.488;-22.650;22.724;-49.025;8.941;9.499;-14.901
2342082.933;-13.821;-12.405;-27.008;16.652;-51.148;14.864;17.285;-12.554
2342082.941;-8.643;-9.276;-19.632;18.775;-44.368;18.030;19.707;-10.654
2342082.949;-2.570;-7.004;-11.809;20.117;-35.577;19.073;19.595;-12.219
2342082.957;-19.334;-27.157;-28.871;-0.224;-49.174;7.339;6.482;-16.801
2342082.965;-23.209;-28.126;-31.516;-1.676;-54.613;2.384;3.129;-24.214
2342082.976;-23.134;-26.934;-27.977;-2.310;-46.417;4.806;4.992;-17.472
2342082.984;-18.515;-21.309;-23.618;3.725;-41.910;7.898;9.537;-11.884
2342082.992;-24.699;-26.971;-29.802;-1.565;-46.641;1.751;4.917;-18.589
2342083.000;-15.907;-19.521;-22.016;5.253;-37.663;13.448;15.646;-3.949
2342083.008;-22.128;-24.140;-29.579;0.596;-47.423;8.009;11.139;-13.411
2342083.016;-25.891;-25.965;-33.602;-0.708;-52.340;6.966;9.537;-10.319
2342083.024;-27.642;-26.114;-40.904;-0.410;-51.744;7.860;11.474;-7.339
2342083.032;-20.154;-18.366;-24.177;5.886;-41.500;8.531;12.666;-9.201
2342083.040;-21.048;-19.372;-23.022;3.316;-40.978;13.486;14.976;0.708
2342083.048;-27.306;-27.493;-31.292;-7.041;-45.411;9.164;9.350;-6.743
2342083.056;-26.934;-27.791;-31.441;-8.456;-44.256;10.654;11.697;-2.272
2342083.064;-30.138;-30.734;-33.565;-12.107;-47.162;7.860;9.164;-2.608
2342083.072;-27.642;-28.200;-30.324;-11.250;-44.294;8.680;8.717;-1.974
2342083.080;-27.567;-29.355;-29.691;-14.268;-42.096;12.629;12.144;5.998
2342083.088;-30.249;-32.857;-32.112;-19.632;-43.325;3.427;4.694;-6.370
2342083.096;-29.467;-30.659;-31.888;-18.291;-42.804;3.055;4.321;-3.837
2342083.104;-22.836;-25.146;-22.762;-14.193;-31.665;6.221;8.419;0.708
2342083.112;-27.940;-29.579;-25.555;-18.291;-33.043;2.868;1.490;-0.596
2342083.120;-27.753;-28.312;-26.263;-18.254;-31.926;5.513;3.502;7.153
2342083.128;-35.837;-34.980;-33.602;-26.040;-39.674;-5.849;-5.849;-8.047
2342083.136;-38.370;-38.110;-35.837;-32.037;-41.202;-7.339;-8.903;-8.270
2342083.144;-31.888;-30.808;-30.249;-26.450;-34.347;-3.465;-4.955;-4.023
2342083.152;-28.685;-26.859;-28.238;-22.538;-31.814;-1.825;-3.502;-5.849
2342083.160;-27.716;-28.759;-33.192;-26.003;-31.702;0.186;-1.602;1.043
2342083.157;-30.771;-27.679;-29.542;-25.146;-34.235;-8.754;-8.903;-9.798
2342083.165;-19.930;-16.056;-16.764;-13.709;-22.985;-2.906;-2.161;-1.676
2342083.173;-12.890;-8.643;-11.250;-7.264;-15.832;2.235;3.874;1.714
2342083.181;-20.303;-15.795;-17.695;-15.087;-22.091;-2.012;-0.671;-4.768
2342083.189;-25.108;-21.532;-22.240;-23.209;-25.555;0.335;-1.229;-0.820
2342083.197;-18.515;-14.566;-15.199;-16.838;-17.919;2.310;3.576;-8.754
2342083.205;-12.219;-9.649;-9.835;-10.803;-11.176;4.992;8.829;-7.972
2342083.213;-8.792;-3.576;-7.004;-3.576;-9.462;1.080;7.749;-14.491
2342083.221;-6.184;-3.539;-2.682;-2.757;-4.843;-0.298;5.998;-16.950
2342083.229;-10.431;-6.296;-5.774;-4.880;-7.302;2.868;7.339;-9.984
2342083.237;-14.603;-10.133;-8.345;-8.717;-9.947;-3.129;1.714;-18.887
2342083.245;-7.078;-2.123;0.745;-2.943;-0.484;4.061;8.345;-10.207
2342083.253;-6.184;-1.341;3.204;-1.974;4.061;4.619;7.376;-7.190
2342083.261;-10.841;-5.178;0.745;-6.072;3.055;-1.267;-0.782;-13.262
2342083.269;-13.299;-8.494;-0.820;-8.643;1.267;-0.820;-0.820;-11.027
2342083.277;-4.768;-0.224;8.084;-0.894;10.766;2.459;4.582;-14.640
2342083.285;-3.688;-0.894;9.835;-2.347;11.660;4.992;7.525;-14.231
2342083.293;-3.353;-0.037;12.927;-3.129;16.429;10.170;12.405;-9.499
2342083.301;-5.886;-2.086;12.629;-6.519;14.827;4.321;5.960;-12.368
2342083.309;-8.456;-7.749;9.798;-13.374;13.970;6.892;5.588;-4.694
2342083.317;-18.515;-18.999;0.447;-25.220;6.631;1.863;-0.671;-10.878
2342083.325;-11.921;-11.101;7.525;-16.801;13.709;0.224;-1.565;-10.617
2342083.333;-15.199;-16.093;4.992;-23.693;13.746;-0.894;0.000;-12.517
2342083.341;-32.708;-31.181;-14.864;-36.806;-2.868;-4.470;-3.390;-16.429
2342083.350;-15.311;-18.179;5.849;-21.644;12.182;-2.570;-4.657;-7.451
2342083.358;-1.714;-5.029;21.048;-6.109;22.575;-2.757;-3.688;-10.990
2342083.366;11.288;10.952;30.100;13.970;24.028;1.006;0.149;-7.339
2342083.374;21.532;23.097;34.943;28.312;22.464;6.296;5.029;-3.502
2342083.382;24.475;28.536;33.528;36.620;16.987;7.153;6.817;-5.253
2342083.390;28.834;36.173;34.198;48.690;13.188;11.884;10.841;-0.261
2342083.398;30.845;40.494;33.528;56.624;8.494;15.162;10.915;0.596
2342083.406;32.671;43.772;33.751;64.373;5.923;16.578;9.425;2.123
2342083.414;45.672;59.381;43.251;84.974;11.697;22.799;19.446;2.831
2342083.422;46.454;61.803;39.861;90.785;5.402;21.644;19.670;-4.545
2342083.430;34.608;47.944;26.673;79.088;-6.147;16.205;14.752;-10.096
2342083.438;41.053;50.552;37.104;80.280;6.557;15.311;12.331;-11.139
2342083.446;38.445;47.088;36.620;74.394;7.041;9.984;8.233;-14.603
2342083.454;32.000;40.829;32.224;67.502;5.178;8.196;6.817;-15.534
2342083.462;32.783;41.574;34.869;68.061;9.835;12.405;9.350;-13.709
2342083.470;28.163;37.290;30.473;62.659;7.153;9.872;6.855;-12.033
2342083.478;26.822;35.316;30.547;60.238;8.717;8.717;4.135;-15.125
2342083.486;35.837;42.282;40.829;64.895;18.403;15.683;9.276;-3.204
2342083.494;23.879;30.361;30.026;51.595;7.860;6.035;-1.043;-9.872
2342083.502;26.114;35.390;32.485;56.848;11.586;10.878;3.912;-4.657
2342083.510;37.737;46.156;47.497;65.155;26.859;26.561;22.352;12.368
2342083.518;34.496;44.443;45.635;63.591;23.320;23.358;20.526;5.476
2342083.526;27.642;39.265;38.818;59.642;14.640;18.366;14.827;-2.086
2342083.534;34.049;45.002;49.323;65.789;24.550;21.271;19.409;1.267
2342083.545;37.998;47.795;56.997;67.726;31.218;12.890;7.711;-5.737
2342083.553;40.568;51.223;58.450;72.867;32.671;21.234;14.082;1.714
2342083.561;57.556;67.689;75.661;92.722;41.537;19.930;11.958;-2.086
2342083.569;86.948;95.703;105.277;124.238;59.493;24.289;18.664;-0.373
2342083.577;116.713;128.299;132.062;162.013;77.076;36.061;34.086;8.643
2342083.585;132.062;147.484;145.175;185.780;82.031;33.453;33.081;9.388
2342083.593;143.014;160.187;154.935;202.060;87.880;37.067;37.476;18.030
