Timestamp,AFz,AF3,AF4,AF7,AF8,Pz,P3,P4,2024-05-28 09:26:33.868,fs=125
6473650.249;65.230;22.650;42.953;32.745;26.114;5.402;1.118;4.396
6473650.257;69.924;43.586;40.606;41.723;30.138;14.976;13.560;10.543
6473650.265;55.321;32.708;39.451;38.631;31.441;6.892;1.937;5.811
6473650.273;50.329;29.877;37.663;31.516;18.217;-1.416;-9.201;0.484
6473650.281;53.495;21.011;31.888;25.928;5.476;-1.825;-10.207;1.341
6473650.289;56.699;19.930;37.663;30.957;17.956;6.482;0.149;6.109
6473650.297;49.658;25.108;34.682;30.771;22.724;2.719;-2.794;1.080
6473650.305;46.156;22.948;29.653;22.128;16.317;-6.258;-10.915;-5.625
6473650.313;49.807;24.587;24.475;21.420;11.027;-6.221;-8.792;-5.551
6473650.321;52.229;22.426;32.485;24.512;16.280;-0.373;-3.241;0.149
6473650.329;52.080;14.640;36.620;25.034;21.979;-2.198;-4.247;-0.745
6473650.337;45.449;21.048;29.691;18.217;18.105;-8.419;-11.437;-8.382
6473650.345;44.592;22.352;22.873;20.117;9.052;-7.637;-11.213;-10.394
6473650.353;51.558;16.466;26.971;22.575;12.144;-1.751;-4.768;-6.221
6473650.361;49.993;15.721;28.126;19.111;13.486;-1.602;-6.594;-5.066
6473650.369;48.019;21.197;31.628;20.638;18.515;5.886;-0.335;4.619
6473650.377;47.758;25.630;27.455;24.177;13.039;11.250;2.012;11.586
6473650.385;44.145;13.076;22.203;20.862;9.611;7.190;1.490;4.843
6473650.393;42.990;6.221;19.036;15.162;12.405;4.321;0.969;0.596
6473650.401;46.417;13.113;19.595;20.713;13.784;2.123;0.596;0.671
6473650.409;53.830;28.238;27.791;28.126;14.193;-3.874;-4.806;-3.688
6473650.417;52.713;32.857;32.708;34.310;24.773;-5.104;-6.594;-3.465
6473650.425;51.968;20.154;30.287;32.820;29.132;1.937;-0.075;4.210
6473650.433;49.733;30.473;18.813;31.888;16.540;3.651;4.880;0.261
6473650.441;51.707;32.522;25.705;32.149;13.523;3.390;4.061;-1.714
6473650.449;51.297;23.022;21.681;30.957;9.984;1.565;-1.006;-2.645
6473650.457;47.833;16.838;14.938;30.063;14.678;8.531;2.719;4.768
6473650.465;43.102;18.217;7.935;25.146;14.454;12.517;8.270;8.643
6473650.520;42.282;22.911;11.064;21.905;14.603;2.757;1.453;0.000
6473650.528;51.968;23.060;19.707;21.756;15.013;-11.623;-10.654;-10.915
6473650.536;46.529;15.274;19.073;19.819;13.299;-18.142;-18.254;-13.113
6473650.544;38.370;14.454;8.866;23.879;5.588;-15.013;-15.907;-10.245
6473650.552;37.849;4.098;5.737;15.981;5.923;-13.746;-12.703;-11.660
6473650.560;44.405;12.591;6.296;15.572;21.644;-7.190;-6.109;-7.153
6473650.568;49.062;25.332;14.976;21.867;18.626;1.751;-1.006;-1.937
6473650.576;51.148;22.314;19.632;29.020;20.489;8.903;7.711;1.900
6473650.584;42.282;21.160;8.978;24.028;13.262;0.633;2.570;-6.631
6473650.592;39.600;18.589;3.241;19.409;9.686;-3.614;-0.186;-10.245
6473650.600;38.259;13.560;4.061;21.048;13.001;-0.522;6.780;-7.078
6473650.608;35.912;5.588;-0.782;19.819;12.927;-5.513;-1.118;-7.786
6473650.616;35.688;11.735;-4.247;19.073;8.233;-11.809;-13.299;-10.207
6473650.624;34.645;9.052;-6.221;10.990;6.370;-12.070;-14.268;-11.660
6473650.632;33.490;9.090;-9.015;12.927;2.049;-12.480;-12.591;-14.044
6473650.640;33.826;10.654;-3.576;18.664;8.270;-7.190;-3.204;-9.574
6473650.648;34.720;11.846;1.229;13.597;17.807;-2.086;0.633;-4.619
6473650.656;30.436;-1.788;-5.364;4.545;14.529;-0.633;-2.012;-3.763
6473650.664;27.232;-5.886;-8.456;5.811;11.362;4.247;5.625;-0.782
6473650.672;30.100;6.929;-8.270;15.125;10.058;0.522;5.513;-5.439
6473650.680;31.516;6.706;-9.499;16.280;10.878;-0.894;3.688;-8.568
6473650.688;39.488;9.499;0.298;12.591;17.881;-1.118;0.335;-7.227
6473650.696;37.886;13.262;0.671;12.144;21.607;-5.253;-7.451;-8.047
6473650.704;32.820;7.227;-6.258;11.325;17.509;-8.233;-10.580;-10.692
6473650.700;36.992;4.657;-8.456;12.591;16.391;0.261;0.782;-3.241
6473650.708;31.404;-2.868;-8.978;13.746;17.844;6.743;10.319;0.224
6473650.716;23.879;-0.596;-17.993;2.012;13.113;-4.619;-2.682;-9.798
6473650.724;19.930;4.470;-23.246;0.820;2.570;-13.150;-13.709;-14.752
6473650.732;15.087;-5.327;-26.263;1.676;-0.186;-9.462;-10.170;-8.270
6473650.740;11.623;-8.754;-30.100;-4.768;4.955;-5.551;-6.147;-2.608
6473650.748;24.997;0.894;-22.501;11.772;13.895;1.639;2.086;-0.410
6473650.756;30.957;2.459;-14.566;18.552;24.401;4.098;5.625;-3.763
6473650.764;25.891;-0.335;-13.188;14.193;26.487;2.123;1.714;-3.502
6473650.772;17.807;4.172;-20.117;8.158;18.924;-1.229;0.000;-2.384
6473650.780;19.222;3.539;-23.358;9.611;17.546;-8.680;-7.786;-9.201
6473650.788;19.222;3.688;-26.338;15.870;15.348;-8.419;-7.451;-9.760
6473650.796;24.140;2.608;-21.942;19.260;19.781;0.857;1.229;-0.708
6473650.804;26.375;6.594;-13.560;16.280;24.512;7.041;7.376;4.582
6473650.812;25.257;3.688;-9.090;15.646;31.367;3.427;3.017;1.602
6473650.820;23.581;3.576;-12.070;17.919;28.834;1.714;-0.782;0.559
6473650.828;22.091;5.327;-19.744;21.569;23.842;0.820;-0.261;-0.261
6473650.836;23.730;11.139;-19.372;21.979;19.781;-3.465;0.149;-7.264
6473650.844;27.716;14.305;-13.523;24.997;19.670;2.980;4.582;-3.353
6473650.852;29.095;18.552;-6.407;31.590;25.295;12.331;9.350;3.874
6473650.860;28.014;15.162;-7.823;37.290;27.269;13.374;9.462;4.284
6473650.868;23.954;3.166;-9.686;21.160;26.077;1.490;0.522;-3.837
6473650.876;26.636;16.391;-13.672;29.057;22.314;-2.719;0.410;-6.258
6473650.884;31.553;27.716;-2.980;34.645;26.859;-0.633;3.837;-3.763
6473650.849;36.247;34.496;0.969;40.159;28.834;2.608;3.055;2.272
6473650.857;37.998;33.006;2.719;47.572;28.312;2.868;-0.596;3.986
6473650.865;29.579;32.373;-6.333;43.698;17.211;3.502;1.080;1.080
6473650.873;34.086;27.269;-9.239;41.053;19.297;4.694;3.204;-0.857
6473650.881;33.490;18.142;-5.551;32.857;26.859;2.533;2.235;-2.086
6473650.889;26.375;22.464;-2.086;31.516;16.727;-4.694;-4.694;-7.860
6473650.897;22.687;26.524;-5.513;35.129;9.723;-2.719;-4.023;-5.104
6473650.905;25.183;22.762;-8.196;32.634;21.197;2.570;0.931;-0.037
6473650.913;34.943;25.816;5.998;37.178;30.547;2.123;3.651;-2.980
6473650.921;42.655;49.695;21.085;50.701;29.653;2.906;8.382;-2.682
6473650.929;33.788;45.113;4.880;45.784;21.793;1.676;6.631;-0.782
6473650.937;33.304;28.238;-2.943;39.078;19.446;-0.075;-2.831;0.112
6473650.945;34.049;21.905;2.980;36.359;21.048;-4.545;-9.388;-3.837
6473650.953;30.771;19.521;7.153;40.866;17.844;-1.304;-5.215;-2.608
6473650.961;29.318;32.373;3.129;38.072;18.254;2.943;1.937;0.335
6473650.969;37.551;39.488;7.637;43.511;27.008;4.917;3.725;3.837
6473650.977;41.239;44.145;15.348;46.790;35.428;1.006;-0.671;1.416
6473650.985;35.092;37.402;10.282;43.996;24.624;-0.112;1.676;-1.155
6473650.993;26.189;25.444;4.098;35.614;15.721;-2.123;-3.316;-1.565
6473651.001;24.103;21.793;-1.006;32.894;10.505;-1.676;-2.608;-1.490
6473651.009;33.453;27.418;3.465;36.694;12.107;-1.341;0.000;-3.427
6473651.017;32.634;32.261;6.109;44.033;22.613;2.161;-0.820;-2.868
6473651.025;26.189;23.134;2.608;37.476;19.409;3.129;-4.098;-0.596
6473651.033;22.016;19.893;-4.657;27.306;11.660;-2.235;-7.823;-3.725
6473651.060;19.856;17.993;-10.468;15.274;0.484;-10.543;-10.431;-11.809
6473651.068;18.328;21.309;-4.880;23.991;7.451;-5.551;-3.539;-8.047
6473651.076;17.174;27.083;2.235;28.275;12.182;-3.986;-3.092;-3.800
6473651.084;18.328;15.981;-5.700;27.791;8.717;-1.304;-0.149;-1.118
6473651.092;13.858;13.746;-15.125;21.569;5.998;0.671;2.012;-0.037
6473651.100;22.501;14.342;-0.931;21.122;10.133;3.055;6.743;-0.224
6473651.108;26.971;26.785;9.537;28.796;15.795;5.178;5.327;0.969
6473651.116;33.602;39.600;11.660;34.012;18.999;6.706;5.215;0.447
6473651.124;30.547;27.157;6.072;35.129;19.111;8.605;8.680;1.416
6473651.132;27.195;23.879;5.178;32.485;19.558;5.327;4.992;2.459
6473651.140;20.787;8.568;-0.708;19.334;10.505;-7.562;-6.706;-9.611
6473651.148;19.111;8.084;-7.004;22.985;3.017;-4.433;-2.496;-11.101
6473651.156;21.234;27.008;-6.743;27.455;9.015;-1.118;-1.118;-11.027
6473651.164;25.928;30.324;0.596;22.724;8.307;-0.410;-1.229;-8.903
6473651.172;26.450;12.144;3.427;13.374;8.903;1.974;-0.522;-3.614
6473651.180;24.661;2.943;-1.788;11.139;5.141;4.768;0.186;0.745
6473651.188;22.277;23.916;-5.402;23.954;8.121;4.843;1.229;0.894
6473651.196;24.177;28.238;-2.272;25.481;10.207;6.445;4.843;0.298
6473651.204;21.644;22.501;0.224;26.077;1.229;5.625;4.508;-3.390
6473651.212;18.328;9.909;-7.264;18.701;2.570;3.800;1.155;-5.066
6473651.220;20.787;14.417;-5.215;21.942;7.078;-0.335;-2.980;-8.680
6473651.228;31.106;39.190;3.539;32.075;4.321;-0.559;1.043;-7.153
6473651.236;28.498;28.312;8.605;29.020;10.207;1.080;5.774;-3.502
6473651.244;28.498;21.197;14.938;22.165;20.638;1.378;4.172;-2.049
6473651.240;34.757;27.455;15.795;33.118;18.552;0.782;0.000;-3.316
6473651.248;27.008;27.083;8.717;25.667;8.754;-6.296;-12.293;-6.147
6473651.256;21.607;15.497;7.674;13.895;3.390;-9.388;-10.952;-10.766
6473651.264;22.836;15.758;11.362;18.179;14.119;-7.711;-4.880;-11.362
6473651.272;34.720;31.628;16.876;27.046;16.503;-0.112;1.639;-3.688
6473651.280;25.146;15.348;14.156;18.254;10.803;-1.080;-3.204;-5.253
6473651.288;16.354;11.362;6.184;6.221;8.903;-0.596;-3.800;-8.047
6473651.296;21.905;14.976;5.253;9.537;7.004;-4.545;-7.041;-12.182
6473651.304;16.168;7.227;8.158;7.860;2.496;-8.754;-11.250;-13.076
6473651.312;13.560;7.898;9.201;8.270;6.631;-9.164;-11.101;-12.554
6473651.320;16.727;11.921;13.225;11.437;9.350;-5.215;-6.035;-9.388
6473651.328;22.799;11.660;13.262;10.468;10.878;-5.290;-4.396;-10.841
6473651.336;25.257;7.898;12.554;8.419;12.256;-3.837;-1.714;-8.047
6473651.344;22.352;17.621;14.603;10.654;11.660;-6.072;-7.711;-10.021
6473651.352;21.569;12.815;16.205;13.448;14.529;-4.098;-5.737;-8.158
6473651.360;21.569;11.735;14.156;14.305;11.995;-5.439;-2.347;-8.680
6473651.368;16.876;5.662;9.947;0.522;6.557;-8.494;-6.780;-12.778
6473651.376;14.380;1.602;10.841;2.086;11.623;-5.402;-13.374;-13.560
6473651.384;23.805;10.915;19.073;12.890;19.222;-1.304;-7.674;-10.841
6473651.392;26.412;13.076;22.613;12.070;15.721;-2.682;-4.880;-9.239
6473651.400;15.199;-3.800;11.139;2.533;9.909;-11.064;-12.256;-14.231
6473651.408;12.554;-0.298;9.947;-3.912;9.909;-13.188;-13.188;-17.881
6473651.416;18.366;7.674;15.460;0.931;10.878;-10.394;-6.855;-15.572
6473651.424;19.111;4.023;14.156;-2.049;11.548;-6.333;-4.284;-8.568
6473651.555;18.962;0.261;16.950;-4.582;14.566;-4.098;-5.029;-6.594
6473651.563;16.913;0.522;16.801;-2.272;16.429;-8.829;-6.482;-10.841
6473651.571;15.348;-5.551;16.615;-6.407;15.013;-13.523;-13.858;-14.640
6473651.579;15.534;-2.682;17.956;-11.660;9.537;-10.468;-17.993;-11.250
6473651.587;7.376;-14.119;6.966;-12.964;3.241;-8.158;-22.277;-10.729
6473651.595;11.735;-13.448;15.572;-5.402;13.448;-2.943;-14.715;-6.557
6473651.603;18.515;-1.602;24.401;2.682;22.203;-5.960;-11.884;-11.027
6473651.611;30.547;16.578;23.656;10.766;24.661;-0.894;-0.037;-9.537
6473651.619;24.289;11.660;23.320;-2.198;18.664;-1.565;2.198;-8.158
6473651.627;9.201;-16.205;8.494;-17.956;0.335;-10.878;-10.803;-14.305
6473651.635;16.913;-10.021;14.640;-12.703;9.686;-8.047;-13.746;-14.305
6473651.643;27.604;15.572;22.501;6.706;23.469;-0.708;-7.674;-10.505
6473651.651;25.891;12.070;22.948;8.307;22.985;-2.310;-8.866;-10.878
6473651.659;19.222;-7.413;19.670;-1.229;17.881;-4.321;-7.525;-8.456
6473651.667;11.176;-18.999;10.356;-11.735;6.221;-11.884;-13.523;-13.113
6473651.675;18.850;-0.857;17.174;-5.066;13.113;-5.886;-8.792;-8.978
6473651.683;7.823;-7.413;6.482;-5.364;9.164;-6.147;-11.101;-10.878
6473651.691;8.382;-6.966;4.172;-10.431;2.235;-4.917;-11.995;-12.517
6473651.699;14.752;-5.215;10.692;-12.144;12.852;3.912;-3.912;-4.880
6473651.707;20.489;-2.570;20.340;3.092;24.810;8.047;2.831;5.215
6473651.715;19.744;1.565;20.228;8.009;21.607;1.304;-0.559;0.298
6473651.723;14.976;-1.453;13.486;-4.172;10.543;-9.425;-9.537;-12.852
6473651.731;9.499;-9.090;4.768;-12.927;5.625;-9.127;-9.798;-12.964
6473651.739;-5.364;-30.361;-2.868;-20.675;2.794;-5.141;-7.562;-11.846
6473651.719;-4.582;-24.773;0.224;-10.841;10.952;-0.298;-6.333;-8.456
6473651.727;7.115;-10.058;7.115;7.600;9.723;10.245;6.855;-1.714
6473651.735;17.956;7.339;7.674;21.271;9.276;17.546;18.701;3.092
6473651.743;9.201;3.502;-0.633;11.101;5.588;15.236;10.319;6.631
6473651.751;-3.166;-22.575;-8.382;-8.866;0.335;10.766;1.304;8.680
6473651.759;-0.484;-24.028;6.184;-4.843;9.649;8.978;-0.745;9.947
6473651.767;5.923;-3.651;9.313;7.413;11.548;2.533;-3.129;2.719
6473651.775;9.239;-4.098;7.078;14.082;9.425;-7.562;-9.947;-7.600
6473651.783;16.168;-6.855;14.491;17.062;14.342;-6.668;-6.557;-6.407
6473651.791;21.607;0.112;17.211;19.036;15.311;-8.158;-6.221;-11.660
6473651.799;25.146;0.261;28.424;22.762;20.675;-4.731;-10.394;-9.164
6473651.807;31.851;14.752;35.092;28.163;28.238;7.413;-4.284;3.055
6473651.815;20.191;6.370;18.068;17.919;14.380;12.033;-1.155;8.084
6473651.823;11.176;-6.817;11.846;10.207;-0.559;13.039;-0.037;7.153
6473651.831;12.480;-12.927;11.511;8.866;-3.614;11.362;-1.378;6.557
6473651.839;22.911;-6.557;20.303;22.575;6.370;15.348;7.562;13.039
6473651.847;16.764;-4.321;18.217;21.867;8.568;8.605;4.098;7.078
6473651.855;13.076;3.874;16.391;20.415;5.178;1.416;2.608;-1.900
6473651.863;18.440;5.290;16.801;21.532;-4.359;-7.339;-3.986;-11.362
6473651.871;21.867;-2.049;14.231;19.930;-9.723;-14.231;-13.858;-14.827
6473651.879;22.613;-5.029;21.271;17.360;-2.384;-9.872;-13.560;-7.525
6473651.887;22.948;5.476;27.679;19.334;5.551;-6.482;-13.784;-6.519
6473651.895;32.037;21.160;33.714;32.708;20.526;4.582;-2.198;5.625
6473651.903;28.424;10.207;27.716;27.604;10.952;2.645;-3.912;4.917
6473651.915;24.289;9.052;25.183;22.203;3.539;12.927;6.482;11.101
6473651.923;31.255;18.217;26.673;25.593;5.141;14.938;8.754;15.087
6473651.931;29.057;3.651;30.063;13.411;2.533;5.588;-3.129;5.811
6473651.939;24.699;-0.931;36.210;6.966;6.855;8.047;0.559;6.780
6473651.947;23.693;13.821;27.753;14.268;0.298;13.523;11.288;11.139
6473651.955;17.732;3.688;18.962;8.754;0.857;14.231;12.740;11.027
6473651.963;27.120;4.433;25.854;7.674;4.247;9.388;8.382;4.657
6473651.971;29.132;13.486;30.696;6.817;3.651;5.737;5.886;1.043
6473651.979;32.000;24.475;33.528;23.507;7.115;16.987;16.764;11.735
6473651.987;26.748;15.646;24.065;18.775;3.725;11.437;7.264;4.619
6473651.995;19.334;2.086;21.793;5.849;1.937;5.215;-4.768;0.782
6473652.003;25.928;5.588;28.647;2.682;-1.453;3.502;-7.823;2.347
6473652.011;17.919;11.995;13.746;3.465;-9.947;3.651;-5.066;-0.335
6473652.019;11.548;-0.633;9.723;-1.900;-11.064;10.729;6.817;6.407
6473652.027;25.146;3.539;18.813;3.204;-4.806;17.546;15.050;15.646
6473652.035;21.085;10.468;13.970;6.594;-5.327;15.609;13.486;14.678
6473652.043;6.855;-3.390;-1.565;-4.806;-18.664;5.625;8.494;-0.522
6473652.051;12.107;0.857;1.788;-4.768;-14.678;2.310;5.849;-5.811
6473652.059;10.580;-2.645;12.070;-7.972;-8.307;-1.304;-1.006;-6.557
6473652.067;11.474;-6.594;8.643;-4.806;-6.519;1.900;-1.006;-2.868
6473652.075;15.609;-1.453;0.112;-2.421;-15.274;6.817;2.719;3.353
6473652.083;18.105;10.692;4.210;-0.186;-18.179;12.964;8.680;8.941
6473652.091;21.271;11.772;12.107;0.894;-5.700;14.976;8.158;12.107
6473652.099;16.801;3.017;8.382;-0.037;-4.917;16.801;11.548;12.554
6473652.154;9.201;-4.545;0.745;-2.421;-15.050;14.156;13.411;7.227
6473652.162;-0.484;-12.927;-18.813;-9.313;-31.963;6.147;10.952;-1.565
6473652.170;5.141;-13.448;-12.666;-11.995;-24.363;9.537;14.231;0.149
6473652.178;8.643;-2.645;-2.235;-12.070;-11.474;9.127;11.772;2.161
6473652.186;7.004;-0.708;-2.310;-4.545;-13.821;5.364;4.694;4.172
6473652.194;6.817;-6.296;-1.192;-9.984;-9.835;-1.006;-2.943;4.247
6473652.202;15.236;-1.676;2.310;-12.182;-2.459;-0.522;-2.943;6.445
6473652.210;10.692;-6.482;1.304;-13.337;-8.494;-3.055;-4.917;-0.633
6473652.218;9.164;-8.568;-2.049;-13.672;-8.680;4.582;0.410;3.949
6473652.226;4.247;-7.562;-7.339;-20.936;-12.442;1.341;-3.725;0.931
6473652.234;1.192;-11.101;-9.909;-27.232;-5.774;-3.316;-4.843;-2.794
6473652.242;3.017;-20.601;-9.611;-22.016;-9.313;-4.694;-5.364;-3.465
6473652.250;6.445;-15.162;-6.631;-16.019;-8.792;-3.353;-5.290;-2.384
6473652.258;5.141;-10.021;-11.176;-20.005;-12.070;-6.855;-10.505;-5.513
6473652.266;-2.906;-18.887;-18.775;-23.097;-23.358;-6.631;-10.766;-1.639
6473652.274;-6.370;-15.534;-21.569;-19.968;-19.260;-0.484;-3.390;3.055
6473652.282;-4.359;-19.856;-20.713;-17.770;-18.552;3.465;3.278;3.278
6473652.290;-1.565;-14.715;-19.819;-16.093;-16.950;5.402;4.061;3.576
6473652.298;2.272;-17.025;-18.142;-18.105;-17.732;7.860;2.012;7.376
6473652.306;2.906;-17.025;-18.850;-17.025;-15.199;11.735;5.364;11.250
6473652.314;-2.906;-15.236;-22.724;-16.503;-14.082;8.456;4.359;8.754
6473652.322;2.906;-9.164;-16.913;-13.039;-5.960;11.921;10.170;11.921
6473652.330;-2.533;-13.448;-22.091;-16.391;-11.995;8.084;7.153;4.359
6473652.338;-18.775;-27.977;-39.153;-21.011;-25.667;5.774;3.092;2.272
6473652.319;-16.987;-27.455;-31.553;-20.266;-20.601;4.061;0.112;3.017
6473652.327;-11.474;-26.338;-26.114;-24.475;-13.262;-0.671;-2.235;-1.118
6473652.335;-11.511;-20.899;-28.200;-17.770;-16.764;9.574;7.190;7.823
6473652.343;-7.525;-14.342;-33.937;-11.213;-20.117;20.713;15.572;17.919
6473652.351;-8.456;-22.464;-36.657;-13.523;-16.838;23.134;18.552;21.458
6473652.359;-9.350;-21.458;-38.259;-15.423;-15.236;17.807;15.907;15.907
6473652.367;-12.815;-17.248;-36.955;-20.042;-22.054;15.870;13.970;13.895
6473652.375;-31.069;-37.812;-53.942;-36.582;-31.292;13.635;11.958;9.425
6473652.383;-28.759;-33.081;-51.223;-30.361;-22.687;16.652;17.621;9.201
6473652.391;-14.342;-21.085;-42.878;-23.656;-19.446;16.689;15.832;14.231
6473652.399;-7.451;-17.770;-34.273;-16.727;-12.480;18.477;15.758;20.564
6473652.407;-10.878;-22.464;-37.998;-14.417;-11.772;13.188;11.101;15.013
6473652.415;-6.370;-18.105;-32.224;-12.219;-7.339;14.193;14.268;15.832
6473652.423;-2.235;-3.986;-29.393;-8.531;-4.061;20.973;23.060;20.862
6473652.431;-11.958;-22.724;-36.918;-15.832;-9.760;20.117;19.558;18.030
6473652.439;-15.944;-16.652;-39.414;-18.589;-8.382;21.160;15.274;17.993
6473652.447;-14.193;-16.429;-39.265;-22.724;-2.347;22.426;13.448;20.601
6473652.455;-21.979;-31.702;-47.460;-32.000;-6.407;27.195;20.862;24.214
6473652.463;-29.616;-34.198;-51.297;-34.831;-13.523;30.100;26.338;23.730
6473652.471;-31.702;-33.975;-53.309;-30.808;-16.205;24.103;20.787;19.185
6473652.479;-27.679;-26.710;-49.137;-26.524;-9.276;20.005;17.807;15.944
6473652.487;-19.260;-16.578;-41.649;-16.615;-1.974;21.160;16.540;17.732
6473652.495;-12.927;-16.615;-39.525;-18.030;7.562;25.667;19.483;21.942
6473652.503;-15.460;-16.205;-41.574;-19.744;6.743;26.412;19.483;25.108
6473652.517;-26.301;-18.440;-51.633;-25.854;-0.224;17.136;7.823;19.297
6473652.525;-25.779;-20.564;-47.460;-25.705;-0.559;22.314;12.666;22.836
6473652.533;-31.888;-24.289;-52.117;-25.444;-10.096;21.718;14.529;21.756
6473652.541;-39.078;-39.376;-59.865;-34.310;-13.188;13.448;5.886;12.219
6473652.549;-33.230;-26.897;-54.277;-28.871;-4.210;12.480;7.898;9.164
6473652.557;-35.651;-26.636;-59.828;-26.710;-3.874;13.709;10.766;12.703
6473652.565;-46.715;-32.037;-71.488;-34.980;-9.984;13.895;11.474;15.385
6473652.573;-48.243;-35.204;-66.943;-34.794;-9.760;9.686;6.184;11.325
6473652.581;-38.557;-24.699;-57.593;-24.587;-1.080;17.248;11.958;15.721
6473652.589;-38.929;-21.644;-63.330;-24.363;-1.118;19.893;14.715;16.540
6473652.597;-39.749;-24.177;-57.332;-21.569;2.496;21.495;14.789;20.117
6473652.605;-33.528;-24.363;-51.819;-22.352;7.153;21.979;15.497;24.624
6473652.613;-32.708;-16.652;-48.652;-18.999;10.692;21.532;14.752;29.467
6473652.621;-40.270;-15.236;-52.191;-15.609;8.494;20.228;16.540;25.928
6473652.629;-45.300;-16.019;-59.381;-18.999;4.768;13.113;13.001;16.168
6473652.637;-38.296;-16.242;-53.793;-17.248;7.935;10.207;10.096;13.448
6473652.645;-42.394;-28.536;-62.138;-19.334;4.619;7.749;6.184;11.921
6473652.653;-33.043;-3.576;-53.495;-10.692;9.127;8.866;4.359;12.293
6473652.661;-33.304;-2.682;-47.162;-11.921;4.917;8.456;-0.596;14.044
6473652.669;-32.596;-7.786;-42.729;-3.055;15.274;10.431;-1.788;16.391
6473652.677;-21.234;8.419;-33.751;5.104;21.085;13.150;4.023;16.503
6473652.685;-20.675;20.601;-34.869;9.947;25.332;14.007;10.021;15.013
6473652.693;-21.830;9.052;-31.777;1.304;27.232;16.205;12.591;14.678
6473652.701;-21.346;8.829;-31.963;-0.745;26.226;17.323;11.623;17.136
6473652.664;-25.444;12.890;-36.210;7.674;19.744;19.483;14.789;21.681
6473652.672;-33.304;7.823;-38.892;0.820;13.597;16.689;16.242;18.254
6473652.680;-32.410;5.439;-35.837;3.316;18.403;21.979;28.685;22.016
6473652.688;-24.103;8.717;-30.771;8.345;22.501;24.661;23.171;27.046
6473652.696;-39.674;-6.668;-48.541;-13.933;9.462;14.752;1.863;21.718
6473652.704;-43.884;-10.245;-51.334;-13.672;-0.149;11.511;-1.043;15.609
6473652.712;-26.263;9.686;-35.986;3.986;12.778;13.448;6.892;11.176
6473652.720;-22.128;19.595;-33.863;7.823;16.987;15.087;12.591;11.101
6473652.728;-21.569;18.068;-29.840;8.121;21.085;16.987;13.970;15.721
6473652.736;-24.512;13.299;-36.545;7.302;17.509;13.709;8.345;16.205
6473652.744;-20.564;19.595;-31.851;12.331;16.689;16.056;8.643;24.028
6473652.752;-27.716;7.823;-35.577;3.800;12.666;17.881;11.474;26.673
6473652.760;-44.778;-12.740;-49.397;-9.164;-0.075;14.529;8.382;23.581
6473652.768;-30.808;12.107;-36.471;-0.224;13.337;11.884;0.037;18.291
6473652.776;-16.391;20.936;-28.163;10.729;26.003;18.813;7.488;20.266
6473652.784;-22.836;10.915;-33.490;9.239;17.695;20.452;12.442;19.409
6473652.792;-34.422;3.651;-35.502;4.657;8.307;19.372;13.337;16.280
6473652.800;-32.671;10.096;-29.467;9.649;15.087;18.701;14.976;19.446
6473652.808;-17.881;24.848;-29.281;9.239;22.128;16.019;13.709;20.601
6473652.816;-22.314;21.048;-36.210;6.184;11.623;9.611;5.066;16.764
6473652.824;-26.338;13.858;-38.370;5.327;9.723;14.640;13.337;20.564
6473652.832;-30.734;6.333;-37.514;4.470;5.327;12.927;13.933;17.658
6473652.840;-31.106;10.170;-39.674;5.513;6.817;11.660;9.798;16.168
6473652.848;-32.336;15.087;-47.944;0.484;7.115;15.162;9.499;19.893
6473652.858;-31.404;9.090;-45.151;3.278;4.470;19.222;13.150;24.065
6473652.866;-28.238;10.431;-35.912;8.307;4.992;17.919;13.933;20.601
6473652.874;-19.260;27.344;-28.722;22.054;15.944;20.564;21.867;22.054
6473652.882;-23.395;18.552;-35.167;12.703;16.391;17.472;20.936;20.489
6473652.890;-27.083;13.635;-37.104;5.625;17.472;17.360;18.068;20.191
6473652.898;-15.274;28.610;-29.877;17.472;18.664;20.862;18.850;21.383
6473652.906;-10.505;32.261;-29.765;18.030;16.913;22.016;21.644;19.409
6473652.914;-14.789;24.475;-30.696;13.486;14.938;16.876;15.758;16.429
6473652.922;-16.540;28.163;-28.089;15.795;24.028;12.740;9.574;14.454
6473652.930;-16.429;30.734;-25.406;18.217;28.238;11.213;8.903;15.125
6473652.938;-13.597;44.741;-24.661;30.398;32.075;8.680;7.562;14.268
6473652.946;-1.192;57.928;-17.099;41.611;55.507;7.488;5.662;15.087
6473652.954;31.702;101.291;20.787;70.110;101.328;3.688;2.682;12.293
6473652.962;94.958;175.387;99.689;119.470;184.625;11.176;10.170;17.136
6473652.970;188.909;278.242;194.795;186.451;295.602;20.713;20.601;26.599
6473652.978;282.526;382.811;296.496;251.792;404.529;24.773;27.381;32.298
6473652.986;355.318;466.332;376.776;301.339;509.694;31.292;34.869;36.582
6473652.994;401.624;542.738;431.649;333.898;582.598;37.588;36.955;43.549
6473653.002;415.668;557.527;453.927;340.603;607.446;41.611;40.159;45.672
6473653.010;407.062;542.738;446.178;337.847;603.572;41.164;40.121;44.368
6473653.018;387.914;523.478;424.311;331.476;568.628;44.964;43.735;48.243
6473653.026;358.038;485.964;389.814;306.852;517.927;47.274;44.107;50.440
6473653.034;325.739;443.496;351.518;286.885;461.228;35.726;29.244;39.972
6473653.042;298.321;405.908;315.197;274.293;412.948;30.138;27.381;33.677
6473652.997;264.235;367.984;274.107;249.967;358.671;28.796;33.267;31.739
6473653.005;241.250;334.308;245.608;227.578;321.977;32.112;37.737;33.975
6473653.013;214.986;297.837;213.273;197.329;287.481;28.163;31.069;31.590
6473653.021;186.227;257.641;187.233;176.877;258.274;30.920;30.473;35.688
6473653.029;155.233;233.091;152.476;158.958;225.492;24.922;23.320;29.728
6473653.037;140.555;214.651;132.471;146.404;198.483;21.756;21.458;23.097
6473653.045;134.073;203.215;130.124;138.134;187.866;23.283;20.303;24.550
6473653.053;115.037;182.912;107.698;127.703;162.385;24.624;23.283;24.289
6473653.061;89.519;151.768;81.919;111.647;136.532;18.142;21.793;17.732
6473653.069;87.284;154.003;68.024;104.830;130.944;16.242;24.438;16.131
6473653.077;73.835;129.603;57.444;90.599;111.163;12.033;18.552;12.442
6473653.085;62.697;112.392;45.858;88.438;92.126;18.068;16.764;19.148
6473653.093;51.148;104.308;29.020;75.959;81.919;25.332;18.738;24.736
6473653.101;48.801;111.684;22.464;80.839;78.157;32.969;27.679;29.951
6473653.109;38.333;91.717;12.368;73.053;69.812;30.920;30.175;26.189
6473653.117;27.418;67.092;1.602;57.854;48.317;24.810;33.118;19.372
6473653.125;26.897;68.210;2.682;58.971;47.386;23.618;35.278;20.079
6473653.133;21.271;75.437;-7.488;58.487;41.574;20.303;29.579;18.850
6473653.141;22.799;80.243;-9.052;60.610;35.837;25.220;32.634;26.189
6473653.149;6.743;50.701;-26.338;41.910;23.879;21.569;25.593;23.022
6473653.157;-10.282;27.828;-39.041;33.118;13.933;21.234;21.905;19.483
6473653.165;-12.629;22.687;-39.637;24.922;14.193;27.269;27.157;23.879
6473653.173;-15.758;15.683;-45.039;20.042;8.307;27.269;30.696;25.108
6473653.181;-13.784;29.467;-41.723;29.244;8.568;34.198;37.812;32.894
6473653.205;-15.162;24.252;-44.480;24.997;5.737;34.124;39.153;32.671
6473653.213;-14.044;27.008;-39.227;31.739;4.806;33.304;40.866;30.659
6473653.221;-19.930;18.664;-50.701;18.366;-5.960;27.008;28.536;26.710
6473653.229;-25.220;2.235;-52.676;10.319;-3.763;29.020;28.722;28.312
6473653.237;-35.763;-6.743;-60.126;2.943;-12.107;21.681;27.306;22.389
6473653.245;-37.812;-13.039;-69.030;-4.172;-22.538;16.056;24.922;15.385
6473653.253;-39.563;-10.133;-71.898;3.800;-28.126;17.844;26.487;16.987
6473653.261;-44.331;-8.121;-78.939;1.937;-32.336;21.756;28.238;21.383
6473653.269;-52.266;-17.993;-82.217;-11.325;-31.926;17.546;23.022;19.930
6473653.277;-51.968;-23.618;-83.223;-13.337;-28.834;11.660;14.342;14.976
6473653.285;-44.405;-19.372;-74.953;-4.247;-26.152;14.715;19.111;17.211
6473653.293;-35.763;-9.760;-62.697;6.221;-20.228;22.352;31.218;22.016
6473653.301;-22.873;6.929;-50.850;16.578;-8.233;31.516;42.841;28.573
6473653.309;-23.432;14.044;-55.246;21.160;-7.860;35.688;46.715;33.155
6473653.317;-28.349;-1.602;-60.424;13.486;-10.133;31.330;37.290;31.032
6473653.325;-30.771;-2.496;-61.579;12.331;-11.437;27.381;30.883;28.014
6473653.333;-29.765;-0.857;-55.991;14.007;-15.013;26.226;31.032;26.710
6473653.341;-21.271;5.849;-45.151;22.054;-4.843;33.043;41.239;31.553
6473653.349;-24.848;-4.172;-50.142;21.011;-3.465;39.786;51.893;38.110
6473653.357;-24.810;1.043;-47.423;21.756;-1.751;36.918;50.627;37.029
6473653.365;-16.615;18.403;-42.096;27.679;1.602;35.278;48.950;36.731
6473653.373;-15.795;17.472;-39.786;30.957;1.825;38.296;48.876;38.743
6473653.381;-20.526;11.809;-45.858;30.287;-4.135;35.390;45.151;37.849
6473653.389;-24.997;-2.123;-42.170;26.301;-3.763;33.155;42.990;35.465
6473653.460;-12.219;11.213;-33.602;29.691;6.333;39.339;51.409;39.749
6473653.468;-6.035;21.122;-29.579;34.459;3.465;39.674;48.205;42.170
6473653.476;-13.188;11.027;-33.006;30.696;-0.335;37.178;41.835;41.202
6473653.484;-17.732;1.751;-34.943;23.358;0.373;32.224;38.221;37.327
6473653.492;-11.548;15.609;-23.954;35.241;8.158;37.029;46.529;40.568
6473653.500;-5.849;19.334;-19.968;40.829;9.909;38.631;47.088;40.717
6473653.508;-5.960;27.716;-27.791;38.221;2.757;34.906;40.755;37.178
6473653.516;-8.531;19.856;-27.418;34.496;1.490;30.808;37.663;33.863
6473653.524;-9.499;4.061;-26.524;29.840;3.800;26.897;35.465;31.441
6473653.532;-4.768;21.271;-19.260;43.549;6.706;31.441;42.766;37.067
6473653.540;-7.153;23.283;-21.942;43.064;-2.980;30.436;43.027;34.124
6473653.548;-10.282;28.573;-23.693;41.500;0.931;31.665;39.265;32.559
6473653.556;-1.900;23.134;-14.789;41.015;0.149;33.416;41.015;33.863
6473653.564;4.321;19.185;-9.686;46.380;3.427;43.027;48.839;46.603
6473653.572;-7.264;20.675;-19.260;37.216;1.416;45.300;55.209;48.913
6473653.580;-16.280;16.317;-26.524;34.422;-9.239;42.692;60.424;41.351
6473653.588;-16.764;14.119;-31.888;33.528;-15.721;35.502;50.738;37.178
6473653.596;-15.721;9.686;-32.708;28.238;-8.754;31.665;41.649;33.192
6473653.604;-19.483;4.955;-30.659;25.928;-12.107;27.120;37.663;26.822
6473653.612;-18.030;9.909;-29.206;26.114;-18.068;32.298;46.417;33.192
6473653.620;-12.144;13.858;-22.650;30.510;-16.987;38.706;53.234;40.270
6473653.628;-21.122;-0.484;-33.639;25.220;-20.005;28.163;38.482;30.920
6473653.636;-24.699;-2.831;-33.341;24.475;-14.566;24.475;36.098;27.046
6473653.644;-25.183;-2.645;-35.837;20.377;-14.566;24.140;36.918;26.077
6473653.699;-22.501;5.737;-35.539;22.240;-21.011;22.128;35.204;23.991
6473653.707;-13.262;16.503;-27.753;33.155;-12.033;27.604;41.313;28.126
6473653.715;-13.039;16.391;-24.475;37.625;-11.884;30.473;41.462;32.671
6473653.723;-23.209;0.745;-36.769;27.157;-25.705;22.016;32.522;24.624
6473653.731;-32.857;-8.531;-45.933;16.987;-33.081;8.233;20.564;13.597
6473653.739;-29.989;1.378;-43.139;21.309;-27.902;6.855;19.819;12.331
6473653.747;-18.924;5.886;-26.263;32.261;-15.125;20.415;32.671;23.693
6473653.755;-23.134;8.568;-30.287;31.851;-20.266;23.842;37.365;25.928
6473653.763;-32.000;6.482;-45.151;25.481;-29.802;20.936;36.955;18.254
6473653.771;-37.923;-12.740;-53.607;10.580;-35.949;16.838;31.851;12.256
6473653.779;-40.457;-12.815;-48.205;12.070;-40.457;14.938;28.461;13.933
6473653.787;-42.617;-14.715;-53.197;14.715;-42.059;11.735;22.948;14.342
6473653.795;-39.376;-17.956;-47.721;12.517;-36.210;10.394;18.775;14.231
6473653.803;-37.067;-3.539;-45.002;11.325;-32.894;13.113;22.464;14.342
6473653.811;-38.110;-2.980;-46.864;16.280;-38.706;12.554;26.524;11.586
6473653.819;-32.857;-7.078;-43.251;19.781;-28.014;14.752;32.559;11.548
6473653.827;-28.722;-0.149;-39.823;19.185;-20.601;14.901;27.604;12.442
6473653.835;-32.187;-0.969;-41.947;12.331;-24.959;11.474;19.558;12.070
6473653.843;-38.669;-10.617;-50.031;8.717;-39.637;11.958;19.968;13.970
6473653.851;-36.992;-10.692;-48.243;11.623;-41.649;15.609;27.306;15.758
6473653.859;-31.628;-4.284;-41.798;12.629;-25.891;20.489;32.745;20.638
6473653.867;-38.520;-13.933;-47.609;6.147;-30.436;20.005;29.951;20.042
6473653.875;-46.752;-12.591;-58.040;5.290;-40.643;19.073;27.716;18.217
6473653.883;-44.256;-13.001;-55.321;6.519;-38.818;15.199;23.842;16.615
6473653.849;-32.298;-4.470;-38.780;11.325;-23.842;10.170;17.658;12.890
6473653.857;-32.857;-3.986;-37.774;8.680;-14.566;11.921;21.011;13.188
6473653.865;-32.261;0.484;-44.964;13.411;-23.693;12.740;25.630;12.927
6473653.873;-25.518;9.462;-42.841;22.016;-24.512;16.280;26.673;17.285
6473653.881;-27.232;7.264;-41.611;24.140;-20.750;21.197;29.057;21.905
6473653.889;-36.657;-3.576;-45.635;14.715;-24.959;15.646;27.195;15.050
6473653.897;-31.628;4.172;-40.792;18.440;-25.555;17.770;31.814;15.646
6473653.905;-30.398;-1.602;-40.270;11.399;-19.185;15.609;27.195;13.262
6473653.913;-27.753;3.688;-34.422;11.474;-10.580;17.695;26.152;13.113
6473653.921;-27.642;5.551;-35.726;21.458;-8.568;19.856;29.393;14.566
6473653.929;-41.015;-17.285;-50.627;3.874;-30.920;8.605;19.856;6.296
6473653.937;-43.288;-17.136;-55.246;-7.041;-33.118;5.551;15.236;6.817
6473653.945;-44.592;-4.731;-57.220;-2.161;-25.481;9.798;18.328;10.878
6473653.953;-33.937;-0.112;-44.927;10.766;-20.638;14.566;24.773;12.629
6473653.961;-31.553;0.782;-40.717;15.236;-16.652;17.360;27.679;12.666
6473653.969;-43.586;-8.941;-49.993;2.272;-28.536;11.101;20.936;7.562
6473653.977;-50.440;-17.174;-61.430;-7.190;-37.737;7.078;16.168;9.649
6473653.985;-56.885;-26.636;-67.167;-11.660;-36.284;-1.788;7.488;5.588
6473653.993;-51.036;-15.199;-58.934;1.043;-26.077;-1.192;11.064;4.098
6473654.001;-44.741;-8.307;-56.699;6.035;-29.393;4.843;18.477;5.513
6473654.009;-45.747;-14.454;-58.934;-0.522;-31.292;7.898;20.154;5.737
6473654.017;-42.394;-3.539;-57.705;5.215;-31.255;10.617;22.501;6.631
6473654.025;-38.743;-1.453;-53.421;7.898;-27.306;11.437;21.979;11.697
6473654.033;-50.068;-7.115;-62.883;-0.708;-28.014;6.668;16.689;11.027
6473654.032;-62.995;-32.559;-70.296;-12.852;-38.482;-0.224;11.995;1.192
6473654.040;-55.023;-27.232;-67.130;-9.798;-34.757;4.098;16.056;4.359
6473654.048;-54.389;-23.618;-69.924;-13.113;-37.737;-0.894;7.078;-0.075
6473654.056;-54.277;-25.742;-69.439;-14.640;-36.731;-6.109;-0.075;-5.849
6473654.064;-55.246;-23.618;-68.508;-10.617;-35.912;-2.086;5.700;-2.198
6473654.072;-57.481;-25.108;-68.471;-7.413;-40.978;-1.937;8.717;0.000
6473654.080;-58.673;-27.306;-68.024;-12.591;-32.149;-6.780;5.215;-5.625
6473654.088;-50.813;-12.182;-60.126;-9.760;-17.807;-0.782;11.250;-0.373
6473654.096;-54.091;-21.607;-64.932;-14.082;-26.263;-4.806;4.396;-2.235
6473654.104;-64.597;-35.986;-76.182;-22.277;-35.129;-15.087;-7.860;-11.064
6473654.112;-62.548;-33.863;-73.798;-18.999;-34.906;-10.133;-3.688;-8.158
6473654.120;-55.432;-24.214;-67.614;-11.995;-32.298;0.596;10.803;-0.931
6473654.128;-55.656;-26.226;-69.588;-14.342;-32.559;1.974;14.007;1.751
6473654.136;-58.711;-26.748;-72.457;-17.211;-31.814;-8.680;-1.565;-6.035
6473654.144;-63.181;-28.834;-71.414;-18.254;-32.634;-6.557;0.969;-5.476
6473654.152;-67.055;-39.414;-74.506;-20.638;-34.198;-2.012;7.376;-1.788
6473654.160;-65.714;-28.089;-78.827;-18.962;-36.880;-5.104;7.004;-6.706
6473654.168;-62.026;-31.702;-76.368;-22.091;-32.894;-10.841;2.384;-12.219
6473654.176;-60.797;-33.006;-77.747;-21.458;-34.161;-7.749;2.906;-9.611
6473654.184;-66.087;-37.476;-79.386;-23.469;-39.414;-7.972;0.224;-7.488
6473654.192;-67.018;-36.955;-82.664;-19.968;-46.045;-11.325;-0.820;-8.382
6473654.200;-60.573;-25.034;-74.655;-13.225;-37.104;-11.697;3.986;-10.766
6473654.208;-63.218;-28.312;-70.781;-15.125;-28.126;-12.144;3.092;-10.915
6473654.216;-66.496;-30.994;-74.878;-15.870;-30.883;-10.505;0.671;-9.164
6473654.194;-64.932;-27.418;-78.194;-10.543;-31.181;-10.580;2.831;-9.388
6473654.202;-66.124;-34.235;-72.196;-15.385;-29.989;-10.766;3.129;-9.872
6473654.210;-65.602;-42.096;-69.998;-17.509;-31.479;-7.749;0.373;-5.998
6473654.218;-60.946;-23.469;-63.665;-8.605;-24.214;-0.447;5.327;4.955
6473654.226;-61.430;-15.460;-60.908;-7.711;-22.650;-5.327;3.278;1.527
6473654.234;-59.120;-21.420;-61.244;-8.829;-24.848;-12.890;-1.602;-8.978
6473654.242;-61.616;-32.522;-65.863;-12.890;-27.828;-16.391;-5.253;-13.188
6473654.250;-67.055;-33.677;-67.241;-14.007;-28.722;-18.626;-6.221;-11.995
6473654.258;-65.193;-34.645;-62.995;-11.884;-27.753;-19.185;-6.333;-11.362
6473654.266;-57.481;-22.613;-60.312;-3.390;-28.983;-14.864;-2.384;-9.909
6473654.274;-51.484;-17.770;-51.148;-1.080;-18.291;-8.680;-0.224;-4.172
6473654.282;-55.470;-13.597;-48.280;-3.502;-15.646;-11.399;-2.459;-5.811
6473654.290;-56.550;-15.646;-52.080;-4.955;-20.117;-15.721;-4.284;-11.176
6473654.298;-52.974;-16.540;-46.007;1.974;-14.566;-6.594;5.104;-2.831
6473654.306;-55.134;-23.358;-49.882;2.421;-14.454;0.298;10.207;3.986
6473654.314;-57.109;-14.640;-51.595;-0.745;-23.395;-6.557;1.378;-2.459
6473654.322;-54.464;-18.775;-46.529;2.608;-20.601;-16.205;-6.184;-7.823
6473654.330;-51.893;-10.356;-42.729;2.049;-18.664;-11.325;-1.974;-5.029
6473654.338;-52.601;-11.548;-40.792;-2.421;-18.179;-6.035;1.565;-0.186
6473654.346;-56.662;-22.501;-43.772;-4.992;-21.420;-1.714;2.496;2.831
6473654.354;-49.211;-14.976;-42.133;3.129;-22.575;5.476;10.505;4.470
6473654.362;-44.256;3.614;-36.992;8.568;-18.589;3.316;5.923;3.837
6473654.370;-44.778;-3.092;-30.585;7.637;-14.082;4.917;5.737;6.221
6473654.378;-50.701;-17.025;-36.135;-0.559;-16.950;-2.012;1.863;-0.820
6473654.434;-56.438;-19.632;-44.480;1.118;-23.730;-11.548;0.149;-10.692
6473654.442;-56.550;-18.775;-48.280;-8.084;-32.857;-14.678;-2.980;-10.505
6473654.450;-65.118;-25.854;-49.509;-17.285;-32.783;-13.262;-4.694;-8.941
6473654.458;-64.112;-26.077;-49.248;-8.866;-29.728;-8.307;-5.253;-3.725
6473654.466;-61.244;-21.309;-52.638;-7.935;-31.888;-28.685;-19.521;-25.406
6473654.474;-63.591;-18.664;-51.111;-9.201;-32.149;-27.381;-19.595;-22.985
6473654.482;-65.081;-32.112;-48.578;-13.150;-34.571;-22.836;-15.013;-18.775
6473654.490;-65.602;-24.699;-52.713;-11.846;-39.488;-22.836;-15.050;-17.658
6473654.498;-68.210;-32.187;-54.874;-10.394;-42.655;-23.581;-16.540;-17.695
6473654.506;-68.434;-27.455;-56.699;-10.431;-41.910;-23.916;-19.036;-16.242
6473654.514;-71.079;-31.330;-54.687;-12.480;-34.012;-20.526;-15.832;-14.156
6473654.522;-66.496;-37.290;-51.931;-13.635;-32.410;-15.050;-7.227;-15.274
6473654.530;-62.995;-28.610;-53.495;-14.305;-37.290;-16.578;-9.388;-18.142
6473654.538;-70.296;-27.008;-58.450;-26.561;-47.237;-25.854;-17.323;-22.575
6473654.546;-76.592;-35.204;-62.920;-27.679;-48.876;-30.659;-23.171;-22.128
6473654.554;-78.641;-45.113;-65.900;-24.810;-50.180;-34.757;-28.238;-25.369
6473654.562;-82.292;-50.180;-71.712;-30.659;-49.844;-34.310;-27.567;-27.530
6473654.570;-73.947;-39.451;-63.106;-23.507;-41.239;-26.077;-21.830;-17.695
6473654.578;-67.614;-30.212;-52.638;-15.348;-39.116;-18.626;-16.131;-8.717
6473654.586;-60.089;-21.458;-49.397;-8.345;-34.533;-8.158;-5.364;-1.639
6473654.594;-68.769;-31.218;-61.095;-17.434;-38.594;-12.070;-8.121;-9.052
6473654.602;-77.188;-42.357;-67.800;-25.369;-51.148;-20.415;-12.591;-18.701
6473654.610;-71.377;-44.666;-58.934;-23.656;-44.405;-18.068;-6.929;-18.105
6473654.618;-74.171;-47.795;-61.952;-26.971;-42.543;-16.689;-3.502;-17.844
6473654.631;-77.859;-48.541;-66.385;-36.471;-49.546;-25.854;-19.670;-20.154
6473654.639;-74.059;-47.982;-63.106;-30.175;-41.276;-24.512;-21.160;-19.036
6473654.647;-59.605;-29.579;-49.695;-16.876;-25.034;-10.617;-6.780;-6.370
6473654.655;-60.610;-35.949;-49.286;-21.644;-32.336;-10.170;-1.118;-12.219
6473654.663;-70.781;-45.411;-62.175;-26.822;-46.045;-18.142;-7.562;-20.936
6473654.671;-81.360;-50.329;-72.755;-35.390;-50.105;-27.567;-23.097;-26.040
6473654.679;-77.896;-46.417;-68.098;-31.963;-44.107;-36.210;-35.428;-29.914
6473654.687;-65.416;-39.823;-57.705;-22.501;-39.302;-33.192;-34.422;-25.816
6473654.695;-65.267;-39.004;-58.040;-27.567;-39.414;-28.908;-29.095;-22.128
6473654.703;-70.073;-44.145;-56.475;-28.573;-38.110;-24.289;-21.681;-18.738
6473654.711;-57.593;-30.845;-45.374;-18.217;-23.991;-10.617;-4.321;-7.339
6473654.719;-50.999;-22.836;-40.904;-12.666;-23.730;-10.729;-4.955;-9.499
6473654.727;-66.720;-33.602;-57.966;-28.498;-28.722;-21.979;-22.724;-18.440
6473654.735;-59.158;-39.004;-46.529;-23.022;-26.189;-23.469;-24.103;-18.477
6473654.743;-54.426;-30.063;-43.064;-14.603;-20.787;-20.936;-18.850;-17.360
6473654.751;-54.576;-39.898;-44.219;-16.727;-22.687;-13.374;-8.084;-11.139
6473654.759;-53.942;-35.688;-43.325;-20.266;-33.081;-11.548;-6.296;-8.829
6473654.767;-51.819;-27.120;-43.362;-17.770;-19.297;-14.044;-7.525;-7.190
6473654.775;-53.123;-27.530;-41.462;-17.323;-13.337;-24.699;-19.930;-14.901
6473654.783;-45.523;-23.209;-35.688;-14.938;-15.572;-29.467;-27.865;-21.607
6473654.791;-53.272;-35.949;-48.541;-22.277;-26.301;-29.169;-27.753;-23.842
6473654.799;-62.883;-44.145;-55.358;-28.089;-36.769;-25.220;-18.962;-25.705
6473654.807;-58.264;-36.471;-47.013;-21.979;-26.412;-17.732;-11.884;-20.266
6473654.815;-56.960;-41.164;-46.380;-20.936;-25.891;-16.503;-14.603;-14.491
6473654.840;-56.848;-36.508;-43.027;-26.636;-18.589;-22.762;-22.799;-16.280
6473654.848;-50.738;-28.871;-38.296;-21.569;-14.417;-27.083;-26.189;-20.005
6473654.856;-50.403;-35.167;-41.947;-21.979;-26.785;-23.581;-21.346;-17.621
6473654.864;-50.701;-33.006;-43.549;-22.575;-21.569;-21.793;-23.246;-15.087
6473654.872;-54.687;-33.751;-43.400;-27.195;-15.087;-24.103;-25.406;-15.944
6473654.880;-66.757;-51.744;-53.756;-35.428;-25.630;-28.946;-28.163;-18.664
6473654.888;-65.379;-51.185;-51.595;-27.083;-28.610;-23.693;-18.366;-15.013
6473654.896;-59.418;-34.533;-51.446;-20.042;-29.281;-19.372;-11.027;-11.027
6473654.904;-61.467;-37.402;-53.346;-23.395;-26.934;-21.197;-13.895;-12.293
6473654.912;-61.095;-38.892;-43.474;-27.940;-15.497;-22.240;-15.087;-14.901
6473654.920;-59.195;-39.078;-40.196;-24.065;-19.819;-23.060;-19.781;-17.770
6473654.928;-63.404;-45.709;-45.300;-22.650;-28.424;-25.257;-26.114;-16.540
6473654.936;-65.863;-41.798;-48.131;-25.071;-26.971;-29.765;-27.381;-20.266
6473654.944;-58.152;-44.890;-40.680;-24.401;-19.446;-23.469;-18.142;-16.280
6473654.952;-57.630;-37.327;-38.818;-21.458;-22.613;-24.922;-20.973;-15.013
6473654.960;-56.513;-31.553;-41.686;-17.844;-21.830;-24.699;-21.383;-10.878
6473654.968;-59.977;-40.233;-43.325;-21.495;-24.959;-18.738;-17.472;-4.992
6473654.976;-65.044;-40.680;-42.990;-28.647;-30.324;-22.464;-21.309;-9.052
6473654.984;-66.720;-43.698;-43.884;-34.235;-31.479;-25.257;-24.475;-13.299
6473654.992;-64.112;-42.170;-38.557;-34.347;-25.518;-24.475;-24.475;-15.758
6473655.000;-68.620;-52.601;-42.729;-32.410;-25.444;-25.108;-20.564;-15.274
6473655.008;-58.562;-42.878;-35.055;-18.328;-20.452;-20.750;-13.262;-11.213
6473655.016;-49.323;-21.681;-26.524;-14.193;-14.156;-14.342;-14.454;-2.608
6473655.024;-60.014;-36.471;-37.849;-27.679;-25.183;-17.434;-23.022;-5.402
6473654.991;-75.251;-49.882;-47.386;-34.645;-38.035;-23.954;-26.412;-14.491
6473654.999;-62.846;-37.923;-32.596;-22.091;-27.306;-24.065;-19.297;-14.789
6473655.007;-49.099;-25.742;-22.054;-11.697;-15.832;-19.595;-10.096;-8.158
6473655.015;-57.891;-33.714;-31.143;-22.873;-24.773;-24.959;-18.179;-11.809
6473655.023;-63.814;-33.081;-34.422;-21.756;-27.418;-27.865;-25.369;-14.715
6473655.031;-60.834;-35.688;-39.004;-21.048;-29.057;-32.894;-29.393;-19.446
6473655.039;-52.527;-28.908;-32.298;-13.895;-30.287;-27.716;-23.395;-13.895
6473655.047;-44.629;-19.819;-16.987;-8.792;-18.738;-22.091;-17.136;-7.711
6473655.055;-54.501;-26.003;-27.306;-19.670;-28.685;-10.692;-7.041;-6.370
6473655.063;-49.062;-20.228;-22.091;-11.548;-22.464;-13.486;-12.070;-6.557
6473655.071;-47.199;-25.965;-20.303;-12.293;-25.593;-16.727;-14.603;-8.941
6473655.079;-60.089;-46.976;-31.628;-27.046;-36.992;-25.108;-24.140;-16.727
6473655.087;-54.315;-37.774;-23.805;-22.538;-28.051;-22.501;-23.469;-13.262
6473655.095;-42.506;-9.052;-13.858;-10.319;-14.789;-16.689;-16.987;-8.382
6473655.103;-33.230;-3.241;-2.682;-2.831;-6.519;-6.929;-5.886;-0.596
6473655.111;-40.084;-16.689;-7.302;-8.009;-20.750;-7.823;-4.768;-4.917
6473655.119;-43.064;-26.636;-14.305;-12.852;-24.363;-10.133;-7.562;-7.711
6473655.127;-45.113;-36.880;-13.821;-16.056;-20.415;-11.697;-10.356;-8.531
6473655.135;-38.706;-19.111;-10.990;-7.525;-18.999;-13.001;-14.082;-8.121
6473655.143;-36.657;-12.703;-14.976;-2.496;-21.197;-10.654;-11.735;-7.227
6473655.151;-45.002;-16.838;-17.397;-8.270;-25.295;-15.646;-16.168;-14.119
6473655.159;-40.196;-17.099;-15.385;-8.866;-25.593;-17.397;-16.093;-15.348
6473655.167;-36.657;-19.260;-7.041;-5.551;-20.675;-18.626;-16.429;-12.629
6473655.175;-37.700;-24.028;-2.086;-4.545;-17.621;-22.128;-18.030;-15.385
6473655.216;-38.072;-22.575;-6.743;-6.258;-15.944;-23.358;-19.595;-16.391
6473655.224;-42.394;-18.366;-16.019;-10.952;-23.693;-27.157;-23.134;-18.254
6473655.232;-46.380;-18.626;-17.136;-15.087;-27.493;-30.361;-27.493;-25.034
6473655.240;-49.137;-27.455;-18.664;-17.807;-31.255;-28.387;-23.171;-27.902
6473655.248;-39.227;-16.652;-14.268;-6.855;-27.642;-21.383;-14.752;-20.675
6473655.256;-41.388;-22.985;-17.546;-6.519;-26.897;-20.489;-15.981;-15.199
6473655.264;-44.554;-28.014;-17.472;-15.274;-21.271;-19.111;-18.664;-15.534
6473655.272;-42.580;-27.828;-11.697;-15.758;-18.366;-14.044;-16.056;-12.852
6473655.280;-40.308;-25.108;-11.399;-13.076;-17.062;-20.005;-22.464;-18.813
6473655.288;-42.357;-23.544;-12.852;-13.784;-20.564;-22.873;-25.965;-17.658
6473655.296;-49.286;-37.104;-20.973;-23.954;-31.032;-29.504;-32.708;-22.203
6473655.304;-48.317;-42.133;-16.540;-26.636;-27.828;-22.613;-18.589;-17.807
6473655.312;-44.629;-28.722;-14.491;-21.867;-24.885;-21.793;-17.658;-20.340
6473655.320;-40.717;-31.665;-15.236;-21.048;-24.289;-17.546;-14.901;-18.254
6473655.328;-40.829;-28.796;-14.901;-18.552;-19.670;-8.494;-7.413;-9.835
6473655.336;-38.482;-24.810;-13.411;-16.466;-18.440;-4.768;-6.221;-9.611
6473655.344;-39.861;-29.430;-14.268;-22.575;-15.348;-8.084;-11.474;-11.921
6473655.352;-50.962;-44.554;-22.650;-30.361;-29.355;-16.168;-24.028;-14.864
6473655.360;-60.797;-56.438;-35.912;-44.703;-44.741;-22.389;-30.883;-16.876
6473655.368;-50.999;-41.723;-23.060;-34.831;-27.232;-12.629;-16.913;-9.127
6473655.376;-30.436;-16.689;-6.966;-14.529;-8.270;5.141;5.551;5.476
6473655.384;-39.786;-34.422;-18.030;-23.879;-21.346;-0.894;-0.745;-1.043
6473655.392;-54.725;-43.623;-29.579;-38.035;-35.055;-16.950;-17.956;-17.509
6473655.400;-59.567;-53.756;-33.341;-46.864;-38.184;-25.220;-24.699;-23.730
6473655.379;-58.785;-57.109;-33.081;-44.703;-36.247;-15.907;-16.056;-15.497
6473655.387;-57.891;-48.652;-31.516;-40.829;-25.332;-16.652;-16.615;-18.515
6473655.395;-59.754;-49.174;-28.946;-40.010;-25.742;-17.658;-18.142;-20.005
6473655.403;-60.350;-52.154;-33.751;-45.374;-36.024;-17.881;-18.030;-16.391
6473655.411;-52.862;-48.243;-29.095;-41.313;-26.301;-12.219;-13.821;-9.649
6473655.419;-52.787;-47.497;-27.418;-41.910;-23.507;-12.890;-15.236;-10.766
6473655.427;-53.421;-47.572;-25.742;-40.345;-20.340;-18.068;-21.346;-16.056
6473655.435;-51.744;-54.203;-22.240;-37.216;-17.025;-9.909;-11.250;-7.898
6473655.443;-49.919;-39.674;-23.469;-34.831;-20.899;-11.697;-12.815;-8.382
6473655.451;-49.174;-37.067;-23.954;-37.216;-23.022;-16.429;-19.558;-14.082
6473655.459;-43.400;-43.176;-14.044;-40.494;-14.752;-12.964;-16.354;-9.686
6473655.467;-43.735;-44.890;-14.082;-40.755;-14.119;-10.170;-10.356;-9.798
6473655.475;-49.621;-50.254;-16.093;-42.804;-14.082;-8.792;-8.009;-9.350
6473655.483;-53.868;-46.827;-23.246;-42.208;-17.881;-14.529;-18.775;-11.176
6473655.491;-47.088;-42.915;-15.758;-39.674;-19.744;-14.566;-16.242;-10.803
6473655.499;-39.674;-32.932;-14.789;-34.384;-16.727;-11.735;-11.139;-7.525
6473655.507;-35.986;-28.536;-11.027;-30.994;-10.133;-12.480;-16.466;-3.837
6473655.515;-38.557;-31.665;-7.115;-31.181;-4.806;-17.397;-25.816;-7.488
6473655.523;-52.042;-52.713;-19.222;-39.600;-17.025;-22.426;-29.802;-13.337
6473655.531;-42.021;-34.273;-12.182;-32.671;-10.170;-17.323;-21.048;-10.692
6473655.539;-33.267;-20.750;-5.476;-23.693;-2.161;-15.311;-14.603;-7.674
6473655.547;-37.700;-32.969;-5.476;-27.381;-1.937;-15.944;-14.454;-5.960
6473655.555;-31.628;-26.636;0.410;-19.744;2.198;-3.614;-2.570;6.519
6473655.563;-31.069;-21.979;3.316;-16.801;2.049;1.565;2.384;10.580
6473655.575;-33.081;-21.309;1.714;-18.030;0.037;-5.141;-4.470;0.447
6473655.583;-31.739;-29.057;7.227;-16.801;2.719;-11.772;-9.984;-6.333
6473655.591;-33.453;-29.206;3.912;-21.905;3.129;-13.784;-12.629;-8.419
6473655.599;-29.616;-24.699;6.184;-15.199;1.043;-7.637;-5.849;-5.178
6473655.607;-25.854;-20.005;14.156;-7.451;6.631;-4.694;-4.917;2.049
6473655.615;-30.920;-21.160;11.101;-13.150;2.943;-12.256;-16.429;-3.092
6473655.623;-28.908;-18.403;9.090;-14.454;-2.757;-14.268;-17.881;-7.376
6473655.631;-19.819;-12.852;14.529;-5.849;0.857;-5.588;-4.023;1.602
6473655.639;-20.489;-19.334;13.709;-4.470;0.186;-10.878;-5.811;-3.427
6473655.647;-23.209;-23.879;12.815;-10.170;-5.364;-18.626;-14.789;-8.866
6473655.655;-25.257;-19.148;11.064;-14.342;-1.267;-24.512;-22.203;-13.672
6473655.663;-19.222;-8.084;14.082;-1.527;2.235;-21.271;-15.944;-11.623
6473655.671;-18.775;-9.425;19.334;-1.639;1.937;-20.266;-12.405;-12.182
6473655.679;-23.618;-11.176;17.360;-10.878;0.559;-18.217;-15.832;-10.021
6473655.687;-16.429;-11.735;23.767;-10.207;2.682;-7.115;-10.394;0.037
6473655.695;-8.084;-7.115;32.224;0.894;17.136;-3.278;-7.413;2.794
6473655.703;-9.388;-7.413;28.163;4.284;17.323;-9.537;-11.362;-3.800
6473655.711;-9.947;-5.215;26.934;4.210;7.562;-11.474;-9.462;-3.576
6473655.719;-4.992;3.688;30.063;7.004;8.829;-6.892;-6.258;0.969
6473655.727;-5.588;3.241;29.542;3.614;6.258;-8.941;-7.227;-3.763
6473655.735;-6.482;-0.186;31.255;1.304;12.554;-14.789;-10.617;-9.276
6473655.743;-12.554;-7.935;29.132;-1.118;11.362;-19.334;-15.646;-14.529
6473655.751;-10.356;-7.488;29.504;6.370;10.654;-7.264;-5.327;-2.682
6473655.759;-7.637;1.788;31.479;7.600;7.972;-2.347;-3.763;3.539
6473655.786;-12.144;4.917;23.469;5.625;3.576;-6.594;-10.654;-4.210
6473655.794;-6.780;9.723;28.573;11.623;6.817;1.118;-1.304;2.570
6473655.802;-8.717;5.849;31.069;17.360;8.792;4.172;3.092;6.109
6473655.810;-1.751;5.215;34.459;21.644;12.182;1.378;2.459;3.278
6473655.818;-5.066;-7.525;30.622;7.376;8.717;-11.921;-8.643;-8.680
6473655.826;-8.419;1.900;29.206;2.533;6.817;-16.093;-15.907;-13.299
6473655.834;-9.947;6.296;27.232;0.969;1.341;-9.798;-13.150;-6.519
6473655.842;-6.594;8.531;28.163;11.846;3.316;-2.719;-7.078;-1.825
6473655.850;-4.955;1.676;30.398;14.491;2.347;-0.745;-4.359;-0.782
6473655.858;-7.711;-5.402;28.238;5.588;-0.894;-1.118;-6.147;0.559
6473655.866;-10.543;-5.849;25.481;-2.980;-1.490;-5.923;-7.413;-3.129
6473655.874;-9.649;4.172;23.916;4.359;-2.310;-11.995;-11.139;-3.949
6473655.882;-6.258;0.745;28.796;10.356;0.857;-12.107;-13.821;-0.894
6473655.890;-4.359;9.313;32.000;10.915;-1.155;-8.196;-10.058;-2.943
6473655.898;-10.133;-3.688;28.089;4.806;0.708;-6.258;-8.121;-4.880
6473655.906;-17.136;-20.079;20.228;-6.035;1.453;-9.425;-12.107;-6.407
6473655.914;-14.901;-4.359;22.687;-4.247;-5.364;-7.376;-6.519;-5.513
6473655.922;-11.288;3.092;28.089;0.149;-4.172;-5.104;-2.310;-5.662
6473655.930;-12.778;-5.513;22.128;-3.017;-5.625;-9.872;-10.170;-10.915
6473655.938;-4.955;-4.955;27.157;0.484;1.080;-8.009;-12.927;-6.370
6473655.946;-4.284;-5.104;30.659;0.224;7.935;-3.725;-11.623;0.708
6473655.954;-11.474;-5.215;26.152;-1.155;-1.751;-6.221;-13.970;-1.714
6473655.962;-18.850;-11.362;19.073;-8.941;-7.451;-12.480;-20.899;-6.929
6473655.970;-21.271;-14.454;16.987;-13.970;-8.978;-14.789;-20.564;-11.288
6473656.084;-20.228;-19.185;17.807;-15.832;-9.127;-8.717;-10.468;-6.519
6473656.092;-19.819;-12.890;18.775;-9.686;-10.245;-8.307;-8.754;-9.499
6473656.100;-19.073;-12.405;17.770;-12.144;-7.935;-9.909;-16.987;-10.766
6473656.108;-21.756;-17.211;15.199;-17.099;-8.792;-11.809;-20.191;-12.890
6473656.116;-24.028;-17.546;5.811;-15.534;-20.377;-9.760;-15.236;-10.803
6473656.124;-32.894;-29.691;-3.017;-21.197;-31.069;-13.001;-15.125;-11.325
6473656.132;-31.441;-28.424;2.719;-21.048;-27.679;-18.626;-20.973;-15.646
6473656.140;-20.489;-14.901;11.772;-16.168;-16.429;-18.813;-23.991;-16.652
6473656.148;-14.603;-12.144;11.288;-14.491;-14.454;-5.327;-8.158;-8.047
6473656.156;-14.491;-18.068;15.683;-15.385;-11.809;-7.264;-8.419;-10.654
6473656.164;-11.474;-20.489;22.277;-9.798;-3.688;-6.147;-6.929;-9.239
6473656.172;-10.431;-19.334;20.303;-12.070;-2.161;-1.863;-4.135;-3.390
6473656.180;-18.068;-21.756;5.327;-22.650;-12.182;-0.261;-4.135;-2.831
6473656.188;-16.503;-30.510;9.239;-23.358;-6.780;-4.508;-5.923;-6.184
6473656.196;-14.044;-18.738;11.809;-20.452;-2.906;-8.084;-8.754;-9.649
6473656.204;-19.558;-22.687;4.359;-21.681;-12.405;-17.211;-18.589;-19.334
6473656.212;-27.046;-32.932;-5.476;-27.157;-21.867;-17.732;-22.240;-20.564
6473656.220;-31.069;-38.818;-3.166;-31.516;-14.864;-15.013;-19.781;-18.813
6473656.228;-29.989;-34.310;-0.969;-30.175;-14.789;-14.156;-19.744;-17.919
6473656.236;-30.510;-34.645;-5.439;-31.888;-24.997;-15.423;-24.177;-15.460
6473656.244;-33.081;-43.064;-5.700;-35.055;-22.426;-15.125;-24.587;-11.288
6473656.252;-28.871;-36.992;-4.321;-31.665;-14.231;-13.188;-19.707;-9.052
6473656.260;-24.438;-32.336;-5.253;-23.954;-17.658;-8.941;-11.362;-7.413
6473656.268;-24.848;-33.677;-2.682;-26.710;-18.738;-8.643;-8.605;-7.004
6473656.328;-26.040;-34.757;0.037;-28.946;-14.417;-16.987;-21.681;-14.976
6473656.336;-20.787;-28.759;4.396;-25.630;-11.809;-23.805;-30.622;-24.177
6473656.344;-15.236;-18.924;6.594;-15.721;-11.399;-21.756;-30.845;-22.314
6473656.352;-14.901;-22.724;4.247;-14.305;-13.150;-17.323;-26.412;-16.764
6473656.360;-13.486;-24.475;5.104;-17.583;-10.170;-10.543;-19.670;-9.835
6473656.368;-14.491;-25.183;7.190;-22.389;-8.643;-7.488;-13.113;-6.706
6473656.376;-12.368;-17.174;10.729;-14.752;-8.643;-2.421;-3.539;-3.614
6473656.384;-8.084;-17.323;12.703;-9.313;-4.508;7.264;5.439;0.149
6473656.392;-9.798;-22.911;11.548;-13.895;-9.201;5.998;3.502;-3.688
6473656.400;-4.545;-12.666;16.876;-4.172;-4.545;7.674;4.359;2.049
6473656.408;-10.356;-18.999;10.245;-9.984;-11.995;1.863;-0.484;2.086
6473656.416;-23.283;-35.986;1.304;-25.295;-20.564;-13.150;-19.446;-8.233
6473656.424;-22.613;-28.610;2.682;-22.575;-17.062;-18.775;-27.381;-12.256
6473656.432;-22.650;-29.691;-0.410;-21.942;-20.415;-23.209;-34.869;-16.689
6473656.440;-17.397;-21.905;4.992;-13.299;-21.011;-10.878;-21.569;-8.233
6473656.448;-13.523;-23.805;9.462;-12.070;-18.626;-1.676;-9.350;-0.671
6473656.456;-11.846;-24.289;9.649;-15.609;-16.615;0.857;-4.508;2.794
6473656.464;-10.133;-15.236;9.537;-11.176;-12.740;4.731;3.800;4.284
6473656.472;-18.068;-23.767;-0.410;-19.521;-24.177;-0.484;1.304;-1.602
6473656.480;-28.498;-33.341;-4.582;-29.542;-35.539;-12.964;-14.268;-10.468
6473656.488;-28.387;-44.964;-1.900;-33.490;-29.728;-20.005;-24.438;-16.093
6473656.496;-14.976;-23.246;6.519;-17.583;-22.873;-17.174;-20.973;-14.976
6473656.504;-5.886;-16.503;18.589;-11.846;-17.248;-8.903;-11.623;-6.370
6473656.512;-4.433;-8.456;21.011;-4.359;-17.732;-6.557;-8.829;-3.539
6473656.490;4.806;6.743;27.157;8.121;-10.580;-1.900;-5.551;0.224
6473656.498;9.201;2.794;32.745;10.021;-2.421;1.565;-3.800;3.166
6473656.506;4.284;-0.782;31.181;1.676;-3.986;-1.714;-7.153;2.421
6473656.514;-5.737;-15.162;23.171;-11.362;-13.709;-8.196;-14.305;-4.768
6473656.522;-7.190;-17.360;18.440;-11.437;-18.030;-10.170;-14.901;-9.760
6473656.530;-6.445;-13.225;16.168;-5.737;-18.701;-6.184;-7.749;-7.115
6473656.538;-5.141;-14.380;20.452;-3.539;-15.050;-1.825;-3.092;-2.757
6473656.546;1.490;0.186;32.149;-1.974;-5.104;1.118;-2.086;-0.522
6473656.554;-4.731;-6.147;24.848;-11.846;-14.901;-4.806;-8.009;-5.178
6473656.562;-8.754;-17.285;18.962;-14.082;-21.644;-8.680;-11.101;-8.121
6473656.570;-11.064;-22.426;13.299;-12.964;-24.810;-10.096;-14.082;-7.004
6473656.578;-10.654;-28.424;13.523;-16.131;-27.865;-12.666;-17.174;-8.829
6473656.586;0.782;-13.821;22.575;-5.886;-17.844;-5.476;-7.898;-4.470
6473656.594;7.749;5.513;28.387;4.843;-9.686;4.359;3.390;2.682
6473656.602;5.625;5.402;25.369;1.490;-12.852;1.863;0.484;0.671
6473656.610;-5.774;-14.640;14.380;-13.076;-21.569;-7.786;-9.350;-8.792
6473656.618;-8.084;-20.266;11.884;-12.144;-25.518;-7.898;-9.201;-9.835
6473656.626;-0.671;-9.611;17.434;-1.416;-22.352;-2.459;-2.384;-2.719
6473656.634;-3.912;-8.829;20.154;-3.837;-20.154;-4.955;-4.694;-1.714
6473656.642;-3.763;-11.176;23.246;-5.662;-18.887;-6.594;-6.594;-5.998
6473656.650;11.437;4.098;34.124;4.955;-11.846;-2.421;-3.241;-4.955
6473656.658;7.078;-1.006;28.498;1.229;-10.245;-7.637;-6.743;-7.711
6473656.666;-3.651;-9.872;15.013;-5.923;-16.727;-19.483;-17.099;-16.242
6473656.674;-8.903;-22.799;14.938;-17.211;-26.077;-24.326;-24.438;-20.564
6473656.683;-17.732;-36.210;5.402;-25.071;-33.267;-28.126;-27.455;-25.108
6473656.691;-16.913;-27.679;4.694;-18.440;-34.459;-27.902;-26.822;-25.369
6473656.699;-7.600;-15.385;13.150;-14.491;-20.489;-26.897;-27.716;-23.767
6473656.707;-8.382;-20.154;16.317;-16.205;-20.564;-23.320;-29.020;-21.681
6473656.715;-11.697;-23.581;16.019;-20.117;-21.867;-17.025;-24.475;-17.732
6473656.723;-6.966;-17.211;14.976;-14.491;-20.452;-15.274;-19.297;-16.429
6473656.731;-1.378;-12.629;16.131;-7.935;-22.128;-9.872;-11.288;-11.474
6473656.739;-1.900;-15.758;19.036;-9.350;-16.280;-6.557;-6.296;-8.792
6473656.747;-12.070;-27.232;8.494;-15.832;-22.016;-12.666;-13.411;-13.374
6473656.755;-13.895;-23.507;5.849;-17.285;-25.406;-14.454;-15.944;-14.678
6473656.763;-6.743;-13.821;13.448;-13.337;-19.409;-13.821;-18.030;-14.082
6473656.771;-0.522;-8.456;19.222;-11.548;-16.727;-16.578;-24.326;-14.901
6473656.779;-0.969;-21.569;21.942;-12.890;-15.199;-14.715;-17.919;-12.331
6473656.787;-8.680;-29.765;8.978;-19.558;-25.332;-19.483;-19.521;-18.217
6473656.795;-8.866;-19.036;9.052;-20.452;-31.367;-19.036;-17.583;-19.260
6473656.803;-8.568;-18.589;9.649;-20.638;-27.679;-15.497;-16.280;-15.683
6473656.811;0.857;-16.764;14.231;-10.394;-16.876;-0.112;-3.614;-2.123
6473656.819;-3.129;-16.429;10.431;-16.838;-16.876;1.490;-1.639;-2.421
6473656.827;-3.986;-18.515;15.572;-16.131;-20.564;-7.637;-11.250;-10.282
6473656.835;-1.788;-19.856;14.603;-13.895;-19.632;-12.480;-16.429;-15.125
6473656.843;-8.754;-19.521;6.333;-20.452;-22.613;-15.013;-18.068;-17.807
6473656.851;-12.107;-29.244;1.974;-22.762;-25.891;-16.205;-16.950;-20.713
6473656.859;-6.296;-28.536;8.047;-21.495;-18.068;-19.521;-17.583;-22.389
6473656.867;6.184;-12.554;18.179;-10.803;-8.903;-17.993;-13.039;-18.775
6473656.835;7.525;-10.096;20.936;-10.915;-11.101;-14.752;-13.858;-14.864
6473656.843;7.935;-15.274;22.501;-16.876;-8.829;-14.417;-17.732;-16.019
6473656.851;18.254;-4.061;32.447;-10.319;4.694;-6.296;-10.096;-9.649
6473656.859;20.117;-2.868;35.502;-2.906;12.629;3.986;-1.453;-0.298
6473656.867;21.160;7.600;31.404;8.792;4.135;8.643;4.172;1.639
6473656.875;15.199;0.931;21.681;-2.570;-12.442;-0.522;-3.800;-7.860
6473656.883;6.519;-16.764;13.821;-14.529;-13.970;-12.219;-12.964;-17.434
6473656.891;-1.453;-20.154;4.992;-20.452;-19.744;-19.856;-20.340;-24.512
6473656.899;-9.276;-32.037;-7.413;-28.312;-26.859;-27.902;-26.971;-32.522
6473656.907;-0.224;-26.189;5.141;-19.409;-10.878;-21.309;-18.552;-24.140
6473656.915;-9.276;-30.994;1.937;-30.249;-17.993;-19.893;-15.534;-23.954
6473656.923;-12.890;-34.049;-4.284;-32.075;-27.791;-15.423;-14.156;-20.042
6473656.931;-7.302;-31.888;-10.133;-23.358;-33.639;-8.419;-10.580;-12.219
6473656.939;-2.608;-14.529;-5.849;-19.260;-20.750;-6.743;-8.643;-9.127
6473656.947;-4.135;-26.114;-2.235;-24.699;-14.305;-5.960;-5.476;-11.250
6473656.955;-4.247;-30.510;1.229;-27.791;-15.311;-4.992;-7.041;-10.207
6473656.963;-0.969;-29.318;5.811;-29.691;-12.182;-4.843;-6.519;-9.872
6473656.971;5.737;-18.440;4.619;-20.713;-15.832;-6.594;-6.147;-12.852
6473656.979;7.786;-19.446;1.490;-13.746;-10.692;-9.127;-8.270;-16.205
6473656.987;1.043;-27.865;5.253;-25.891;-9.015;-13.709;-13.188;-18.664
6473656.995;-8.605;-27.493;-1.751;-32.857;-19.446;-16.131;-17.360;-17.844
6473657.003;-16.131;-38.855;-9.947;-36.731;-23.246;-19.558;-22.165;-21.011
6473657.011;-1.714;-27.157;3.092;-23.395;-14.417;-14.491;-16.764;-16.354
6473657.019;8.829;-14.827;11.697;-15.236;-1.341;-3.800;-5.215;-4.768
6473657.104;8.866;-12.815;14.491;-17.844;1.974;-7.451;-9.015;-5.513
6473657.112;9.090;-14.417;12.331;-9.425;-2.049;-5.588;-7.711;-2.794
6473657.120;4.210;-14.678;9.239;-7.339;-2.906;-3.763;-7.264;-3.353
6473657.128;-13.039;-31.926;-7.004;-24.587;-15.348;-15.162;-17.993;-16.354
6473657.136;-7.153;-24.401;-4.172;-23.097;-19.670;-14.193;-13.709;-17.546
6473657.144;4.843;-14.715;8.345;-9.537;-10.319;-7.264;-7.562;-13.672
6473657.152;4.619;-17.658;6.035;-8.196;-10.431;-9.276;-10.356;-13.448
6473657.160;-3.129;-21.905;-2.198;-14.752;-17.546;-12.293;-12.778;-12.405
6473657.168;2.757;-15.274;6.184;-8.792;-3.949;-6.594;-6.594;-3.651
6473657.176;-2.421;-16.764;2.682;-13.858;-11.325;-12.927;-15.981;-9.462
6473657.184;-4.210;-19.819;3.129;-21.309;-15.907;-14.640;-19.111;-10.990
6473657.192;-4.768;-25.742;6.370;-23.320;-16.056;-13.970;-15.944;-12.070
6473657.200;-6.966;-31.665;0.745;-23.395;-23.879;-16.019;-17.919;-15.125
6473657.208;5.253;-24.103;6.370;-16.019;-13.784;-13.523;-13.523;-14.901
6473657.216;12.442;-2.049;15.311;-10.617;-6.184;-11.548;-13.113;-12.852
6473657.224;2.161;-18.701;10.692;-16.727;-8.047;-17.136;-21.271;-17.583
6473657.232;-1.080;-28.759;4.247;-19.036;-11.027;-14.417;-19.558;-13.709
6473657.240;-2.794;-23.805;5.551;-24.065;-14.603;-16.727;-23.954;-13.709
6473657.248;-13.225;-34.049;-3.092;-35.912;-26.040;-26.114;-33.863;-20.526
6473657.256;-10.654;-31.181;0.745;-30.436;-26.226;-20.042;-28.014;-15.721
6473657.264;-0.261;-28.126;5.923;-19.260;-17.732;-15.274;-22.836;-13.933
6473657.272;9.239;-9.052;9.723;-7.786;-0.820;-7.339;-13.560;-7.562
6473657.280;8.680;-14.901;16.913;-13.448;-4.433;-5.029;-13.039;-5.327
6473657.288;6.221;-12.480;18.254;-16.242;-14.566;-2.980;-12.107;-3.204
6473657.299;12.256;-6.072;21.644;-7.078;-11.362;2.347;-3.837;0.596
6473657.307;17.397;-5.588;23.544;-4.768;-5.253;-1.118;-7.749;0.820
6473657.315;15.832;-14.082;23.022;-10.505;-0.633;-8.754;-13.188;-4.023
6473657.323;16.652;-10.356;21.942;-8.419;-2.906;-11.586;-12.107;-8.196
6473657.331;29.616;12.778;31.292;11.288;5.402;-1.751;0.037;-2.533
6473657.339;24.065;-0.112;25.705;3.465;-0.559;-9.611;-4.210;-12.033
6473657.347;22.314;1.080;31.181;0.000;-1.900;-17.360;-13.635;-16.056
6473657.355;20.005;0.671;26.152;-2.943;-3.539;-23.805;-24.475;-18.030
6473657.363;13.225;-13.039;16.242;-5.476;-4.955;-30.994;-32.485;-24.177
6473657.371;20.973;3.576;24.699;2.384;-2.682;-26.859;-26.934;-21.756
6473657.379;27.306;6.407;27.381;6.482;-0.373;-20.228;-17.844;-19.148
6473657.387;16.950;-12.405;15.683;-2.421;-16.466;-19.968;-16.131;-21.309
6473657.395;11.027;-13.448;13.448;-11.474;-17.248;-23.656;-20.638;-24.661
6473657.403;5.551;-15.646;7.637;-16.689;-22.575;-32.112;-31.777;-31.441
6473657.411;10.096;0.075;8.680;-7.115;-17.807;-26.561;-28.312;-24.475
6473657.419;11.735;-4.619;16.056;-4.657;-15.795;-21.048;-20.005;-18.924
6473657.427;14.938;-17.248;19.707;-7.004;-10.468;-16.540;-14.193;-16.950
6473657.435;17.658;-10.766;14.864;-4.508;-10.803;-10.133;-11.846;-11.325
6473657.443;16.689;-1.267;15.050;-3.241;-13.597;-5.327;-8.717;-5.066
6473657.451;19.670;3.576;15.162;-0.708;-14.380;-8.382;-9.723;-8.717
6473657.459;17.583;-3.614;13.188;-2.719;-13.337;-14.938;-11.399;-16.242
6473657.467;16.689;-4.172;13.597;-2.421;-13.113;-21.160;-15.125;-21.681
6473657.475;19.036;-8.158;18.589;-0.298;-15.348;-16.093;-9.537;-14.305
6473657.483;19.707;-4.061;18.813;3.651;-16.764;-14.119;-6.668;-15.274
6473657.451;18.775;-3.763;14.491;0.745;-14.938;-18.962;-11.511;-22.314
6473657.459;14.864;-8.754;6.296;-7.413;-17.956;-25.555;-19.446;-26.859
6473657.467;10.543;-11.623;5.141;-9.686;-19.073;-27.716;-22.165;-27.083
6473657.475;10.617;-8.456;8.196;-7.600;-22.277;-25.555;-18.813;-24.773
6473657.483;18.477;-3.055;12.107;-4.619;-20.005;-18.887;-15.721;-18.030
6473657.491;21.830;-1.565;16.540;-2.980;-12.405;-10.952;-10.170;-12.219
6473657.499;20.601;-3.390;17.509;-0.224;-8.196;-12.405;-12.703;-14.007
6473657.507;8.605;-15.832;5.849;-14.082;-19.483;-23.469;-25.518;-23.097
6473657.515;11.399;-21.644;1.788;-14.156;-25.146;-18.626;-19.707;-18.477
6473657.523;9.239;-14.305;1.118;-15.758;-26.152;-19.409;-19.781;-20.377
6473657.531;0.335;-15.311;-4.545;-20.936;-32.187;-28.461;-26.301;-24.326
6473657.539;8.643;-10.245;5.886;-14.007;-16.987;-21.346;-16.950;-15.795
6473657.547;8.084;-18.030;7.041;-12.778;-18.328;-19.036;-18.440;-14.231
6473657.555;1.602;-36.284;-1.155;-24.661;-27.008;-21.979;-23.097;-18.924
6473657.563;4.768;-21.942;-2.570;-23.879;-23.246;-22.762;-23.507;-21.234
6473657.571;8.345;-1.118;0.000;-11.176;-21.346;-21.532;-21.458;-19.372
6473657.579;4.917;-13.970;-4.210;-15.460;-25.257;-21.644;-23.581;-15.646
6473657.587;0.857;-28.834;-4.545;-20.787;-25.854;-14.789;-17.397;-10.468
6473657.595;3.763;-26.710;-2.906;-20.787;-24.550;-15.534;-18.962;-10.952
6473657.603;1.043;-23.767;-7.823;-24.997;-30.138;-20.117;-23.097;-16.540
6473657.611;-1.155;-20.638;-8.717;-22.724;-28.014;-19.893;-19.595;-17.360
6473657.619;-5.960;-31.702;-11.623;-28.387;-29.020;-19.409;-19.744;-15.758
6473657.627;6.482;-24.922;-1.974;-19.222;-18.142;-15.274;-18.664;-9.686
6473657.635;12.554;-10.170;6.594;-10.431;-9.723;-13.784;-18.068;-8.009
6473657.614;14.603;-10.245;10.952;-10.356;-8.941;-18.775;-20.079;-14.715
6473657.622;18.775;-4.098;10.133;-10.394;-10.952;-18.887;-19.670;-17.732
6473657.630;18.962;-4.508;8.792;-3.688;-13.039;-15.199;-17.323;-15.274
6473657.638;18.924;-6.370;7.786;1.155;-5.476;-16.466;-17.732;-16.205
6473657.646;14.231;-13.225;1.378;-8.531;-12.182;-21.644;-18.962;-19.781
6473657.654;10.654;-20.824;-2.198;-17.844;-17.844;-19.781;-17.397;-17.993
6473657.662;18.068;-11.735;5.327;-6.817;-11.548;-6.557;-5.029;-6.035
6473657.670;15.795;-9.835;4.061;-7.153;-15.907;-7.711;-7.078;-6.855
6473657.678;6.184;-26.003;-6.072;-16.801;-24.699;-16.466;-16.280;-17.732
6473657.686;15.423;-6.668;-2.086;-4.619;-16.764;-11.101;-9.537;-16.280
6473657.694;20.526;3.316;3.688;-1.863;-7.823;-6.333;-3.912;-11.697
6473657.702;15.609;-12.554;2.533;-4.545;-14.156;-5.551;-1.639;-9.984
6473657.710;11.176;-16.615;0.969;-9.313;-14.007;-9.611;-8.978;-12.480
6473657.718;5.588;-20.005;-5.513;-12.890;-20.564;-18.254;-20.750;-19.968
6473657.726;8.158;-14.268;-1.639;-11.250;-19.372;-18.664;-21.160;-18.924
6473657.734;6.221;-15.870;-0.671;-12.144;-11.176;-11.548;-13.895;-11.921
6473657.742;14.119;-5.253;11.772;0.596;-2.272;1.267;-2.310;3.092
6473657.750;18.366;-6.109;7.451;1.863;-8.605;-5.029;-8.568;-3.241
6473657.758;16.615;-5.476;4.135;-4.768;-13.821;-14.827;-17.248;-12.964
6473657.766;20.750;-0.708;13.933;-0.261;-9.313;-8.456;-8.345;-6.892
6473657.774;21.830;-4.545;12.666;0.112;-8.233;-6.557;-5.811;-5.551
6473657.782;19.707;1.155;12.331;8.494;-2.943;-9.499;-6.966;-8.643
6473657.790;20.415;3.949;14.454;7.488;-2.347;-13.523;-11.958;-11.288
6473657.798;15.534;-10.654;12.070;-3.874;-13.821;-18.366;-19.260;-15.236
6473657.780;20.973;1.080;17.919;8.456;-7.078;-8.717;-11.772;-5.364
6473657.788;22.277;11.064;16.689;11.101;-5.029;-14.640;-21.495;-13.448
6473657.796;29.653;15.199;29.095;14.864;0.559;-10.915;-16.280;-9.611
6473657.804;25.332;8.121;22.650;11.064;-5.141;-7.749;-9.499;-5.960
6473657.812;22.501;7.413;15.385;11.027;-11.064;-8.531;-9.239;-7.488
6473657.820;26.636;4.247;20.936;14.007;-12.107;-9.574;-10.431;-9.760
6473657.828;28.722;13.597;26.673;15.423;-8.680;-9.947;-12.890;-10.319
6473657.836;26.226;9.835;25.257;18.887;-6.035;-1.378;-3.651;-1.602
6473657.844;17.844;-2.608;13.672;8.345;-15.944;-3.539;-5.774;-3.651
6473657.852;17.881;-0.373;13.411;6.147;-16.727;-6.147;-5.513;-6.966
6473657.860;14.603;-5.178;13.039;4.619;-20.005;-7.637;-8.196;-8.941
6473657.868;14.007;-3.874;9.872;-1.602;-25.555;-15.497;-20.266;-17.136
6473657.876;24.959;7.488;23.320;9.350;-16.280;-16.503;-18.701;-17.658
6473657.884;22.836;4.657;22.724;10.207;-12.852;-19.930;-17.956;-18.515
6473657.892;17.025;-0.112;16.391;4.992;-19.036;-20.787;-19.930;-20.117
6473657.900;16.950;-0.037;15.013;4.172;-23.246;-21.383;-25.295;-21.085
6473657.908;26.859;9.574;25.630;15.311;-16.540;-14.454;-18.775;-12.070
6473657.916;33.490;16.727;35.167;17.770;-6.668;-9.798;-12.182;-5.178
6473657.924;26.897;4.657;25.369;9.164;-10.505;-14.342;-16.093;-14.417
6473657.932;25.406;9.499;21.830;9.947;-14.380;-12.703;-14.938;-13.709
6473657.940;23.060;10.394;20.936;11.027;-15.907;-9.090;-11.250;-8.270
6473657.948;20.899;6.370;19.148;8.941;-21.532;-10.356;-13.076;-11.884
6473657.956;17.956;-1.527;15.907;1.676;-20.079;-16.503;-16.987;-18.142
6473657.964;21.011;2.012;19.632;3.614;-17.174;-17.695;-17.732;-15.534
6473657.975;37.625;21.160;36.843;16.168;-2.123;-8.903;-7.339;-7.339
6473657.983;36.880;18.030;34.384;13.001;-5.774;-6.184;-4.433;-5.402
6473657.991;22.613;-2.757;21.048;3.092;-18.962;-11.735;-13.299;-7.711
6473657.999;22.538;-2.831;22.314;-0.447;-24.624;-19.334;-18.477;-16.801
6473658.007;27.865;13.746;26.710;10.133;-18.999;-16.093;-12.927;-18.440
6473658.015;26.487;13.821;29.504;14.082;-9.611;-9.835;-7.600;-11.772
6473658.023;27.008;6.594;30.883;4.247;-8.568;-5.327;-6.892;-5.588
6473658.031;27.828;9.052;29.206;5.662;-9.723;-6.221;-9.798;-5.513
6473658.039;29.318;5.364;25.444;13.597;-15.609;-8.531;-10.580;-7.078
6473658.047;23.879;7.562;16.764;10.319;-25.444;-12.182;-10.468;-10.505
6473658.055;16.801;-2.943;15.013;-5.923;-31.553;-19.073;-15.609;-15.274
6473658.063;17.025;5.700;19.111;-4.433;-15.907;-16.093;-14.491;-11.623
6473658.071;12.070;-0.522;14.454;0.000;-18.552;-8.382;-12.778;-2.012
6473658.079;11.027;-8.531;11.772;3.204;-31.777;-8.196;-14.417;-3.241
6473658.087;19.185;-0.261;16.466;2.272;-23.097;-9.090;-12.778;-5.141
6473658.095;26.375;2.980;21.867;0.373;-20.005;-10.394;-10.803;-8.419
6473658.103;29.765;8.233;27.977;6.445;-14.566;-7.637;-8.084;-9.090
6473658.111;22.911;7.078;21.569;3.688;-15.460;-8.307;-11.586;-8.568
6473658.119;20.117;4.359;16.987;-1.714;-19.409;-7.041;-9.909;-5.364
6473658.127;25.220;6.035;19.781;-0.894;-11.846;0.186;-3.204;1.602
6473658.135;19.148;-13.262;13.970;-6.817;-18.328;0.149;-4.210;0.186
6473658.143;17.323;-9.276;12.182;-7.600;-20.936;-4.396;-4.396;-2.272
6473658.151;18.179;1.453;10.692;-4.172;-24.438;-9.350;-7.413;-3.502
6473658.159;19.893;6.333;14.938;0.410;-19.744;-7.302;-5.402;-2.161
6473658.260;20.191;3.204;16.317;-2.906;-17.546;-2.310;-1.863;2.645
6473658.268;19.334;-4.806;16.615;-2.608;-19.893;-3.949;-4.210;-0.224
6473658.276;20.117;-9.015;13.821;1.192;-22.836;-1.378;-0.224;0.335
6473658.284;17.919;1.304;9.164;2.868;-25.779;1.676;2.310;1.751
6473658.292;9.649;-2.310;-0.633;-9.052;-34.235;-4.396;-3.837;-4.992
6473658.300;10.245;-11.586;1.639;-17.770;-26.748;-10.617;-8.009;-10.841
6473658.308;14.752;-9.090;6.407;-12.256;-23.656;-12.629;-10.729;-12.331
6473658.316;18.962;-6.557;10.729;-6.035;-23.246;-4.992;-3.055;-3.353
6473658.324;18.515;-8.978;6.333;-5.700;-29.616;-2.943;-1.453;-2.570
6473658.332;15.683;-15.199;4.470;-9.462;-25.816;-2.794;-3.129;-3.353
6473658.340;9.835;-23.507;-0.559;-18.850;-24.289;-8.717;-14.082;-6.929
6473658.348;11.399;-12.740;4.582;-14.231;-20.117;-8.307;-15.572;-6.594
6473658.356;17.546;-1.676;11.884;-4.694;-9.164;-0.075;-3.017;-0.373
6473658.364;23.618;-2.682;15.683;-4.694;-9.239;4.582;2.794;1.676
6473658.372;34.608;-1.937;23.283;3.539;-2.719;7.637;3.539;2.794
6473658.380;28.946;-5.104;20.005;0.186;-1.974;3.316;2.459;0.931
6473658.388;23.656;-0.149;15.199;-0.894;-8.680;-0.522;2.123;-1.565
6473658.396;19.781;-2.310;9.052;-3.390;-16.987;-6.817;-2.719;-8.531
6473658.404;20.824;-7.898;5.700;-5.700;-21.160;-2.086;-0.373;-4.433
6473658.412;18.440;-11.064;3.278;-5.104;-19.111;0.186;-3.316;-1.080
6473658.420;14.193;-17.546;4.284;-13.523;-17.583;-8.792;-11.288;-5.662
6473658.428;17.732;-14.789;4.359;-11.176;-11.213;-6.147;-5.215;-7.376
6473658.436;18.626;-10.431;4.210;-6.817;-16.615;-2.161;-3.092;-7.562
6473658.444;15.646;-8.605;6.221;-8.419;-19.558;-5.960;-8.829;-9.984
6473658.454;21.271;-2.570;7.898;-1.863;-16.727;-0.149;-3.725;-1.304
6473658.462;27.455;-6.594;14.231;4.172;-6.407;9.984;7.749;11.139
6473658.470;25.667;-9.649;8.196;0.298;-4.806;7.488;6.668;7.637
6473658.478;16.615;1.527;2.235;-2.161;-9.127;-5.215;-6.184;-3.949
6473658.486;15.162;-6.333;7.004;-4.210;-7.749;-7.041;-4.321;-4.880
6473658.494;20.191;-8.196;11.846;3.390;-8.196;-1.714;3.316;0.857
6473658.502;20.117;-14.305;8.009;-1.043;-8.754;-3.874;-1.192;-0.186
6473658.510;19.707;-2.570;7.823;1.751;-3.576;-11.772;-8.829;-9.499
6473658.518;27.344;7.898;23.246;11.809;8.456;-12.331;-10.692;-8.829
6473658.526;35.949;18.217;29.802;15.534;6.929;-1.006;0.373;0.559
6473658.534;31.069;6.557;21.607;11.362;-5.104;5.029;4.992;3.316
6473658.542;23.060;3.278;10.654;5.737;-6.892;-2.794;-5.737;-1.006
6473658.550;22.873;3.651;10.431;9.201;-4.508;-2.533;-3.651;0.820
6473658.558;28.759;5.662;18.999;11.288;-3.353;0.224;1.863;5.960
6473658.566;29.057;0.186;26.673;7.600;-2.719;-1.863;-1.229;5.364
6473658.574;24.736;7.078;22.911;4.657;-4.172;-7.339;-8.605;-1.304
6473658.582;23.171;11.064;16.429;3.316;-5.923;-9.015;-7.562;-5.811
6473658.590;20.862;-1.602;17.434;4.992;-5.849;-2.496;-1.416;-0.894
6473658.598;19.707;-8.941;20.713;0.671;-3.912;-1.788;-5.960;2.086
6473658.606;24.773;9.015;23.246;5.141;-3.800;-4.992;-10.468;1.453
6473658.614;35.092;18.403;32.522;15.162;4.731;1.341;-2.980;6.296
6473658.622;39.861;17.993;31.404;16.280;-0.559;5.737;5.849;9.798
6473658.630;33.900;6.817;30.026;10.058;-2.161;3.017;4.657;6.035
6473658.638;32.894;12.629;34.049;16.466;4.917;6.594;9.276;6.147
6473658.648;40.308;18.701;37.700;22.277;9.499;13.188;14.119;15.162
6473658.656;48.503;32.894;40.345;27.865;3.055;12.629;11.437;16.950
6473658.664;38.110;21.420;36.545;18.440;-0.186;6.706;6.743;11.474
6473658.672;26.710;-0.671;25.108;8.196;-2.161;2.347;6.817;7.525
6473658.680;28.387;6.706;28.908;13.597;-5.662;1.527;7.004;6.147
6473658.688;42.319;30.398;40.159;21.271;3.353;7.413;11.325;11.139
6473658.696;36.359;15.758;34.757;13.299;-3.129;1.304;1.863;5.253
6473658.704;27.120;3.278;26.785;4.172;-11.586;-8.717;-11.064;-5.066
6473658.712;29.653;9.537;26.301;8.792;-10.505;-6.706;-8.754;-3.017
6473658.720;30.547;20.117;25.705;13.746;-11.064;-2.906;-3.204;1.304
6473658.728;33.341;16.913;34.831;10.580;-1.900;5.476;6.892;8.754
6473658.736;43.772;27.046;41.500;16.391;5.513;12.293;14.752;15.311
6473658.744;38.072;14.268;31.330;15.683;-1.639;7.227;7.004;11.548
6473658.752;37.141;5.327;31.553;10.431;-2.980;6.855;3.651;11.250
6473658.760;31.590;12.182;31.628;7.041;-7.860;5.290;3.390;10.207
6473658.768;25.779;20.079;23.618;6.072;-14.901;0.447;1.155;4.694
6473658.776;16.578;1.229;16.727;1.043;-15.795;-3.166;-1.267;3.539
6473658.784;22.016;-3.725;18.850;4.359;-10.692;-0.745;2.161;6.407
6473658.792;29.169;2.012;27.269;9.462;-5.700;4.917;5.066;7.972
6473658.800;34.012;24.997;28.908;17.695;-5.104;8.643;6.519;10.543
6473658.808;30.249;19.409;23.656;12.293;-12.890;6.594;5.104;10.096
6473658.816;34.831;16.764;29.579;21.048;-4.321;15.162;14.454;18.030
6473658.824;32.634;16.168;30.510;19.930;-3.241;14.566;17.397;13.858
6473658.832;26.487;4.284;25.108;7.898;-8.717;7.339;9.984;5.551
6473658.840;24.624;6.743;20.154;2.310;-16.391;3.763;4.284;4.731
6473658.848;26.077;12.368;23.618;9.276;-15.795;5.998;8.568;9.835
6473658.856;30.249;13.188;23.097;8.345;-15.944;9.127;12.144;14.231
6473658.864;32.298;13.448;25.742;11.064;-7.339;6.817;6.892;16.242
6473658.815;30.845;11.809;22.464;4.880;-12.778;0.745;-3.353;9.425
6473658.823;28.349;9.760;21.420;4.247;-10.617;5.253;3.874;8.494
6473658.831;27.977;8.307;21.383;8.754;-10.766;11.250;12.368;12.927
6473658.839;31.888;16.205;24.736;12.219;-13.560;11.139;12.442;14.752
6473658.847;33.751;12.815;27.232;6.557;-9.760;5.439;6.109;8.270
6473658.855;35.465;14.938;31.702;10.394;-2.384;4.433;3.725;7.339
6473658.863;28.200;9.388;22.799;6.519;-14.678;4.657;1.341;7.264
6473658.871;23.283;-1.043;19.297;-3.502;-15.013;5.588;0.075;11.884
6473658.879;26.561;-1.676;21.756;-4.619;-11.474;2.384;-0.075;10.580
6473658.887;20.675;-8.233;11.809;-5.253;-19.036;3.092;4.657;8.270
6473658.895;17.583;3.427;11.027;0.447;-19.222;4.284;7.972;11.623
6473658.903;34.496;16.727;19.595;4.582;-11.548;1.602;5.066;12.107
6473658.911;28.610;1.900;15.646;-5.700;-17.062;-1.825;2.161;6.557
6473658.919;26.338;-1.080;15.572;1.676;-10.468;3.241;8.345;9.462
6473658.927;41.239;21.085;28.573;17.770;2.682;12.778;16.168;19.111
6473658.935;40.829;16.056;29.430;11.884;-1.788;12.256;14.640;15.721
6473658.943;23.916;4.433;12.182;2.943;-14.156;12.480;11.250;14.789
6473658.951;22.165;-3.949;8.829;0.708;-12.219;22.575;18.030;23.767
6473658.959;23.991;-7.823;11.027;-0.075;-14.193;19.595;19.036;18.179
6473658.967;25.518;3.763;12.591;2.347;-9.015;8.382;10.990;7.637
6473658.975;28.163;12.703;15.534;4.657;-5.066;7.041;7.227;12.890
6473658.983;19.148;0.931;10.096;-4.917;-14.231;3.278;2.310;14.268
6473658.991;14.193;-9.835;6.035;-7.115;-18.328;3.427;3.949;16.764
6473658.999;22.985;-8.419;10.729;-3.576;-10.580;9.649;11.213;21.942
6473659.012;29.579;-6.147;16.578;1.565;-5.029;14.193;14.156;20.564
6473659.020;24.922;5.439;10.654;-3.502;-7.078;5.774;5.960;9.499
6473659.028;30.287;19.632;12.591;-1.043;-0.820;1.155;4.694;4.433
6473659.036;28.722;13.150;15.534;0.596;-0.745;1.639;3.986;5.662
6473659.044;22.613;0.112;10.766;-3.800;-6.817;6.147;5.215;8.680
6473659.052;14.827;-22.240;-2.906;-13.933;-17.546;5.551;5.998;6.855
6473659.060;13.821;-12.033;-6.147;-15.348;-17.956;1.192;4.768;6.370
6473659.068;19.930;8.568;2.049;-1.527;-12.740;0.782;4.619;5.923
6473659.076;16.987;9.201;-0.782;0.000;-14.380;4.619;7.711;9.052
6473659.084;14.678;-5.029;1.378;-5.290;-13.076;7.674;8.941;14.156
6473659.092;26.040;-3.949;6.668;-0.447;-10.096;9.835;12.815;17.211
6473659.100;24.475;-0.820;6.296;1.304;-8.084;9.723;13.150;14.752
6473659.108;17.546;3.949;0.224;0.782;-7.562;10.878;14.491;17.211
6473659.116;10.841;-5.774;-8.903;-7.004;-10.021;9.388;13.709;14.715
6473659.124;16.205;-1.341;-4.731;-6.370;-9.649;9.872;13.039;15.199
6473659.132;17.658;1.416;1.751;-2.682;-6.445;14.678;13.635;19.893
6473659.140;15.832;-8.233;-1.341;-3.055;-6.333;22.016;19.483;26.971
6473659.148;13.337;-3.986;-5.700;-1.490;-5.849;25.444;23.991;27.642
6473659.156;23.246;8.494;9.052;11.697;6.519;26.859;28.312;26.375
6473659.164;25.854;8.717;9.201;11.511;5.439;27.306;28.424;26.934
6473659.172;22.873;1.602;3.986;8.978;-0.186;27.791;27.902;29.914
6473659.180;21.793;0.410;3.353;8.121;0.559;24.959;27.567;28.461
6473659.188;27.791;13.188;8.568;16.987;6.147;25.518;31.218;27.008
6473659.196;34.831;21.160;22.128;26.338;17.509;31.851;36.061;33.192
6473659.189;35.949;20.415;22.687;25.742;15.944;32.485;35.614;35.204
6473659.197;32.708;17.658;18.068;22.650;9.723;27.083;32.857;29.244
6473659.205;31.888;15.795;17.323;19.707;6.296;28.126;34.645;28.759
6473659.213;24.289;8.941;8.829;18.589;1.565;29.318;31.255;28.126
6473659.221;24.028;19.558;8.121;21.793;4.396;33.043;34.086;31.851
6473659.229;28.946;25.891;15.013;23.395;5.811;32.149;34.161;34.533
6473659.237;40.904;26.450;26.822;33.267;16.168;34.124;37.253;40.047
6473659.245;39.935;25.593;28.796;30.212;17.546;33.863;36.582;40.680
6473659.253;30.026;15.087;22.873;21.011;10.021;29.691;35.092;34.012
6473659.261;22.314;14.491;15.534;24.214;-1.416;21.905;27.902;25.667
6473659.269;22.836;22.128;11.027;22.836;0.522;19.073;22.389;20.042
6473659.277;28.834;18.328;15.981;24.065;8.419;26.077;27.642;25.518
6473659.285;24.289;15.050;18.440;22.203;7.302;25.444;27.865;25.406
6473659.293;29.691;30.324;25.406;29.840;8.345;25.667;29.057;24.475
6473659.301;32.708;28.387;24.959;32.261;8.494;30.771;32.037;30.175
6473659.309;32.224;26.524;25.444;30.212;7.227;29.318;30.212;29.430
6473659.317;35.390;28.759;30.696;26.673;9.723;27.008;29.169;27.902
6473659.325;32.410;23.767;31.069;27.344;10.021;25.481;26.524;31.032
6473659.333;22.352;19.297;20.079;20.973;0.410;21.234;19.409;28.089
6473659.341;23.954;19.781;23.432;21.346;7.637;18.477;15.795;23.581
6473659.349;23.656;18.701;25.071;21.569;10.617;13.374;12.591;18.030
6473659.357;20.377;18.589;15.609;18.850;-0.335;9.649;10.990;15.423
6473659.365;21.234;18.738;18.887;19.521;-0.373;15.572;16.764;24.363
6473659.373;22.650;17.174;28.349;17.732;10.654;17.770;17.919;24.661
6473659.370;24.512;28.498;33.453;22.054;12.591;20.526;22.277;20.713
6473659.378;31.404;40.382;34.943;33.453;16.131;29.095;29.840;26.599
6473659.386;24.140;23.022;22.836;27.306;4.992;33.043;30.361;31.590
6473659.394;18.440;17.099;16.093;16.242;1.453;31.181;29.616;30.622
6473659.402;17.881;20.042;15.348;17.174;1.565;20.601;24.475;22.501
6473659.410;17.844;19.073;15.423;14.603;-4.582;12.591;18.477;15.609
6473659.418;15.646;16.727;18.366;17.062;-1.825;10.803;14.566;14.193
6473659.426;19.930;21.085;22.613;25.220;3.241;17.956;22.426;19.222
6473659.434;23.358;35.875;22.426;26.301;1.267;24.140;26.897;23.209
6473659.442;28.685;39.339;26.114;29.318;5.774;28.126;30.100;25.034
6473659.450;31.926;38.296;31.926;28.275;7.637;31.404;34.049;27.493
6473659.458;26.971;27.865;26.226;22.277;6.482;28.200;30.510;25.034
6473659.466;22.464;19.372;23.693;22.352;5.402;27.567;28.126;22.836
6473659.474;27.679;30.026;23.991;22.724;4.917;31.441;31.069;24.252
6473659.482;26.077;35.800;21.830;22.240;0.596;34.608;33.341;29.318
6473659.490;21.644;35.837;18.179;17.770;4.396;31.628;29.653;32.187
6473659.498;26.822;32.075;25.854;20.452;5.141;31.702;32.410;32.820
6473659.506;22.203;21.942;24.997;22.389;-4.768;29.504;28.498;29.057
6473659.514;19.632;22.352;20.377;18.626;-0.149;25.705;21.607;26.487
6473659.522;24.661;34.273;21.271;19.670;6.631;28.126;26.859;28.312
6473659.530;15.311;19.707;7.488;8.605;-9.462;23.507;21.979;22.575
6473659.538;10.729;20.526;6.966;8.531;-12.293;27.791;27.306;26.003
6473659.546;16.652;28.610;16.913;15.646;3.166;29.095;28.722;26.673
6473659.554;24.140;27.157;21.122;18.924;5.513;31.479;30.324;30.436
6473659.507;26.859;37.812;23.022;19.893;3.688;30.845;30.212;30.845
6473659.515;20.713;21.532;16.093;9.090;-1.900;27.791;28.983;26.301
6473659.523;22.016;31.069;15.758;12.852;0.224;31.218;32.708;30.361
6473659.531;26.859;35.577;22.836;20.303;9.723;35.018;33.416;35.353
6473659.539;28.312;33.788;28.573;17.695;16.652;34.086;30.361;34.757
6473659.547;29.765;34.049;25.071;18.068;17.136;32.373;28.051;34.608
6473659.555;28.498;40.047;23.805;18.105;12.256;24.475;24.587;26.301
6473659.563;20.154;31.926;19.073;11.437;8.233;12.182;15.087;13.597
6473659.571;20.228;28.722;16.913;12.890;14.417;18.738;18.179;20.899
6473659.579;27.604;25.965;23.283;19.558;17.993;22.165;18.701;25.667
6473659.587;28.983;27.716;26.487;16.727;19.148;21.569;19.744;22.687
6473659.595;32.447;43.400;23.097;20.899;15.423;26.077;29.057;23.991
6473659.603;28.610;40.047;19.819;17.807;18.068;31.143;35.241;29.914
6473659.611;26.636;32.894;20.526;19.893;24.475;35.204;38.296;37.365
6473659.619;27.679;34.682;18.775;23.022;18.105;32.634;37.141;35.502
6473659.627;29.355;40.457;18.030;18.403;9.313;24.810;29.244;26.636
6473659.635;27.902;36.880;18.850;15.870;13.076;23.134;25.518;28.312
6473659.643;29.728;32.596;20.638;20.042;24.214;30.361;30.585;34.310
6473659.651;40.531;52.787;28.498;31.665;30.585;40.233;36.657;37.923
6473659.659;40.717;51.260;28.312;30.249;29.840;40.233;37.886;35.763
6473659.667;38.408;43.027;26.301;29.318;32.037;36.955;39.786;30.510
6473659.675;30.287;44.852;23.022;24.848;23.209;28.796;31.926;24.177
6473659.683;37.625;48.541;23.954;27.195;24.214;32.745;35.837;28.573
6473659.691;44.256;48.652;29.467;33.528;31.032;42.096;46.305;37.402
6473659.744;41.127;43.511;26.748;29.579;30.510;41.574;43.437;41.127
6473659.752;31.814;40.084;16.801;25.146;20.415;35.465;37.029;38.035
6473659.760;28.498;39.823;8.307;20.489;11.846;31.926;32.820;32.224
6473659.768;34.235;36.769;15.721;22.389;19.632;35.726;34.757;33.826
6473659.776;34.794;34.645;20.452;19.781;25.183;36.992;32.373;37.551
6473659.784;38.892;44.443;22.016;28.871;31.367;39.227;39.451;35.167
6473659.792;33.565;32.559;20.266;26.897;24.401;34.049;38.855;26.859
6473659.800;32.112;38.333;16.354;26.189;20.489;25.928;34.198;21.048
6473659.808;31.888;39.898;16.391;22.985;24.177;23.060;33.267;21.011
6473659.816;30.249;36.471;12.331;25.220;23.283;24.512;29.840;23.656
6473659.824;33.900;39.451;14.938;23.656;26.710;28.722;31.292;27.977
6473659.832;31.106;29.691;17.211;14.715;34.049;28.051;29.616;29.765
6473659.840;23.842;22.650;9.015;13.709;20.303;25.779;26.077;25.816
6473659.848;26.785;29.467;11.362;24.997;23.991;33.118;36.433;32.783
6473659.856;30.696;47.497;21.085;27.418;35.688;33.602;40.382;34.124
6473659.864;37.178;46.045;25.928;30.547;40.457;28.647;33.267;29.169
6473659.872;39.004;47.684;27.344;32.373;35.577;32.783;35.986;33.453
6473659.880;37.514;44.592;25.295;33.677;33.751;39.935;43.511;39.339
6473659.888;40.308;45.449;25.630;38.184;37.290;35.651;43.176;34.422
6473659.896;34.384;36.843;19.707;29.504;34.943;29.653;37.886;28.610
6473659.904;28.610;44.070;13.895;31.255;25.854;27.046;34.235;28.461
6473659.912;36.992;48.019;24.289;36.769;27.306;28.871;33.863;33.788
6473659.920;34.869;41.910;26.599;28.871;25.667;29.802;31.441;34.459
6473659.928;35.614;45.039;27.306;34.571;32.485;37.253;39.339;40.196
6473659.927;36.806;43.437;29.132;42.096;35.204;46.678;47.274;48.727
6473659.935;42.953;49.099;28.163;45.449;30.734;45.747;47.758;49.025
6473659.943;44.182;50.515;30.994;41.239;32.336;37.923;41.164;43.809
6473659.951;47.274;52.676;39.302;39.227;39.451;33.230;37.067;38.706
6473659.959;43.251;55.134;33.863;41.090;37.439;27.120;31.851;30.547
6473659.967;47.982;52.266;39.712;46.119;39.749;28.238;35.577;29.132
6473659.975;51.111;57.407;43.437;49.211;40.196;33.304;41.761;31.255
6473659.983;56.140;68.918;45.411;59.903;40.606;40.606;47.535;36.433
6473659.991;52.117;58.636;44.368;47.274;35.912;37.998;43.362;35.316
6473659.999;56.326;67.428;55.097;55.358;46.827;40.196;44.778;37.514
6473660.007;64.969;67.279;60.163;60.759;49.956;45.747;46.827;42.468
6473660.015;52.415;49.397;44.219;52.564;39.861;42.915;42.394;41.686
6473660.023;38.669;51.521;30.026;51.372;26.152;35.800;39.563;35.167
6473660.031;51.893;59.307;46.864;52.787;37.812;36.471;45.635;35.428
6473660.039;67.912;74.469;59.605;64.746;51.148;39.041;49.248;38.072
6473660.047;62.101;74.096;54.836;60.983;41.313;34.496;39.674;34.757
6473660.055;50.031;48.056;49.546;48.429;41.537;30.547;32.745;32.485
6473660.063;49.099;55.954;48.317;48.243;41.015;35.167;39.861;33.975
6473660.071;49.546;60.834;47.050;48.466;34.906;43.474;46.194;37.886
6473660.079;51.446;61.318;48.466;55.209;35.204;45.300;44.405;42.431
6473660.087;58.226;64.075;57.146;62.436;44.405;46.492;45.411;45.598
6473660.095;60.163;64.224;57.444;58.897;45.411;40.270;43.660;39.749
6473660.103;53.719;54.091;47.646;53.868;38.110;38.594;45.002;39.265
6473660.111;53.681;58.785;47.497;55.842;43.511;42.729;51.968;42.468
6473660.181;48.839;60.499;44.778;50.776;34.757;32.894;41.574;34.235
6473660.189;53.719;47.162;54.576;48.578;35.316;27.716;33.490;30.324
6473660.197;53.942;37.774;58.003;51.223;42.133;35.278;38.184;38.184
6473660.205;59.418;62.510;58.524;55.842;42.804;41.835;43.772;42.766
6473660.213;59.716;69.216;59.977;55.507;48.541;40.382;40.382;41.053
6473660.221;59.977;62.473;57.071;54.650;46.343;40.568;38.743;42.133
6473660.229;60.461;56.662;56.848;63.665;46.901;40.680;37.886;42.096
6473660.237;58.264;47.721;57.742;57.556;44.592;37.551;34.422;38.147
6473660.245;56.215;50.664;59.009;49.435;40.680;37.998;35.986;38.967
6473660.253;59.865;58.934;56.326;51.968;35.577;40.419;43.362;40.196
6473660.261;58.748;55.619;54.985;52.191;39.525;37.774;41.537;35.316
6473660.269;63.330;55.619;57.742;54.240;46.678;36.731;41.910;32.336
6473660.277;64.261;50.701;60.685;51.297;46.715;34.608;39.637;31.702
6473660.285;67.763;62.138;62.771;56.289;42.096;35.651;40.270;35.651
6473660.293;54.277;50.068;45.858;41.835;29.728;32.112;33.826;33.453
6473660.301;50.366;48.541;49.509;33.155;33.304;31.479;31.479;33.937
6473660.309;64.969;65.900;65.006;48.392;54.501;41.090;43.325;41.313
6473660.317;60.163;67.726;63.218;51.260;55.283;40.978;44.405;39.674
6473660.325;63.218;76.257;67.204;54.613;61.356;38.221;40.717;40.121
6473660.333;91.121;115.372;101.663;83.707;104.532;34.496;37.923;38.296
6473660.341;151.321;189.357;166.669;145.733;183.620;39.749;42.655;42.617
6473660.349;231.601;279.918;242.516;201.836;274.032;47.721;51.633;46.603
6473660.357;319.965;381.544;344.105;261.664;393.689;44.592;50.515;43.288
6473660.365;399.612;478.663;438.131;306.964;504.926;44.592;49.435;45.337
6473660.405;476.912;555.553;523.664;332.445;613.481;48.876;49.174;47.870
6473660.413;531.450;590.719;583.529;335.239;699.721;58.264;56.885;57.109
6473660.421;572.950;642.650;619.292;330.918;758.916;56.326;55.060;56.662
6473660.429;592.433;646.524;645.407;302.419;795.536;46.417;43.623;50.105
6473660.437;583.306;614.077;637.844;268.407;798.330;34.235;32.969;42.133
6473660.445;567.138;587.478;618.920;224.225;792.816;18.291;15.497;26.897
6473660.453;538.751;546.128;595.227;179.298;783.205;10.096;3.129;18.291
6473660.461;516.735;508.390;571.161;155.643;764.318;13.486;7.525;18.552
6473660.469;485.368;466.146;538.267;128.746;723.265;23.060;17.025;27.157
6473660.477;448.450;412.650;504.032;99.614;667.721;23.209;16.242;28.647
6473660.485;403.672;357.255;455.417;56.140;602.007;21.197;12.368;26.748
6473660.493;371.672;320.487;410.452;33.490;548.512;22.762;17.099;28.312
6473660.501;318.401;248.402;346.676;-15.572;466.704;17.136;13.523;26.077
6473660.509;267.886;192.709;286.624;-57.183;395.328;7.041;1.900;18.254
6473660.517;229.031;146.925;238.828;-81.621;332.855;13.150;10.282;21.495
6473660.525;207.871;106.432;209.287;-97.938;290.386;17.323;14.603;21.607
6473660.533;198.074;108.182;195.429;-97.938;274.107;14.678;8.084;17.434
6473660.541;175.759;85.421;168.681;-114.366;243.820;10.766;3.576;10.021
6473660.549;152.960;60.461;143.759;-126.623;209.585;7.488;-0.782;5.290
6473660.557;137.426;45.486;123.344;-137.389;180.714;11.139;5.364;7.823
6473660.565;130.981;36.135;115.149;-133.365;171.140;20.191;15.013;18.775
6473660.573;134.930;39.041;112.876;-129.044;173.002;30.026;24.363;28.685
6473660.581;126.548;28.238;111.945;-137.202;154.078;36.433;27.828;31.888
6473660.589;117.980;38.929;99.652;-138.618;137.500;37.476;26.226;34.533
6473660.629;115.745;38.818;91.866;-137.426;131.801;38.855;28.983;38.520
6473660.637;110.045;15.721;84.378;-144.579;121.668;35.316;27.604;35.614
6473660.645;101.812;4.880;73.984;-139.214;111.796;31.590;26.152;30.473
6473660.653;99.801;10.841;71.004;-131.577;106.916;31.218;26.487;25.183
6473660.661;98.869;11.884;75.176;-127.107;110.380;34.310;30.771;25.667
6473660.669;108.667;35.428;90.264;-121.295;135.005;33.528;26.301;27.195
6473660.677;138.357;80.317;123.493;-90.189;181.831;41.239;31.814;37.588
6473660.685;189.133;135.414;180.714;-52.005;254.437;47.535;41.500;45.933
6473660.693;264.496;217.706;266.619;-8.382;360.273;54.240;50.068;54.426
6473660.701;372.753;327.751;382.885;71.861;494.905;58.785;53.570;60.014
6473660.709;450.611;432.543;470.392;157.543;589.900;65.491;58.562;64.448
6473660.717;508.614;529.252;528.693;224.300;635.237;74.767;70.147;69.924
6473660.725;511.296;531.822;537.708;241.287;632.443;68.583;63.255;66.720
6473660.733;482.649;496.730;509.322;234.954;586.882;58.934;52.936;61.467
6473660.741;454.076;475.459;473.782;233.985;530.332;60.610;56.922;57.742
6473660.749;425.726;427.738;438.541;216.104;474.565;65.975;64.895;60.834
6473660.757;381.358;374.578;386.871;192.486;415.184;64.746;64.634;61.467
6473660.765;329.949;312.701;336.394;155.233;349.991;58.860;58.226;54.948
6473660.773;290.833;247.397;300.668;115.335;304.431;59.120;58.971;56.922
6473660.781;266.172;221.431;264.756;100.620;264.309;66.422;64.671;65.304
6473660.789;245.422;213.198;244.007;91.381;234.470;67.763;63.479;66.981
6473660.797;238.158;191.256;237.711;92.611;224.747;81.509;74.171;80.727
6473660.805;230.148;179.112;227.131;89.854;206.307;89.854;80.615;88.178
6473660.813;214.763;155.792;213.534;74.357;182.465;89.779;83.409;89.556
6473660.795;194.721;126.772;192.188;56.103;162.236;84.713;80.355;84.676
6473660.803;182.502;121.109;173.859;57.258;152.476;88.252;82.366;86.166
6473660.811;174.530;119.358;165.477;57.407;136.308;87.209;80.988;83.372
6473660.819;156.090;96.038;154.898;48.205;121.146;80.690;77.039;76.890
6473660.827;148.714;94.771;139.512;39.600;100.322;86.129;84.490;79.684
6473660.835;143.610;82.031;134.632;32.187;90.115;85.868;85.123;77.747
6473660.843;146.814;92.424;145.286;40.866;92.164;85.533;85.756;76.965
6473660.851;129.640;67.279;132.732;30.138;84.341;78.082;78.641;69.328
6473660.859;111.125;51.819;109.188;26.003;73.165;77.188;75.176;69.998
6473660.867;124.946;70.594;121.146;35.353;69.030;80.951;78.492;76.033
6473660.875;129.715;70.482;122.637;31.777;61.132;75.288;74.953;72.196
6473660.883;114.329;61.616;107.475;28.312;59.940;69.961;71.377;64.783
6473660.891;121.817;68.396;126.846;33.900;73.686;69.737;70.557;62.995
6473660.899;133.254;84.937;137.836;47.125;81.919;71.004;70.930;67.353
6473660.907;156.313;115.894;156.164;80.019;107.661;80.653;77.263;77.635
6473660.915;192.709;161.454;189.319;114.143;153.333;81.994;78.529;80.056
6473660.923;227.392;201.650;223.033;143.871;205.562;78.157;74.580;77.039
6473660.931;278.391;271.164;285.432;183.545;262.484;69.402;65.491;68.694
6473660.939;362.210;382.811;378.340;259.094;358.000;69.253;67.167;67.763
6473660.947;421.405;453.964;447.296;309.683;452.213;70.073;68.396;66.310
6473660.955;474.826;530.928;486.448;357.851;492.260;78.641;76.629;73.351
6473660.963;501.573;558.048;519.119;381.470;522.770;92.499;91.381;84.937
6473660.971;528.991;587.441;547.394;421.777;547.469;101.961;103.973;92.350
6473660.979;514.872;565.238;536.814;416.636;531.077;99.465;102.371;88.848
6473661.006;487.193;544.898;503.026;390.038;492.297;91.344;90.897;81.025
6473661.014;446.327;491.776;459.254;349.171;447.631;86.389;85.793;76.257
6473661.022;392.832;409.409;408.255;295.043;389.740;79.609;79.870;71.339
6473661.030;339.709;342.205;353.269;249.855;328.943;75.400;74.953;68.508
6473661.038;309.274;302.978;311.881;211.783;292.771;69.104;67.167;63.032
6473661.046;280.514;269.264;283.681;186.376;262.149;65.416;60.871;56.587
6473661.054;250.451;223.257;250.489;165.366;221.990;65.379;61.281;56.215
6473661.062;216.961;170.544;212.938;126.883;179.298;63.963;59.344;55.693
6473661.070;200.234;150.129;196.546;117.868;153.743;68.955;64.932;60.946
6473661.078;188.053;149.757;185.221;112.914;143.982;72.420;68.471;65.677
6473661.086;164.546;115.633;166.371;89.221;121.593;67.130;62.324;57.891
6473661.094;147.074;103.377;140.518;76.815;99.242;63.218;58.413;51.819
6473661.102;132.956;85.868;120.513;72.829;79.758;65.044;60.499;53.868
6473661.110;109.188;66.459;96.373;50.962;47.348;58.711;50.664;49.807
6473661.118;96.709;45.449;87.395;39.116;41.761;57.556;47.460;46.976
6473661.126;80.653;20.266;72.159;36.433;31.292;58.562;51.558;45.858
6473661.134;73.686;7.227;62.585;26.412;11.399;57.779;53.570;44.815
6473661.142;69.402;7.711;53.607;22.314;2.161;57.183;52.452;45.672
6473661.150;56.066;5.662;42.543;7.749;-6.594;52.899;46.901;39.823
6473661.158;36.508;-23.954;22.314;-7.451;-30.771;48.056;42.580;35.614
6473661.166;26.934;-30.659;12.703;-5.849;-37.253;51.484;47.088;40.419
6473661.174;25.965;-36.508;8.307;-6.557;-34.608;53.830;49.323;43.064
6473661.182;28.312;-48.801;15.385;-12.778;-30.771;62.250;57.295;47.795
6473661.190;24.401;-36.620;11.139;-9.909;-31.143;62.659;59.307;45.337
6473661.169;18.366;-47.386;-4.359;-9.388;-48.205;60.350;54.203;45.039
6473661.177;13.113;-46.194;-6.892;-6.743;-53.123;62.622;58.748;44.554
6473661.185;15.721;-53.346;-10.282;-16.689;-53.570;56.736;56.997;36.620
6473661.193;-0.745;-65.677;-25.854;-29.765;-69.514;51.707;51.893;34.645
6473661.201;-5.811;-72.457;-20.489;-35.167;-69.030;42.692;41.239;31.106
6473661.209;-13.933;-80.317;-34.422;-42.468;-82.366;37.402;33.043;25.593
6473661.217;-22.538;-90.562;-45.411;-45.598;-94.846;37.588;34.124;23.022
6473661.225;-22.054;-95.926;-46.454;-43.213;-96.895;39.972;38.669;22.724
6473661.233;-18.217;-85.756;-45.598;-39.376;-87.470;41.462;41.537;22.799
6473661.241;-14.827;-87.097;-45.709;-42.617;-85.309;45.784;43.288;27.455
6473661.249;-19.372;-89.929;-44.517;-44.890;-77.561;50.254;45.635;33.565
6473661.257;-26.338;-104.606;-51.931;-52.080;-85.644;48.466;46.119;31.255
6473661.265;-22.650;-96.634;-50.031;-51.595;-93.170;43.735;42.617;24.512
6473661.273;-25.705;-92.983;-51.744;-48.243;-88.550;40.196;38.631;21.756
6473661.281;-33.006;-92.611;-60.424;-48.615;-89.929;34.422;32.745;16.056
6473661.289;-26.859;-74.506;-57.109;-34.273;-82.068;29.765;27.306;13.597
6473661.297;-3.129;-48.093;-29.951;-12.703;-48.876;32.671;29.802;15.907
6473661.305;28.722;-13.970;1.676;12.591;-4.396;34.980;33.304;17.285
6473661.313;80.243;51.223;54.911;64.634;62.361;39.898;37.551;21.905
6473661.321;146.367;137.202;129.826;125.207;144.355;37.178;34.012;21.644
6473661.329;220.053;244.528;205.636;194.423;233.613;41.127;39.674;24.028
6473661.337;273.921;317.432;268.184;247.099;297.651;46.752;46.603;26.524
6473661.345;334.233;387.952;326.745;296.198;357.367;52.042;51.185;33.453
6473661.353;374.988;427.812;369.698;333.488;400.804;55.619;52.862;38.892
6473661.290;379.644;445.880;376.552;354.946;399.128;51.223;47.050;35.986
6473661.298;390.112;466.257;380.985;364.743;395.887;53.756;51.148;37.365
6473661.306;394.173;475.794;379.011;378.527;393.055;57.220;57.891;41.537
6473661.314;360.310;422.560;343.807;340.380;355.020;56.662;57.220;39.712
6473661.322;319.853;365.898;294.559;294.819;306.852;56.177;55.395;41.984
6473661.330;278.093;311.323;247.844;249.818;257.306;49.546;48.876;36.731
6473661.338;247.657;259.392;221.618;210.740;222.996;49.472;47.609;31.777
6473661.346;214.763;212.044;184.029;178.628;177.212;45.151;38.743;25.183
6473661.354;181.682;167.191;147.820;150.315;137.798;46.231;36.620;23.842
6473661.362;162.274;150.166;125.021;127.628;113.510;42.617;33.043;20.266
6473661.370;145.473;118.501;101.961;106.357;89.556;40.233;33.528;18.887
6473661.378;119.619;75.847;77.076;85.011;64.261;39.563;33.788;18.366
6473661.386;102.445;74.990;52.489;75.325;35.502;39.749;33.714;21.346
6473661.394;90.525;68.247;40.866;78.082;26.003;50.515;46.305;32.037
6473661.402;76.331;36.471;29.132;63.963;14.827;53.383;45.337;35.614
6473661.410;50.142;5.215;1.602;32.708;-10.990;39.749;27.753;21.271
6473661.418;28.908;-15.795;-21.011;22.873;-34.943;31.963;21.756;13.895
6473661.426;14.715;-22.165;-39.563;18.850;-49.286;26.599;20.154;9.798
6473661.434;11.958;-28.685;-39.004;19.334;-51.111;30.547;24.624;15.423
6473661.442;-2.235;-51.595;-47.870;1.825;-59.605;33.490;27.083;17.807
6473661.450;-17.285;-69.365;-64.410;-11.474;-80.243;30.138;24.550;13.374
6473661.458;-20.936;-71.153;-74.022;-9.276;-87.544;27.679;23.209;11.884
6473661.466;-24.475;-76.294;-77.933;-9.015;-92.275;25.891;22.464;13.076
6473661.474;-29.840;-79.125;-85.644;-13.337;-100.210;21.420;17.844;9.127
6473661.499;-34.869;-93.691;-91.307;-22.277;-106.804;21.383;17.732;9.015
6473661.507;-46.194;-92.350;-100.136;-24.214;-115.372;24.028;17.434;11.995
6473661.515;-50.142;-94.697;-102.483;-23.805;-116.080;26.599;18.403;13.784
6473661.523;-57.742;-107.102;-108.294;-34.757;-123.046;23.544;17.993;11.697
6473661.531;-61.691;-123.903;-109.188;-46.529;-124.872;20.079;15.534;11.735
6473661.539;-68.285;-123.642;-111.535;-46.566;-125.654;14.231;11.027;6.407
6473661.547;-67.055;-112.802;-115.000;-45.188;-134.334;10.431;6.296;2.570
6473661.555;-66.645;-110.231;-119.247;-45.821;-135.489;9.649;6.258;0.335
6473661.563;-69.924;-124.238;-118.203;-46.566;-136.122;11.064;9.537;0.373
6473661.571;-77.859;-133.328;-122.897;-46.194;-145.212;12.442;12.256;2.384
6473661.579;-82.888;-137.724;-133.999;-50.180;-152.737;13.970;11.623;3.576
6473661.587;-88.178;-142.939;-135.601;-59.940;-154.562;14.007;10.058;2.235
6473661.595;-88.438;-137.202;-133.440;-58.562;-158.064;10.580;7.264;-0.596
6473661.603;-86.427;-133.775;-136.271;-49.546;-156.239;10.207;8.121;0.298
6473661.611;-90.487;-143.908;-133.105;-52.974;-150.762;14.044;10.245;4.321
6473661.619;-91.456;-147.037;-130.087;-60.312;-153.445;14.715;9.574;3.949
6473661.627;-93.319;-148.229;-138.097;-68.136;-160.672;12.517;7.562;2.943
6473661.635;-91.717;-135.303;-136.755;-60.126;-160.523;21.085;16.019;10.170
6473661.643;-94.138;-140.332;-138.059;-64.969;-158.213;20.638;14.752;9.947
6473661.651;-99.950;-144.728;-143.163;-67.577;-158.437;18.217;14.603;6.519
6473661.659;-94.324;-133.850;-139.773;-58.785;-156.350;18.999;15.870;6.407
6473661.667;-86.464;-134.148;-130.460;-60.424;-152.141;14.231;11.586;2.757
6473661.675;-90.450;-145.361;-134.893;-71.079;-156.425;8.866;6.668;-1.192
6473661.683;-99.018;-146.218;-146.106;-74.953;-165.552;5.253;0.000;-3.800
6473661.695;-95.442;-139.363;-142.269;-68.061;-169.240;8.121;-1.155;-0.224
6473661.703;-86.799;-131.130;-131.242;-68.955;-156.537;9.537;0.671;3.129
6473661.711;-74.506;-123.084;-115.596;-58.562;-136.308;9.760;3.874;2.421
6473661.719;-76.406;-124.834;-118.688;-57.295;-141.934;9.649;6.109;0.224
6473661.727;-87.097;-144.690;-131.577;-76.704;-151.694;5.923;2.906;-5.588
6473661.735;-104.494;-161.007;-150.651;-84.713;-165.179;-0.373;-4.135;-9.462
6473661.743;-105.314;-146.553;-154.003;-78.380;-172.704;-4.433;-8.158;-10.468
6473661.751;-105.165;-145.622;-155.084;-77.039;-172.406;-7.898;-12.405;-14.193
6473661.759;-107.288;-152.849;-154.190;-89.556;-171.289;-7.488;-13.113;-12.256
6473661.767;-111.163;-161.566;-158.548;-95.628;-171.550;-6.482;-11.139;-10.617
6473661.775;-103.116;-147.149;-148.155;-81.025;-163.876;0.820;-2.757;-5.998
6473661.783;-98.497;-138.730;-137.910;-73.798;-160.895;3.092;0.373;-6.594
6473661.791;-101.440;-147.335;-145.473;-84.341;-163.503;-1.378;-4.396;-10.207
6473661.799;-104.047;-152.774;-152.774;-90.450;-168.495;-4.247;-4.992;-13.486
6473661.807;-100.508;-148.080;-150.576;-85.905;-165.664;-4.135;-1.229;-13.746
6473661.815;-100.434;-145.845;-150.055;-83.596;-164.323;-4.172;-1.565;-12.703
6473661.823;-107.065;-147.745;-156.350;-86.091;-173.636;-6.221;-6.706;-14.491
6473661.831;-113.994;-157.356;-160.746;-96.895;-175.200;-10.170;-16.093;-16.950
6473661.839;-114.739;-165.403;-161.529;-99.912;-174.008;-13.299;-20.936;-19.521
6473661.847;-104.457;-148.676;-159.107;-88.736;-165.813;-10.431;-16.466;-17.174
6473661.855;-108.071;-150.353;-158.660;-92.126;-164.248;-11.399;-15.050;-16.429
6473661.863;-113.584;-158.921;-165.254;-97.379;-175.312;-10.580;-12.405;-18.291
6473661.871;-111.684;-154.339;-164.770;-92.760;-176.094;-11.139;-10.580;-19.446
6473661.879;-107.288;-146.367;-161.715;-84.080;-171.959;-9.350;-11.027;-14.789
6473661.860;-113.063;-157.580;-163.428;-92.387;-169.314;-13.411;-18.030;-18.924
6473661.868;-114.590;-158.511;-164.695;-93.207;-167.601;-11.995;-17.174;-20.787
6473661.876;-104.681;-141.747;-158.548;-84.080;-159.666;-8.717;-14.342;-18.701
6473661.884;-101.775;-140.220;-151.582;-82.925;-158.660;-6.333;-13.448;-15.125
6473661.892;-107.102;-144.430;-158.064;-84.117;-158.288;-6.296;-12.107;-13.821
6473661.900;-108.965;-148.788;-156.723;-89.295;-157.952;-9.313;-15.013;-17.323
6473661.908;-97.752;-141.338;-144.392;-86.389;-147.782;-7.600;-13.076;-17.658
6473661.916;-102.445;-138.991;-150.986;-86.650;-151.768;-10.803;-14.268;-21.234
6473661.924;-101.551;-144.839;-152.402;-93.505;-155.829;-10.654;-13.150;-18.477
6473661.932;-95.814;-134.706;-148.527;-83.596;-147.335;-7.078;-8.382;-15.274
6473661.940;-105.798;-138.506;-155.643;-82.329;-152.402;-8.307;-8.568;-16.019
6473661.948;-104.904;-146.627;-152.588;-86.240;-153.668;-5.849;-8.121;-14.901
6473661.956;-103.787;-138.208;-151.582;-88.699;-142.753;-6.594;-10.058;-17.062
6473661.964;-106.469;-146.106;-154.190;-92.834;-143.051;-10.394;-14.789;-20.713
6473661.972;-103.638;-141.896;-158.176;-85.160;-147.186;-8.382;-10.356;-19.297
6473661.980;-111.759;-153.892;-167.377;-92.424;-157.692;-11.139;-11.586;-20.787
6473661.988;-117.868;-161.603;-169.426;-102.371;-163.130;-13.970;-15.609;-22.873
6473661.996;-116.602;-144.579;-168.383;-95.181;-161.603;-11.325;-15.348;-21.569
6473662.004;-113.025;-142.641;-170.730;-91.307;-153.221;-13.411;-19.819;-23.544
6473662.012;-109.822;-149.533;-163.205;-94.920;-148.341;-14.007;-22.277;-22.314
6473662.020;-110.492;-153.109;-163.838;-99.465;-149.272;-12.219;-18.999;-21.346
6473662.028;-109.002;-148.565;-166.558;-95.181;-152.625;-10.654;-15.609;-21.942
6473662.036;-107.288;-151.582;-160.784;-94.995;-148.006;-11.399;-17.174;-22.873
6473662.044;-112.429;-144.392;-157.058;-93.430;-139.661;-17.732;-23.395;-27.306
6473662.068;-118.278;-139.922;-165.105;-99.801;-142.828;-21.383;-27.716;-29.318
6473662.076;-103.787;-135.452;-155.605;-99.503;-131.503;-23.916;-29.579;-30.249
6473662.084;-93.021;-131.689;-146.031;-94.995;-117.682;-27.679;-33.118;-31.032
6473662.092;-91.903;-143.796;-140.145;-105.985;-103.787;-30.585;-35.167;-33.863
6473662.100;-83.372;-138.357;-131.987;-106.469;-96.932;-30.883;-32.932;-34.906
6473662.108;-82.813;-132.360;-125.207;-106.543;-89.556;-33.453;-35.353;-37.253
6473662.116;-83.372;-125.132;-129.417;-107.065;-92.871;-31.702;-33.677;-35.502
6473662.124;-86.874;-128.299;-134.856;-104.606;-98.385;-28.946;-31.404;-31.777
6473662.132;-91.419;-138.432;-144.094;-108.145;-112.876;-28.908;-29.616;-29.653
6473662.140;-102.222;-155.941;-154.227;-119.954;-116.304;-33.453;-33.341;-34.608
6473662.148;-107.400;-159.405;-163.168;-132.993;-124.462;-32.783;-35.577;-35.763
6473662.156;-112.318;-153.817;-168.830;-123.382;-131.316;-30.547;-35.390;-35.241
6473662.164;-109.822;-152.476;-169.687;-118.501;-128.970;-27.530;-33.937;-32.745
6473662.172;-112.951;-156.052;-165.030;-120.774;-130.162;-26.524;-32.075;-31.479
6473662.180;-116.564;-157.505;-166.409;-122.897;-129.566;-22.724;-26.934;-27.679
6473662.188;-111.721;-156.425;-163.689;-121.035;-123.121;-12.182;-15.385;-19.297
6473662.196;-114.553;-158.809;-165.999;-115.000;-125.617;-7.376;-12.852;-14.864
6473662.204;-112.355;-152.662;-168.420;-114.255;-126.176;-11.437;-18.142;-14.156
6473662.212;-115.186;-163.279;-163.503;-118.129;-127.628;-16.056;-21.309;-15.907
6473662.220;-115.149;-149.496;-161.417;-112.355;-127.517;-21.122;-24.848;-20.638
6473662.228;-110.865;-143.982;-160.746;-106.804;-119.880;-25.220;-28.461;-24.363
6473662.236;-110.827;-148.714;-156.425;-107.139;-114.776;-26.673;-29.914;-26.450
6473662.244;-101.738;-132.993;-144.392;-98.236;-100.508;-26.003;-30.361;-25.667
6473662.252;-83.409;-101.067;-126.585;-72.531;-77.300;-19.781;-23.693;-19.111
6473662.208;-55.060;-63.404;-94.138;-42.729;-36.247;-13.113;-15.646;-13.076
6473662.216;-1.788;3.800;-33.341;2.645;36.545;-15.236;-16.764;-14.193
6473662.224;60.499;88.103;31.441;47.199;120.103;-18.254;-21.905;-16.205
6473662.232;127.293;161.640;106.171;87.991;212.975;-15.832;-21.867;-12.070
6473662.240;193.343;230.707;180.639;126.585;307.597;-12.964;-19.483;-5.886
6473662.248;264.347;307.895;259.615;160.635;404.343;-13.523;-19.819;-5.998
6473662.256;325.143;377.372;330.582;196.248;477.470;-10.878;-17.509;-3.986
6473662.264;342.838;407.621;349.022;195.019;500.269;-12.517;-20.005;-6.221
6473662.272;357.851;418.425;358.485;200.793;520.609;-14.342;-21.346;-6.035
6473662.280;382.476;437.014;386.834;216.365;556.521;-11.437;-19.185;-4.098
6473662.288;371.933;429.526;381.880;207.834;552.013;-4.247;-15.758;2.459
6473662.296;370.480;438.206;378.415;208.952;542.477;-0.373;-13.188;7.041
6473662.304;360.906;398.941;363.775;182.688;525.452;1.155;-12.442;6.631
6473662.312;314.340;338.554;320.598;138.134;474.714;-7.674;-21.532;-0.745
6473662.320;275.485;298.470;280.626;110.380;431.612;-11.958;-25.071;-4.061
6473662.328;237.338;250.787;243.224;84.974;384.152;-11.176;-22.203;-4.843
6473662.336;215.806;221.170;218.116;73.314;341.497;-14.529;-22.203;-9.239
6473662.344;184.365;181.757;182.539;49.397;289.567;-23.469;-28.946;-17.621
6473662.352;145.920;118.278;144.020;18.030;241.622;-30.398;-35.204;-23.469
6473662.360;118.650;106.320;109.896;-0.931;197.105;-33.751;-39.041;-26.673
6473662.368;104.792;108.741;90.264;-7.674;171.103;-28.573;-36.396;-23.618
6473662.376;84.229;57.928;75.586;-25.891;149.906;-18.068;-26.003;-15.311
6473662.384;64.149;35.465;51.484;-36.471;119.023;-13.933;-21.160;-9.760
6473662.392;46.939;20.862;27.642;-40.010;97.752;-11.623;-18.701;-6.706
6473662.417;18.552;-17.621;-0.037;-57.183;65.193;-15.199;-21.830;-10.654
6473662.425;-10.878;-29.840;-28.722;-83.968;25.779;-23.283;-29.728;-18.589
6473662.433;-27.269;-57.593;-50.999;-100.620;0.782;-18.179;-26.375;-17.509
6473662.441;-31.404;-68.247;-58.599;-100.136;-7.004;-17.844;-26.897;-22.985
6473662.449;-45.113;-88.252;-72.420;-104.755;-23.060;-15.348;-25.816;-24.363
6473662.457;-62.175;-102.296;-92.499;-114.478;-33.155;-17.658;-26.673;-26.748
6473662.465;-69.365;-104.457;-99.503;-122.227;-41.500;-25.071;-31.069;-29.616
6473662.473;-66.943;-108.182;-97.379;-123.940;-53.160;-22.873;-26.487;-22.165
6473662.481;-72.680;-111.051;-104.234;-121.705;-65.677;-17.993;-19.893;-17.844
6473662.489;-81.249;-115.149;-116.974;-115.037;-76.033;-14.268;-13.858;-16.391
6473662.497;-92.387;-132.881;-130.497;-124.797;-85.756;-17.732;-17.732;-19.819
6473662.505;-103.563;-149.384;-139.661;-138.655;-95.367;-18.142;-21.569;-21.048
6473662.513;-110.082;-158.399;-145.026;-146.963;-105.500;-17.099;-23.171;-20.713
6473662.521;-123.903;-158.474;-161.417;-153.817;-131.167;-14.715;-20.489;-21.271
6473662.529;-121.668;-161.193;-161.231;-151.508;-123.866;-8.978;-12.666;-18.477
6473662.537;-92.350;-140.741;-125.170;-140.890;-79.609;-7.004;-12.442;-12.740
6473662.545;-81.696;-132.769;-108.369;-155.680;-61.356;-15.758;-23.209;-15.944
6473662.553;-70.632;-142.977;-98.608;-176.616;-43.549;-28.983;-36.806;-24.624
6473662.561;-53.681;-121.295;-91.009;-188.872;-29.616;-36.918;-42.804;-30.175
6473662.569;-28.647;-84.266;-67.204;-180.937;-7.786;-36.545;-41.611;-31.926
6473662.577;-12.740;-71.377;-45.411;-177.100;11.958;-33.863;-39.004;-28.834
6473662.585;-12.890;-92.313;-57.667;-194.870;14.491;-37.439;-45.821;-30.287
6473662.593;-24.326;-108.220;-75.772;-205.413;-9.499;-44.815;-54.203;-37.998
6473662.601;-25.779;-101.551;-78.641;-197.552;-16.317;-44.517;-51.260;-39.414
6473662.596;-66.720;-135.787;-133.850;-214.651;-69.179;-31.292;-43.735;-25.481
6473662.604;-70.930;-123.419;-136.159;-212.528;-66.906;-27.455;-41.202;-20.228
6473662.612;-69.402;-140.928;-128.709;-211.447;-67.316;-26.003;-39.227;-19.446
6473662.620;-71.637;-133.626;-134.110;-210.926;-79.460;-28.200;-40.494;-20.750
6473662.628;-75.772;-139.512;-135.824;-208.728;-80.429;-35.316;-44.480;-26.003
6473662.636;-68.918;-122.637;-134.483;-207.648;-69.849;-42.543;-48.056;-34.459
6473662.644;-66.794;-133.701;-135.824;-207.052;-70.184;-36.135;-39.712;-29.318
6473662.652;-62.287;-127.219;-133.328;-200.383;-73.500;-32.894;-36.769;-25.295
6473662.660;-65.826;-121.966;-140.406;-198.521;-80.131;-37.849;-44.405;-29.318
6473662.668;-65.379;-118.129;-133.440;-194.274;-75.139;-38.892;-46.790;-30.734
6473662.676;-59.791;-115.223;-125.878;-195.540;-64.895;-36.284;-46.305;-29.430
6473662.684;-57.332;-111.274;-129.715;-196.770;-66.347;-26.859;-37.700;-21.458
6473662.692;-55.507;-115.894;-121.184;-192.411;-69.775;-27.679;-39.302;-23.395
6473662.700;-61.765;-122.301;-133.999;-202.022;-74.916;-29.467;-40.717;-25.779
6473662.708;-65.751;-133.850;-137.687;-200.458;-71.116;-34.645;-44.517;-27.530
6473662.716;-67.204;-136.122;-134.185;-204.183;-75.847;-35.837;-45.635;-27.232
6473662.724;-60.983;-125.654;-132.509;-201.054;-75.772;-37.216;-45.970;-29.579
6473662.732;-66.385;-118.464;-133.477;-195.913;-74.059;-37.961;-46.305;-31.777
6473662.740;-72.122;-133.365;-143.833;-195.913;-75.251;-32.745;-42.357;-27.046
6473662.748;-55.954;-115.782;-124.425;-181.049;-56.028;-29.802;-39.078;-20.787
6473662.756;77.710;66.012;27.306;-27.642;110.082;-23.618;-28.983;-17.844
6473662.764;145.361;151.061;100.955;52.974;175.051;-17.807;-20.564;-12.033
6473662.772;217.706;235.178;189.282;141.822;260.361;-7.525;-8.792;-4.359
6473662.780;300.817;350.028;267.737;230.856;341.050;6.929;8.903;8.531
6473662.807;350.662;432.022;320.822;306.219;377.223;18.813;24.177;19.968
6473662.815;361.986;452.548;343.993;333.413;383.221;13.933;20.452;15.087
6473662.823;343.285;446.476;320.412;345.185;339.784;10.021;16.168;10.133
6473662.831;300.221;393.763;262.745;331.476;266.433;12.070;19.409;8.605
6473662.839;233.389;309.460;196.248;288.710;193.603;7.302;19.073;2.421
6473662.847;183.098;258.908;134.856;255.369;131.279;1.192;14.715;-3.949
6473662.855;135.526;201.128;88.699;220.686;78.641;-2.198;11.325;-8.196
6473662.863;96.746;152.737;51.968;189.468;36.731;-8.456;5.886;-12.405
6473662.871;72.420;124.723;32.447;156.723;19.111;-13.895;-0.224;-15.870
6473662.879;30.808;59.083;-2.459;119.694;-20.117;-27.120;-13.560;-26.599
6473662.887;0.969;14.156;-41.239;96.634;-51.260;-33.714;-19.334;-29.765
6473662.895;3.166;26.748;-49.025;91.046;-61.356;-24.252;-8.196;-19.781
6473662.903;-8.754;18.626;-55.656;83.335;-76.741;-17.919;-4.284;-15.274
6473662.911;-41.761;-26.338;-75.251;61.765;-97.938;-13.597;-3.316;-13.597
6473662.919;-60.573;-55.842;-95.628;38.855;-120.029;-10.841;-0.745;-13.448
6473662.927;-61.989;-45.672;-115.298;37.476;-135.377;-8.382;4.992;-13.150
6473662.935;-66.683;-60.014;-113.472;31.330;-140.369;-5.700;3.688;-10.505
6473662.943;-94.250;-90.152;-135.638;16.578;-161.752;-5.029;0.596;-9.947
6473662.951;-104.532;-109.039;-144.802;2.198;-175.312;-8.903;-1.490;-12.890
6473662.959;-115.968;-118.092;-159.517;-4.731;-189.878;-15.162;-5.178;-19.148
6473662.967;-115.409;-109.337;-170.991;0.708;-197.813;-13.150;-2.347;-18.366
6473662.975;-126.362;-137.389;-172.891;-17.434;-201.799;-10.394;2.757;-15.907
6473662.983;-146.553;-143.312;-179.969;-25.816;-211.485;-8.121;8.009;-14.454
6473662.991;-140.518;-137.985;-174.567;-21.197;-220.984;-16.987;0.037;-20.564
6473662.954;-133.216;-138.134;-182.949;-20.079;-226.535;-21.346;-5.588;-21.979
6473662.962;-141.896;-152.364;-193.939;-32.149;-232.123;-14.864;-1.043;-14.976
6473662.970;-154.153;-160.187;-199.266;-33.788;-237.487;-10.766;2.533;-12.591
6473662.978;-161.566;-176.691;-205.338;-35.875;-239.164;-8.307;2.496;-12.070
6473662.986;-157.319;-165.775;-196.099;-42.357;-243.932;-12.182;-3.763;-15.795
6473662.994;-162.348;-155.903;-204.258;-46.305;-250.749;-15.311;-6.929;-18.552
6473663.002;-173.450;-181.049;-220.872;-54.985;-258.870;-12.368;-2.161;-18.477
6473663.010;-176.467;-187.494;-221.357;-57.518;-263.639;-6.482;3.837;-12.815
6473663.018;-181.422;-194.907;-220.835;-64.000;-263.900;-10.356;-1.043;-13.486
6473663.026;-185.668;-209.734;-222.698;-71.116;-259.392;-18.254;-5.513;-19.222
6473663.034;-173.412;-191.368;-213.012;-61.765;-252.202;-20.713;-5.215;-20.415
6473663.042;-180.490;-190.064;-214.875;-66.347;-258.498;-24.773;-11.213;-22.650
6473663.050;-182.949;-183.955;-222.549;-71.488;-266.805;-27.604;-15.981;-25.630
6473663.058;-184.849;-197.329;-221.170;-75.027;-264.049;-25.555;-14.864;-26.226
6473663.066;-188.723;-211.298;-219.420;-78.082;-255.369;-16.540;-7.488;-19.595
6473663.074;-188.649;-210.889;-219.420;-78.306;-264.235;-14.231;-5.886;-16.876
6473663.082;-182.949;-200.793;-223.070;-74.841;-272.430;-18.291;-8.047;-22.128
6473663.090;-180.937;-184.178;-222.325;-67.055;-270.158;-20.489;-7.898;-25.146
6473663.098;-187.419;-202.879;-219.941;-68.173;-260.323;-18.179;-6.296;-22.426
6473663.106;-193.305;-208.989;-235.066;-77.523;-272.505;-24.773;-13.262;-24.699
6473663.114;-179.186;-194.684;-217.743;-76.406;-264.570;-29.355;-17.323;-27.716
6473663.122;-172.220;-176.206;-204.556;-67.092;-261.776;-21.979;-10.207;-21.718
6473663.130;-180.304;-190.549;-217.333;-72.569;-268.146;-19.185;-8.754;-20.675
6473663.138;-178.143;-199.750;-221.729;-71.451;-259.280;-20.042;-9.276;-21.309
6473663.105;-179.000;-206.009;-224.076;-67.651;-252.016;-16.280;-6.296;-18.217
6473663.113;-166.334;-182.502;-207.648;-63.516;-251.234;-10.952;-0.820;-16.354
6473663.121;-164.881;-176.281;-201.687;-62.957;-251.085;-15.870;-5.327;-20.750
6473663.129;-172.667;-186.972;-209.808;-63.106;-256.039;-20.489;-10.282;-25.593
6473663.137;-179.857;-204.518;-217.818;-67.167;-265.688;-22.389;-10.952;-26.375
6473663.145;-182.725;-205.152;-224.859;-73.873;-259.131;-25.071;-17.323;-25.295
6473663.153;-182.949;-185.929;-221.878;-81.547;-258.125;-24.103;-18.477;-21.532
6473663.161;-174.120;-179.112;-216.477;-78.678;-258.535;-25.257;-15.944;-26.077
6473663.169;-173.487;-188.947;-217.706;-69.439;-258.610;-22.575;-11.064;-27.455
6473663.177;-174.753;-198.744;-219.941;-73.574;-258.014;-25.705;-16.764;-29.728
6473663.185;-172.630;-197.440;-207.089;-68.136;-249.669;-20.899;-12.293;-27.418
6473663.193;-167.079;-182.949;-206.605;-58.413;-250.153;-13.672;-1.602;-23.358
6473663.201;-161.976;-163.466;-210.106;-63.553;-248.589;-12.070;0.671;-21.979
6473663.209;-165.850;-175.200;-213.571;-71.786;-252.575;-17.360;-6.780;-25.369
6473663.217;-173.114;-201.166;-213.981;-75.251;-250.600;-18.626;-9.350;-24.624
6473663.225;-169.575;-202.768;-218.861;-73.574;-246.316;-20.452;-12.666;-23.097
6473663.233;-164.844;-188.686;-201.985;-73.127;-243.410;-24.624;-19.148;-24.512
6473663.241;-171.587;-180.416;-204.258;-71.451;-250.451;-29.542;-24.326;-29.653
6473663.249;-171.885;-186.153;-210.665;-73.612;-251.308;-28.573;-22.277;-31.553
6473663.257;-162.683;-184.961;-203.997;-68.769;-241.250;-21.793;-10.803;-28.312
6473663.265;-159.629;-175.834;-204.034;-62.436;-232.197;-18.887;-4.396;-26.599
6473663.273;-155.419;-181.049;-198.334;-64.187;-233.576;-26.077;-11.772;-31.106
6473663.281;-163.652;-189.468;-197.701;-70.333;-237.003;-26.971;-11.846;-30.398
6473663.289;-162.199;-180.788;-200.756;-70.520;-234.284;-30.249;-18.291;-32.857
6473663.271;-154.413;-170.209;-193.939;-66.981;-225.157;-31.069;-25.108;-31.665
6473663.279;-154.674;-176.840;-195.242;-68.657;-229.366;-31.069;-24.959;-31.181
6473663.287;-161.640;-191.145;-196.807;-71.749;-228.733;-28.275;-17.807;-29.914
6473663.295;-149.235;-177.808;-178.181;-65.230;-218.898;-25.071;-11.511;-27.753
6473663.303;-137.053;-171.401;-173.934;-59.828;-214.539;-22.687;-9.649;-26.375
6473663.311;-137.687;-157.431;-182.576;-50.738;-210.740;-26.450;-13.150;-30.585
6473663.319;-149.012;-156.686;-185.296;-54.166;-215.620;-31.143;-15.311;-37.514
6473663.327;-138.581;-151.061;-166.595;-53.458;-213.645;-26.003;-8.605;-33.528
6473663.335;-130.273;-144.802;-168.569;-44.741;-206.195;-20.191;-3.837;-26.003
6473663.343;-134.148;-158.064;-168.718;-48.578;-199.378;-23.022;-10.058;-27.455
6473663.351;-123.940;-156.164;-155.903;-46.678;-191.368;-21.011;-8.009;-24.326
6473663.359;-113.584;-130.050;-144.988;-32.000;-182.986;-10.692;5.364;-13.672
6473663.367;-122.637;-144.057;-148.490;-40.270;-186.004;-16.764;-2.310;-18.477
6473663.375;-126.772;-147.559;-154.190;-39.898;-190.027;-23.656;-8.382;-25.816
6473663.383;-116.825;-131.056;-143.312;-31.069;-183.247;-26.636;-10.803;-30.026
6473663.391;-112.318;-126.697;-138.469;-27.493;-178.367;-29.281;-14.938;-31.926
6473663.399;-118.501;-140.816;-148.080;-28.834;-185.706;-31.292;-15.534;-31.814
6473663.407;-121.482;-147.931;-145.696;-26.822;-183.769;-28.871;-11.809;-29.728
6473663.415;-111.498;-120.364;-137.202;-20.489;-175.238;-22.054;-5.774;-24.475
6473663.423;-111.237;-124.909;-132.546;-26.710;-169.277;-16.950;-3.651;-20.564
6473663.431;-111.647;-124.127;-128.113;-20.377;-167.266;-12.629;-2.049;-15.870
6473663.439;-106.059;-115.521;-119.656;-8.680;-164.807;-13.411;-1.714;-16.056
6473663.447;-97.975;-117.496;-109.635;-2.012;-160.821;-15.870;-3.986;-17.546
6473663.455;-91.679;-108.480;-106.990;-0.782;-159.368;-15.721;-0.484;-18.962
6473663.450;-94.064;-103.340;-112.765;-5.141;-169.575;-19.334;-4.359;-24.363
6473663.458;-105.090;-116.825;-118.576;-12.927;-175.089;-22.985;-9.388;-26.561
6473663.466;-109.598;-118.613;-123.605;-14.044;-179.671;-25.108;-11.623;-27.157
6473663.474;-105.388;-112.429;-109.896;-11.101;-168.979;-26.673;-15.050;-27.791
6473663.482;-91.866;-98.608;-93.132;-5.960;-155.494;-22.575;-13.746;-23.358
6473663.490;-99.540;-115.931;-98.087;-14.976;-159.107;-22.054;-13.113;-22.724
6473663.498;-99.428;-116.490;-96.746;-8.531;-158.139;-20.526;-9.872;-22.575
6473663.506;-99.763;-110.194;-97.044;-10.766;-163.317;-25.928;-16.466;-27.604
6473663.514;-100.695;-114.329;-99.167;-8.829;-165.775;-30.994;-21.867;-30.249
6473663.522;-88.774;-93.244;-88.289;3.166;-157.468;-27.753;-16.540;-26.859
6473663.530;-74.953;-76.629;-69.775;12.480;-143.349;-15.907;-2.347;-21.793
6473663.538;-58.711;-63.665;-52.601;30.436;-128.783;1.453;12.405;-4.694
6473663.546;-65.304;-83.596;-57.146;23.022;-140.257;-3.688;3.837;-7.749
6473663.554;-70.594;-83.633;-62.510;13.337;-148.602;-15.236;-7.600;-22.613
6473663.562;-75.102;-89.817;-61.430;2.310;-145.175;-19.595;-10.431;-28.796
6473663.570;-65.416;-58.636;-51.372;15.385;-136.085;-14.454;-5.066;-24.140
6473663.578;-44.815;-47.684;-19.595;26.971;-107.177;-13.262;-2.272;-16.466
6473663.586;-44.741;-40.382;-21.309;28.312;-115.223;-21.011;-9.462;-25.183
6473663.594;-45.002;-41.015;-17.770;31.106;-118.054;-30.138;-20.526;-39.339
6473663.602;-47.013;-56.103;-14.342;25.630;-112.839;-23.395;-19.595;-32.373
6473663.610;-36.210;-34.049;-2.198;36.731;-108.443;-31.739;-23.507;-30.436
6473663.618;-26.189;-23.060;13.672;50.105;-96.150;-29.132;-15.348;-32.559
6473663.626;-9.947;-10.356;32.075;58.189;-77.263;-13.039;-0.782;-24.028
6473663.634;-11.250;-17.956;34.906;56.177;-72.718;1.080;9.164;-10.356
6473663.661;-22.911;-17.658;27.604;49.435;-79.535;0.931;3.390;-11.139
6473663.669;-30.808;-22.426;20.340;43.847;-82.850;-7.264;-7.898;-20.266
6473663.677;-31.851;-31.814;19.073;40.531;-85.346;-18.291;-16.913;-30.585
6473663.685;-39.041;-31.069;13.672;39.190;-91.419;-28.647;-24.587;-40.531
6473663.693;-39.898;-18.217;13.188;47.795;-90.227;-36.508;-30.249;-46.007
6473663.701;-27.530;5.066;23.246;69.216;-74.692;-29.504;-24.289;-38.482
6473663.709;16.019;56.475;74.022;104.979;-16.429;-19.148;-16.131;-26.003
6473663.717;68.545;123.680;135.526;154.041;65.230;-16.950;-18.626;-21.979
6473663.725;118.092;186.227;188.909;188.202;138.804;-23.618;-26.971;-34.012
6473663.733;173.561;252.016;246.577;216.998;207.238;2.421;3.241;-15.236
6473663.741;227.243;308.491;304.505;248.328;276.864;27.716;32.745;7.674
6473663.749;235.736;317.208;315.942;245.795;293.478;-0.224;-4.321;-9.201
6473663.757;245.683;325.963;322.536;257.120;294.559;-13.188;-13.858;-22.538
6473663.765;203.364;279.658;276.789;222.363;238.344;-43.437;-43.474;-52.229
6473663.773;122.562;192.709;191.554;146.106;148.825;-96.411;-105.388;-103.004
6473663.781;125.170;180.043;193.231;145.175;141.822;-47.423;-51.148;-60.350
6473663.789;137.314;174.008;209.063;157.878;153.743;1.565;5.849;-17.770
6473663.797;109.188;140.965;177.175;130.795;117.831;11.213;15.274;-9.947
6473663.805;76.890;99.503;143.461;99.577;82.105;6.594;8.233;-8.941
6473663.813;47.535;62.697;116.006;72.829;55.395;3.166;-2.161;-6.743
6473663.821;15.721;22.389;83.558;43.437;21.197;-8.978;-15.534;-23.581
