Timestamp,AFz,AF3,AF4,AF7,AF8,Pz,P3,P4,2024-05-16 12:20:38.351,fs=125
5447257.833;-81.994;-60.163;-94.436;-85.421;-35.763;-16.838;-12.852;-17.919
5447257.841;-82.627;-60.238;-96.336;-85.570;-39.749;-26.375;-21.942;-22.575
5447257.849;-100.322;-77.561;-117.347;-103.638;-65.006;-50.068;-43.921;-42.804
5447257.857;-86.874;-64.299;-105.798;-91.158;-52.787;-46.380;-40.829;-36.918
5447257.865;-79.982;-57.667;-100.508;-85.756;-45.858;-43.362;-39.004;-30.510
5447257.873;-84.229;-62.324;-106.096;-87.172;-50.329;-44.554;-38.445;-33.937
5447257.881;-83.558;-62.510;-106.953;-84.788;-51.856;-38.184;-32.261;-34.198
5447257.889;-86.650;-64.895;-113.882;-86.799;-57.295;-36.396;-29.504;-37.439
5447257.897;-90.711;-68.173;-119.358;-89.072;-64.597;-35.316;-29.989;-33.602
5447257.905;-86.129;-63.181;-114.031;-81.211;-63.665;-29.244;-23.432;-26.040
5447257.913;-79.796;-55.656;-106.394;-71.824;-46.939;-22.613;-16.727;-19.744
5447257.921;-82.292;-57.779;-106.134;-74.282;-46.082;-18.403;-13.635;-16.242
5447257.929;-75.139;-53.719;-99.726;-73.761;-39.116;-22.724;-17.248;-20.452
5447257.937;-74.729;-54.538;-100.248;-77.821;-42.357;-25.220;-18.813;-23.097
5447257.945;-73.202;-55.060;-98.087;-82.925;-41.164;-29.095;-24.326;-23.507
5447257.953;-65.006;-48.019;-88.289;-80.056;-31.926;-24.773;-17.658;-22.352
5447257.961;-48.205;-31.516;-71.637;-63.777;-15.274;-13.039;-8.568;-12.591
5447257.969;-52.564;-35.800;-77.747;-66.571;-21.085;-18.515;-15.981;-17.360
5447257.977;-56.438;-40.084;-84.750;-69.104;-26.971;-19.111;-14.044;-17.397
5447257.985;-46.045;-29.765;-76.182;-61.058;-16.950;-9.574;-5.141;-14.119
5447257.993;-41.872;-26.226;-74.096;-57.258;-17.062;-9.425;-3.353;-14.417
5447258.001;-37.998;-24.140;-67.241;-55.842;-1.341;-7.972;0.261;-14.864
5447258.009;-30.957;-16.987;-61.244;-47.609;8.009;3.725;11.548;-5.700
5447258.017;-44.480;-30.510;-77.151;-59.307;-8.121;-1.229;4.992;-10.543
5447258.024;-59.977;-45.896;-93.244;-75.549;-23.134;-13.597;-6.482;-22.277
5447258.032;-64.373;-50.478;-98.646;-80.131;-28.424;-21.085;-14.193;-24.475
5447258.040;-53.234;-40.419;-85.011;-67.689;-17.099;-10.096;-4.545;-12.368
5447258.048;-49.919;-37.886;-79.833;-66.869;-14.082;-2.161;2.272;-6.594
5447258.056;-54.315;-41.872;-85.235;-73.873;-19.483;-1.974;4.284;-10.058
5447258.064;-55.097;-42.245;-87.023;-72.755;-20.228;0.857;7.898;-8.494
5447258.072;-52.042;-38.706;-84.639;-69.179;-29.244;4.806;12.852;-9.947
5447258.080;-46.827;-35.204;-72.531;-66.608;-12.331;10.170;16.689;-6.258
5447258.088;-44.107;-34.198;-67.092;-64.597;-5.141;18.626;23.134;6.631
5447258.096;-42.953;-32.373;-63.293;-59.903;-5.662;20.936;22.650;10.468
5447258.104;-53.346;-42.766;-72.010;-68.136;-18.142;7.600;6.855;-0.447
5447258.112;-52.229;-41.313;-68.657;-67.651;-17.248;5.625;5.662;-2.384
5447258.120;-49.658;-37.737;-66.794;-65.044;-14.827;5.998;4.359;-1.267
5447258.128;-67.987;-57.258;-84.937;-85.942;-41.984;-14.231;-14.529;-22.650
5447258.136;-61.803;-52.564;-73.723;-82.180;-25.779;-7.711;-8.345;-17.993
5447258.144;-51.334;-42.617;-60.014;-71.265;-14.789;1.825;-0.112;-7.041
5447258.152;-50.515;-41.164;-56.475;-69.216;-14.938;0.559;-1.639;-5.960
5447258.160;-42.878;-32.410;-48.168;-60.350;-11.325;3.390;0.261;-3.949
5447258.168;-40.494;-29.132;-43.288;-55.879;-11.101;-0.447;-2.459;-8.009
5447258.176;-21.011;-7.898;-18.850;-33.975;7.488;2.012;-0.708;0.559
5447258.184;-5.662;9.872;-1.602;-19.595;16.689;-8.941;-12.852;-4.806
5447258.192;18.552;35.577;27.753;1.527;36.433;-15.460;-14.454;-15.572
5447258.200;39.600;60.759;53.197;27.195;51.074;-21.942;-20.266;-25.593
5447258.208;70.855;96.075;86.427;60.685;71.004;-12.144;-13.635;-17.248
5447258.250;106.208;135.079;121.482;97.267;92.573;5.774;3.092;1.974
5447258.258;114.217;144.020;129.156;101.477;88.140;-2.310;-6.519;-8.233
5447258.266;137.426;168.309;156.723;127.964;115.968;6.966;5.215;0.820
5447258.274;143.722;175.200;161.901;137.649;121.258;9.313;7.749;3.651
5447258.282;126.846;160.448;137.091;123.940;92.350;-1.825;-1.565;-8.866
5447258.290;121.631;156.388;125.282;121.556;79.684;6.258;7.302;-3.017
5447258.298;116.937;149.943;119.954;116.192;77.859;17.025;15.534;7.153
5447258.306;91.083;122.190;92.722;90.525;58.562;11.846;10.952;0.112
5447258.314;75.512;105.128;75.735;75.698;47.386;10.505;10.543;-2.272
5447258.322;54.352;79.982;55.656;49.882;34.235;-0.969;0.782;-11.511
5447258.330;37.253;60.312;39.116;31.441;21.756;-8.084;-5.886;-12.852
5447258.338;25.257;47.237;28.126;20.750;14.231;-5.364;-3.092;-13.262
5447258.346;18.664;38.780;22.538;13.821;13.076;4.247;5.960;-2.421
5447258.354;2.645;22.203;5.327;-0.298;-1.416;5.104;6.035;-0.037
5447258.362;3.166;21.271;2.123;-1.453;-3.725;10.654;10.356;9.276
5447258.370;-7.264;9.462;-7.823;-13.597;-7.339;4.247;-1.229;3.017
5447258.378;-9.388;4.582;-8.494;-19.260;-2.794;8.866;1.565;4.470
5447258.386;-25.891;-12.815;-22.948;-34.869;-20.154;-1.937;-8.307;-12.070
5447258.394;-36.135;-21.830;-33.081;-42.021;-31.181;-5.178;-7.786;-20.266
5447258.402;-33.043;-17.881;-31.181;-37.476;-28.610;7.413;4.731;-6.929
5447258.410;-41.686;-26.263;-39.302;-48.019;-35.912;11.772;6.892;-5.737
5447258.418;-44.554;-31.218;-40.196;-55.134;-34.384;13.784;6.557;-7.823
5447258.426;-49.658;-37.737;-44.815;-60.275;-37.998;6.966;-2.570;-14.976
5447258.434;-53.048;-41.015;-48.466;-62.659;-41.202;3.017;-5.774;-15.423
5447258.460;-54.725;-42.692;-51.297;-62.361;-41.090;3.651;-4.470;-9.760
5447258.468;-53.607;-41.127;-49.956;-59.605;-37.365;3.427;-0.782;-8.196
5447258.476;-55.581;-44.480;-51.111;-64.597;-38.408;1.714;-0.261;-5.625
5447258.484;-65.416;-54.352;-62.548;-73.537;-52.080;-11.623;-11.846;-15.609
5447258.492;-66.385;-53.942;-64.708;-72.159;-55.879;-14.044;-13.672;-19.446
5447258.500;-49.584;-37.663;-48.801;-54.799;-32.373;-3.129;-2.198;-12.480
5447258.508;-58.785;-46.678;-61.467;-62.212;-47.497;-18.217;-15.721;-27.157
5447258.516;-65.640;-53.756;-68.955;-68.024;-55.246;-24.289;-22.464;-32.745
5447258.524;-55.656;-43.809;-59.009;-57.742;-44.219;-9.350;-8.419;-17.770
5447258.532;-47.795;-35.875;-50.627;-49.658;-34.198;1.118;2.123;-8.158
5447258.540;-51.558;-40.568;-52.601;-54.874;-33.863;-0.522;-0.037;-7.451
5447258.548;-60.126;-49.584;-60.983;-63.069;-42.133;-5.253;-3.763;-10.021
5447258.556;-61.020;-52.303;-62.846;-66.869;-42.096;-5.178;-4.508;-2.757
5447258.564;-66.981;-57.071;-70.035;-68.508;-47.833;-10.282;-11.139;-9.947
5447258.572;-60.834;-49.099;-68.955;-57.667;-50.813;-3.651;-4.210;-10.617
5447258.580;-54.240;-42.319;-59.791;-51.893;-35.949;2.906;2.682;-3.800
5447258.588;-58.003;-47.237;-61.840;-56.811;-34.198;-2.831;-1.639;-8.084
5447258.596;-60.573;-50.142;-66.608;-61.020;-38.967;-4.359;-3.353;-10.021
5447258.604;-51.931;-41.313;-61.058;-54.538;-36.471;2.347;2.570;-0.596
5447258.612;-60.759;-49.993;-71.749;-64.149;-46.045;-11.288;-11.586;-16.801
5447258.620;-59.903;-49.360;-69.290;-64.149;-40.792;-15.646;-15.981;-17.919
5447258.628;-57.295;-47.162;-68.210;-59.828;-39.339;-9.760;-9.686;-14.231
5447258.636;-50.254;-39.861;-65.081;-51.670;-35.726;4.582;4.731;-1.267
5447258.644;-55.507;-44.554;-71.563;-58.562;-43.400;4.061;5.849;-1.490
5447258.670;-60.089;-49.137;-77.337;-62.920;-51.372;-2.608;0.075;-12.480
5447258.678;-49.099;-39.786;-64.597;-55.097;-26.971;2.161;6.445;-9.090
5447258.686;-50.887;-42.878;-66.757;-57.034;-29.691;0.000;1.341;-6.035
5447258.694;-62.212;-54.687;-77.821;-68.061;-41.351;-10.431;-8.754;-15.795
5447258.702;-64.969;-58.673;-82.999;-71.228;-47.833;-12.405;-9.984;-16.876
5447258.710;-62.436;-56.550;-83.931;-70.482;-47.050;-4.880;-4.098;-9.239
5447258.718;-61.877;-54.985;-84.303;-69.886;-46.678;-3.502;-5.998;-10.058
5447258.726;-56.624;-47.386;-75.810;-62.659;-35.390;0.633;-1.751;-6.445
5447258.734;-62.101;-51.074;-81.845;-65.267;-35.204;-7.339;-9.276;-9.127
5447258.742;-59.158;-48.913;-80.578;-61.058;-36.024;-6.035;-4.247;-11.958
5447258.750;-57.854;-48.429;-79.013;-58.748;-36.657;-5.700;-0.075;-15.274
5447258.758;-57.071;-47.088;-77.598;-56.438;-31.255;-6.296;-0.857;-13.821
5447258.766;-63.293;-53.309;-83.670;-62.324;-35.390;-9.276;-9.350;-14.082
5447258.774;-65.938;-55.432;-88.327;-65.230;-44.256;-7.004;-9.313;-15.870
5447258.782;-65.975;-55.283;-85.123;-63.442;-37.588;-8.121;-9.723;-23.842
5447258.790;-63.591;-53.085;-84.303;-62.287;-32.447;-10.729;-11.623;-23.693
5447258.798;-65.640;-52.974;-88.625;-64.895;-37.365;-15.721;-16.019;-26.114
5447258.806;-54.725;-39.712;-78.492;-55.209;-27.008;-6.035;-6.221;-10.058
5447258.814;-49.137;-31.069;-76.480;-47.460;-21.867;-3.129;-0.447;-4.545
5447258.822;-53.830;-34.720;-84.043;-52.974;-30.696;-10.654;-9.015;-16.242
5447258.830;-56.513;-37.439;-87.097;-57.369;-35.055;-12.107;-12.331;-19.707
5447258.838;-43.549;-23.581;-72.643;-46.305;-19.372;2.496;3.092;-6.817
5447258.846;-45.858;-25.555;-76.666;-48.801;-23.097;-4.210;-3.800;-10.058
5447258.854;-53.085;-30.994;-83.447;-54.836;-35.875;-14.864;-12.107;-19.260
5447258.914;-54.203;-30.398;-84.154;-54.501;-29.542;-17.732;-13.225;-24.661
5447258.922;-43.586;-20.750;-72.680;-45.672;-17.509;-6.184;-4.657;-13.001
5447258.930;-35.092;-14.789;-62.808;-41.500;-7.749;1.565;3.204;-8.456
5447258.938;-39.227;-19.968;-67.316;-47.311;-14.454;0.559;1.751;-11.548
5447258.946;-53.644;-35.688;-81.547;-60.536;-30.361;-7.227;-9.723;-15.534
5447258.954;-51.223;-33.639;-76.555;-54.687;-27.604;-5.774;-9.276;-11.176
5447258.962;-44.294;-26.263;-69.514;-49.211;-23.767;-1.825;-4.247;-7.711
5447258.970;-45.523;-27.567;-71.228;-50.515;-33.192;-3.837;-0.522;-14.082
5447258.978;-44.145;-26.599;-62.101;-48.093;-17.546;-5.104;-6.333;-17.956
5447258.986;-33.937;-17.285;-48.801;-37.886;-9.313;0.037;-5.066;-9.984
5447258.994;-36.955;-21.718;-49.397;-44.107;-13.821;-4.247;-7.823;-5.290
5447259.002;-47.609;-32.037;-59.418;-57.071;-28.796;-5.402;-8.568;-7.264
5447259.010;-46.045;-30.026;-55.470;-53.421;-29.020;-0.559;-3.017;-8.382
5447259.018;-42.915;-27.306;-43.325;-48.280;-7.674;2.794;0.112;-2.496
5447259.026;-52.005;-37.439;-49.993;-57.220;-15.274;-2.533;-7.041;-6.855
5447259.034;-48.615;-34.161;-44.405;-55.656;-11.884;1.341;-3.390;-5.886
5447259.042;-49.807;-34.943;-43.511;-57.966;-14.678;-1.788;-5.737;-14.454
5447259.050;-46.641;-31.963;-39.116;-57.407;-11.213;-3.912;-6.780;-16.354
5447259.058;-43.325;-29.989;-35.353;-55.917;-10.841;-9.649;-12.629;-19.446
5447259.066;-54.613;-43.102;-45.821;-67.577;-22.836;-27.902;-33.602;-29.802
5447259.074;-60.014;-47.088;-49.248;-70.855;-29.467;-26.599;-34.161;-23.618
5447259.082;-59.865;-45.672;-49.770;-68.024;-32.224;-15.683;-24.177;-14.864
5447259.090;-57.258;-42.133;-49.695;-63.218;-37.588;-8.196;-15.944;-8.605
5447259.098;-52.005;-36.694;-39.786;-55.693;-24.177;-8.680;-15.385;-11.213
5447259.149;-32.783;-17.583;-18.701;-39.116;-7.041;-1.006;-6.333;-3.055
5447259.157;-27.940;-13.001;-12.480;-34.608;-0.298;-4.470;-9.835;-6.706
5447259.165;-43.288;-28.573;-27.604;-50.217;-14.119;-19.483;-22.836;-26.263
5447259.173;-63.963;-49.099;-48.131;-71.786;-38.780;-34.310;-40.457;-47.907
5447259.181;-52.638;-36.471;-33.379;-57.966;-27.865;-12.107;-18.440;-30.063
5447259.189;-46.864;-29.951;-25.332;-50.813;-13.225;9.649;5.886;-12.182
5447259.197;-42.766;-26.487;-20.601;-46.007;-9.723;16.093;10.245;6.184
5447259.205;-49.397;-32.932;-26.785;-51.968;-18.217;8.121;3.278;2.533
5447259.213;-73.612;-56.885;-54.203;-78.231;-48.168;-14.231;-17.844;-21.569
5447259.221;-61.207;-43.251;-44.033;-64.708;-38.296;2.049;-4.619;-3.539
5447259.229;-60.871;-41.686;-40.159;-60.536;-26.263;3.465;-5.886;-3.651
5447259.237;-61.467;-43.735;-40.270;-62.026;-29.951;-3.204;-11.399;-15.981
5447259.245;-45.262;-30.175;-22.687;-47.013;-11.027;6.370;-2.421;-2.235
5447259.253;-42.431;-28.387;-20.862;-47.870;-15.572;0.410;-3.986;-12.182
5447259.261;-40.643;-26.673;-17.285;-46.752;-13.858;-1.937;-7.376;-10.468
5447259.269;-56.215;-40.308;-32.559;-60.648;-23.842;-16.578;-20.899;-26.636
5447259.277;-61.654;-43.958;-38.147;-65.789;-34.533;-16.503;-18.403;-26.673
5447259.285;-47.386;-29.840;-23.358;-49.882;-22.165;3.129;-1.900;-5.625
5447259.293;-39.525;-22.911;-15.274;-40.866;-13.262;16.615;9.947;9.015
5447259.301;-45.970;-29.095;-19.483;-44.107;-12.740;9.835;2.123;1.602
5447259.309;-41.761;-24.140;-17.248;-39.227;-11.623;9.723;2.868;-0.261
5447259.317;-36.396;-19.073;-13.039;-36.545;-6.333;8.456;3.278;-2.496
5447259.325;-37.886;-20.228;-15.125;-38.594;-9.462;6.743;2.831;-4.023
5447259.333;-32.522;-15.385;-11.772;-34.161;-11.995;6.109;3.166;-4.284
5447259.314;-30.324;-14.752;-7.227;-32.000;-10.021;5.811;2.310;-1.304
5447259.322;-43.176;-27.083;-19.521;-44.070;-15.832;-5.066;-9.313;-10.245
5447259.330;-25.705;-9.686;-4.061;-27.232;-2.533;8.196;4.694;4.284
5447259.338;-28.461;-12.927;-8.717;-30.845;-5.811;5.811;1.453;4.917
5447259.346;-49.099;-33.788;-30.957;-52.266;-33.677;-17.397;-21.420;-21.234
5447259.354;-40.606;-24.661;-21.458;-42.096;-14.044;-10.841;-14.231;-18.887
5447259.362;-33.975;-17.025;-15.199;-32.075;-7.153;-0.037;0.112;-7.339
5447259.370;-36.843;-21.234;-20.675;-35.353;-16.317;-6.072;-1.453;-15.236
5447259.378;-31.441;-16.354;-15.944;-30.212;-13.784;0.075;4.061;-10.915
5447259.386;-41.872;-25.891;-27.679;-41.425;-28.983;-1.565;-3.763;-8.568
5447259.394;-38.557;-23.767;-21.197;-39.339;-16.429;8.680;5.327;3.725
5447259.402;-29.206;-11.809;-16.019;-22.948;-10.170;10.319;7.823;2.831
5447259.410;-40.643;-20.973;-31.590;-30.026;-25.332;8.866;7.637;0.931
5447259.418;-44.890;-24.699;-36.061;-31.888;-28.722;9.947;7.562;1.304
5447259.426;-30.994;-10.319;-24.438;-17.621;-18.403;17.174;17.099;6.221
5447259.434;-24.252;-1.416;-17.174;-8.978;-12.144;13.597;15.832;3.390
5447259.442;-31.516;-9.388;-27.567;-17.285;-22.575;-4.992;-2.608;-10.319
5447259.450;-42.096;-21.122;-41.611;-29.318;-39.972;-18.291;-14.417;-21.979
5447259.458;-35.651;-15.572;-31.181;-23.693;-21.197;-8.419;-4.396;-7.413
5447259.466;-31.479;-11.586;-28.685;-17.881;-16.652;-1.229;-0.894;0.708
5447259.474;-38.557;-18.179;-39.041;-23.022;-26.599;-1.565;-1.527;-0.261
5447259.482;-39.972;-20.489;-42.841;-21.905;-33.006;1.602;1.565;0.186
5447259.490;-49.137;-28.685;-55.917;-29.355;-45.374;-5.998;-7.115;-13.076
5447259.498;-44.703;-25.295;-51.372;-24.997;-36.955;-3.204;-2.049;-13.001
5447259.494;-32.671;-15.870;-36.918;-15.683;-11.884;7.078;8.978;0.149
5447259.502;-37.290;-20.191;-45.896;-18.105;-21.867;5.476;8.866;-2.943
5447259.510;-50.180;-31.851;-64.149;-27.157;-41.910;-2.943;2.496;-11.288
5447259.518;-53.644;-34.459;-68.434;-29.132;-45.039;-3.166;1.602;-4.061
5447259.526;-49.137;-29.728;-63.851;-23.395;-42.953;1.863;1.937;3.017
5447259.534;-50.031;-31.330;-63.069;-26.673;-34.608;-1.155;1.937;-5.066
5447259.542;-39.376;-20.787;-55.321;-15.646;-24.289;8.047;12.480;0.447
5447259.550;-38.072;-21.532;-54.725;-16.131;-23.283;2.906;6.855;-1.490
5447259.558;-39.227;-23.134;-56.364;-18.664;-22.836;-9.239;-6.035;-6.296
5447259.566;-34.533;-18.440;-54.054;-15.087;-18.328;-11.139;-8.978;-3.390
5447259.574;-45.262;-28.834;-65.528;-27.791;-34.608;-17.658;-15.423;-14.417
5447259.582;-34.682;-19.483;-52.080;-15.125;-15.050;-1.602;0.484;0.298
5447259.590;-31.888;-16.876;-50.925;-10.058;-14.864;4.657;9.127;2.533
5447259.598;-40.121;-23.469;-60.908;-15.423;-26.673;-2.906;0.410;-9.760
5447259.606;-30.622;-13.411;-52.974;-4.359;-18.179;10.207;13.970;6.780
5447259.614;-31.367;-15.460;-54.948;-6.743;-17.956;9.090;11.213;11.213
5447259.622;-49.882;-34.310;-75.027;-23.805;-39.004;-14.752;-14.454;-10.617
5447259.630;-60.275;-44.331;-82.776;-33.826;-39.712;-28.759;-27.716;-27.902
5447259.638;-44.145;-26.487;-68.508;-14.119;-20.340;-9.909;-9.574;-10.617
5447259.646;-39.898;-20.750;-66.049;-6.594;-23.395;0.857;1.192;-7.115
5447259.654;-34.571;-16.689;-61.393;-3.949;-18.626;9.947;9.276;-0.149
5447259.662;-24.363;-7.786;-53.011;5.066;-9.388;21.048;19.185;13.933
5447259.670;-31.367;-15.013;-60.648;-4.768;-20.042;8.605;7.823;4.768
5447259.678;-34.682;-19.744;-61.058;-13.709;-10.133;-3.725;-3.949;-4.321
5447259.690;-31.255;-17.099;-60.350;-12.144;-10.058;-8.270;-5.141;-8.307
5447259.698;-37.923;-23.507;-70.035;-17.621;-21.867;-21.309;-17.323;-22.687
5447259.706;-26.934;-11.846;-59.158;-2.496;-6.557;-7.451;-3.949;-10.505
5447259.714;-22.911;-8.866;-54.389;2.831;-7.413;6.743;5.886;1.155
5447259.722;-27.083;-14.380;-56.624;-2.868;-10.096;7.115;3.278;-0.931
5447259.730;-27.344;-15.795;-55.842;-3.651;-7.749;4.023;-1.304;0.969
5447259.738;-29.616;-19.595;-57.742;-9.947;-12.144;-8.643;-13.150;-9.201
5447259.746;-17.621;-9.313;-43.847;-0.522;-2.533;-10.058;-12.033;-9.984
5447259.754;-16.131;-8.866;-41.351;0.857;-3.725;-18.477;-17.434;-13.709
5447259.762;-8.717;-2.086;-31.106;8.419;5.700;-13.225;-9.909;-9.760
5447259.770;-8.456;-1.341;-27.306;11.511;2.459;-2.980;-3.651;-3.204
5447259.778;-16.689;-9.686;-30.994;1.416;4.135;-2.980;-6.184;-3.129
5447259.786;-28.089;-19.632;-41.686;-7.860;-10.543;-6.817;-12.219;-13.076
5447259.794;-16.838;-6.966;-29.206;4.955;-4.210;13.784;4.992;5.402
5447259.802;-17.621;-11.139;-24.438;-2.310;-0.298;6.668;-6.892;-3.725
5447259.810;-14.752;-11.548;-17.434;-7.227;6.296;3.017;-10.617;-9.239
5447259.818;-8.270;-6.370;-8.382;-1.490;12.703;-8.084;-16.652;-16.540
5447259.826;0.186;2.049;1.490;10.058;19.558;-16.168;-19.148;-22.128
5447259.834;-0.596;2.459;1.192;12.033;17.509;-13.299;-14.305;-16.615
5447259.842;-10.990;-6.407;-7.376;3.204;8.680;-6.221;-8.605;-10.170
5447259.850;-18.515;-14.082;-13.933;-4.694;-3.353;-5.923;-12.964;-9.760
5447259.858;-11.399;-8.456;-4.396;-1.676;5.439;3.539;-8.084;4.023
5447259.866;-17.658;-16.801;-6.706;-11.437;5.774;2.421;-10.282;-3.800
5447259.874;-35.167;-34.422;-23.544;-29.542;-14.827;-8.829;-20.340;-19.222
5447259.900;-25.928;-23.283;-13.784;-16.131;-8.643;-2.943;-10.915;-11.958
5447259.908;-14.044;-9.462;1.602;-0.075;3.204;1.043;-5.849;-1.118
5447259.916;-11.548;-7.451;5.737;-0.559;4.917;-0.559;-3.800;-2.272
5447259.924;-19.111;-15.683;2.012;-8.121;3.800;-8.419;-10.729;-10.431
5447259.932;-16.317;-12.927;5.625;-7.525;11.437;-3.204;-5.439;-6.817
5447259.940;-14.491;-11.511;5.998;-8.382;7.376;3.576;1.602;-5.737
5447259.948;-12.591;-9.909;9.909;-7.376;7.860;6.072;2.719;-2.161
5447259.956;-14.231;-12.927;9.462;-12.107;6.892;-3.651;-10.058;-10.543
5447259.964;-17.770;-16.280;3.576;-13.895;-0.298;-7.525;-15.795;-10.654
5447259.972;-18.477;-15.423;2.533;-10.580;-3.912;-7.413;-14.566;-9.052
5447259.980;-35.353;-32.037;-9.760;-26.226;-10.207;-22.389;-30.436;-21.830
5447259.988;-41.090;-38.892;-13.560;-34.310;-21.346;-27.642;-35.278;-28.089
5447259.996;-16.987;-16.391;12.182;-14.640;3.129;-4.992;-10.654;-2.906
5447260.004;2.794;3.539;30.957;5.886;24.289;12.629;6.035;14.789
5447260.012;-3.092;-3.316;23.656;0.075;16.987;0.410;-8.792;0.894
5447260.020;-15.013;-15.870;11.474;-13.225;3.874;-16.317;-28.312;-19.260
5447260.028;-11.399;-12.517;17.136;-12.629;3.316;-12.405;-25.555;-15.609
5447260.036;-7.749;-8.605;22.538;-10.021;13.821;-7.413;-21.085;-8.829
5447260.044;-2.608;-3.614;24.699;-5.141;15.646;-3.837;-18.887;-6.445
5447260.052;2.421;2.049;29.281;0.708;21.681;0.000;-14.566;-1.229
5447260.060;-2.459;-2.049;23.879;-2.533;15.870;-6.147;-13.597;-12.219
5447260.068;-1.602;-0.969;23.022;-0.596;10.915;-7.227;-13.933;-13.039
5447260.076;9.686;8.009;36.582;7.674;19.446;2.645;-4.098;-3.614
5447260.084;14.529;12.852;44.070;11.027;35.018;6.221;-0.931;-2.906
5447260.064;18.291;18.217;45.747;17.919;36.508;10.431;7.302;0.410
5447260.072;11.772;13.448;36.843;14.827;25.965;1.676;0.484;-4.880
5447260.080;6.147;10.096;27.865;11.995;19.595;-1.118;-5.215;0.857
5447260.088;-11.139;-7.004;10.245;-1.788;0.373;-17.174;-18.962;-21.383
5447260.096;-14.044;-11.884;9.313;-4.768;0.335;-21.644;-21.122;-24.550
5447260.104;9.574;10.021;29.206;17.136;17.472;6.631;8.270;5.551
5447260.112;5.960;3.651;26.971;9.201;14.380;8.605;11.176;5.066
5447260.120;-7.823;-10.058;16.503;-5.253;14.678;-3.539;-2.533;-8.754
5447260.128;-11.288;-12.331;11.288;-6.407;9.537;-8.047;-6.333;-13.299
5447260.136;-5.215;-4.619;14.305;4.992;11.958;-4.321;-2.831;-8.196
5447260.144;-4.247;-1.751;12.256;9.537;7.600;-4.843;-3.055;-6.780
5447260.152;-1.974;1.304;10.803;11.548;6.706;-10.096;-4.768;-17.434
5447260.160;11.772;14.678;23.432;22.762;19.148;-1.043;3.688;-9.723
5447260.168;7.935;9.574;19.409;17.732;24.401;-7.451;-3.241;-11.623
5447260.176;2.198;2.272;14.156;9.462;17.546;-18.068;-14.640;-20.191
5447260.184;11.399;10.021;22.613;18.738;27.977;-9.611;-6.668;-12.703
5447260.192;5.215;3.316;16.093;12.144;18.328;-11.697;-6.668;-11.325
5447260.200;-11.586;-11.660;-4.023;-3.092;-3.241;-20.191;-15.236;-23.134
5447260.208;-18.254;-16.689;-13.225;-8.233;-13.597;-19.930;-18.030;-19.334
5447260.216;-16.429;-14.231;-11.139;-6.594;-1.714;-16.205;-15.050;-17.509
5447260.224;0.857;1.565;4.917;9.090;12.331;2.235;1.788;-2.533
5447260.232;2.757;4.135;6.109;14.640;11.027;1.416;4.321;-4.359
5447260.240;7.376;8.754;11.139;19.968;14.566;4.768;9.090;0.559
5447260.248;7.451;9.201;8.717;20.452;18.701;-0.931;3.055;-5.998
5447260.276;4.470;7.302;2.533;18.477;7.637;-7.562;-0.820;-11.176
5447260.284;3.502;7.413;3.725;17.099;16.913;-10.990;-2.794;-14.640
5447260.292;-2.347;3.912;-3.204;15.609;13.225;-10.356;-1.863;-13.262
5447260.300;-3.800;4.135;-6.072;17.658;8.568;2.719;11.325;-6.743
5447260.308;-15.646;-8.009;-20.638;3.725;-2.384;-2.012;1.751;-14.231
5447260.316;-36.731;-29.653;-48.056;-16.987;-31.739;-20.079;-19.111;-32.745
5447260.324;-16.615;-10.580;-25.034;5.029;-3.166;-6.557;-4.098;-10.133
5447260.332;-10.878;-6.817;-18.850;7.041;5.998;-15.311;-10.021;-16.056
5447260.340;-3.837;-0.335;-16.205;15.274;8.084;-16.503;-12.964;-17.099
5447260.348;-4.396;-1.378;-18.850;13.858;10.617;-20.862;-19.073;-22.799
5447260.356;1.453;3.204;-14.827;16.838;11.511;-20.824;-20.228;-23.544
5447260.364;17.434;16.131;1.714;28.946;29.132;-10.841;-8.903;-14.752
5447260.372;20.824;20.303;4.023;32.298;35.316;-7.041;-1.416;-11.586
5447260.380;16.205;17.621;-2.384;33.155;23.842;-3.353;2.459;-6.072
5447260.388;7.264;8.456;-12.182;26.524;15.944;-8.494;-2.757;-10.431
5447260.396;-5.327;-5.402;-25.779;10.915;8.009;-21.160;-14.789;-27.083
5447260.404;-2.310;-2.012;-25.667;13.523;4.843;-17.621;-11.772;-24.252
5447260.412;9.388;11.586;-16.913;29.206;12.405;-8.456;-5.886;-10.915
5447260.420;13.374;17.472;-12.517;35.428;22.911;-6.929;-6.445;-9.872
5447260.428;11.660;15.087;-17.509;30.324;18.813;-5.178;-4.284;-5.625
5447260.436;2.980;4.433;-25.332;18.477;10.580;-12.293;-12.331;-12.219
5447260.444;10.170;11.586;-18.403;26.003;16.652;-6.966;-7.153;-9.686
5447260.452;17.807;19.260;-13.001;36.843;20.787;-0.894;-0.335;-7.823
5447260.460;18.626;20.601;-11.511;40.047;32.224;3.241;3.092;-5.215
5447260.425;11.213;13.523;-19.111;31.106;25.369;2.608;1.639;-4.694
5447260.433;4.880;4.657;-25.406;20.824;17.583;-6.221;-3.912;-13.784
5447260.441;1.416;-0.186;-28.200;13.895;13.970;-14.640;-12.517;-20.191
5447260.449;-6.370;-9.313;-36.024;6.147;7.488;-19.744;-18.515;-23.246
5447260.457;4.694;1.937;-27.940;19.856;14.193;-5.327;-5.886;-6.147
5447260.465;13.411;10.543;-19.185;27.381;25.555;3.241;3.986;5.364
5447260.473;9.947;5.476;-23.507;22.911;26.450;-6.370;-4.657;-5.141
5447260.481;9.798;3.055;-22.501;21.532;25.630;-3.651;-4.210;-7.339
5447260.489;12.182;4.768;-16.466;21.979;29.989;8.121;5.625;1.900
5447260.497;12.293;6.966;-16.838;27.008;24.289;3.465;-1.490;-1.714
5447260.505;1.118;-0.186;-31.441;19.781;3.986;-14.119;-14.864;-20.824
5447260.513;6.370;5.998;-25.891;27.418;5.066;-19.483;-16.578;-30.920
5447260.521;34.980;34.608;2.235;54.501;23.022;-6.929;-3.986;-13.821
5447260.529;36.322;34.496;8.270;51.968;37.104;-10.356;-7.600;-16.950
5447260.537;27.642;25.555;2.794;42.580;30.175;-11.399;-9.388;-18.030
5447260.545;30.547;27.791;10.021;45.970;33.975;2.310;0.559;-3.129
5447260.553;24.848;23.283;5.960;42.617;28.610;3.539;0.149;-3.688
5447260.561;16.503;14.380;-3.912;32.894;6.892;-6.072;-7.935;-8.941
5447260.569;12.219;9.574;-2.421;27.455;9.499;-16.205;-21.383;-18.068
5447260.577;12.666;6.743;2.384;23.544;13.076;-17.099;-24.438;-20.154
5447260.585;21.458;13.039;15.199;30.026;26.152;-10.207;-15.870;-14.454
5447260.593;14.938;7.600;13.262;24.848;19.446;-12.405;-17.546;-19.036
5447260.601;12.293;4.619;10.431;23.432;13.188;-10.133;-14.119;-19.372
5447260.609;25.369;19.036;20.862;38.259;17.993;5.774;0.708;-6.631
5447260.591;28.722;23.693;27.195;41.053;29.169;14.193;10.729;2.421
5447260.599;23.060;17.062;22.948;31.590;22.091;4.396;1.304;-8.568
5447260.607;21.383;14.976;23.879;28.014;16.689;0.484;-3.688;-9.239
5447260.615;23.320;17.397;29.393;30.696;23.060;3.986;-2.012;0.633
5447260.623;22.464;17.285;29.020;31.292;20.526;5.737;0.373;2.086
5447260.631;14.752;11.995;21.569;30.063;7.600;-0.633;-6.855;-8.792
5447260.639;3.278;0.410;13.411;17.062;1.974;-16.689;-24.065;-23.991
5447260.647;8.903;7.041;19.558;24.177;10.021;-12.182;-19.893;-17.583
5447260.655;8.680;6.519;20.191;21.234;8.792;-8.792;-16.540;-16.540
5447260.663;23.507;21.830;39.265;37.551;26.003;4.694;-4.545;-2.384
5447260.671;44.443;44.145;61.803;58.934;42.655;10.692;0.037;3.688
5447260.679;55.209;57.332;72.271;69.775;47.572;1.378;-6.482;-7.711
5447260.687;70.222;75.698;87.284;87.172;49.733;-7.637;-13.672;-18.515
5447260.695;127.703;135.191;146.888;141.039;103.153;3.390;-1.043;-2.086
5447260.703;164.770;176.057;182.278;175.685;129.789;10.096;7.674;7.823
5447260.711;174.642;188.537;192.970;181.980;127.815;1.490;0.037;1.304
5447260.719;198.893;214.912;215.545;204.779;143.424;10.431;9.164;12.517
5447260.727;208.281;224.970;222.400;212.342;149.533;16.317;17.770;8.456
5447260.735;208.281;225.082;217.669;212.118;143.349;18.775;18.477;7.004
5447260.743;201.724;219.829;204.258;206.679;128.374;17.881;15.572;10.133
5447260.751;199.154;214.875;203.401;202.060;136.606;26.152;24.773;15.907
5447260.759;187.755;202.432;192.709;190.511;128.187;22.836;23.730;12.666
5447260.767;187.196;199.452;190.362;188.537;129.566;29.765;31.926;22.799
5447260.775;164.621;173.897;167.750;162.013;113.845;18.775;21.085;8.643
5447260.859;149.682;158.586;152.215;146.106;102.855;13.039;14.976;3.129
5447260.867;134.706;141.636;135.228;129.901;87.880;4.731;5.588;-3.837
5447260.875;131.316;137.500;127.926;129.715;79.498;13.635;15.870;5.551
5447260.883;113.212;119.731;115.074;118.501;79.982;17.956;20.452;15.311
5447260.891;86.948;91.195;90.487;91.083;63.665;4.321;6.892;6.966
5447260.899;59.158;61.281;62.250;61.318;34.645;-16.093;-12.666;-19.521
5447260.907;59.567;61.505;59.418;64.373;32.410;-8.680;-11.288;-14.752
5447260.915;65.938;65.975;62.473;67.689;38.706;1.565;-2.608;-4.359
5447260.923;69.924;67.018;64.969;69.551;39.041;7.935;4.098;0.261
5447260.931;74.022;70.333;72.569;72.494;49.099;18.068;14.827;2.384
5447260.939;68.136;62.212;66.310;64.969;48.168;22.314;20.042;2.198
5447260.947;51.968;46.082;49.435;50.850;28.126;22.799;17.844;3.465
5447260.955;40.568;35.316;36.620;42.655;18.999;21.011;16.280;4.098
5447260.963;41.686;35.614;36.545;43.549;24.438;24.401;22.352;10.766
5447260.971;39.935;32.559;32.932;40.531;20.936;19.483;19.521;5.327
5447260.979;42.841;34.757;37.104;41.388;21.607;16.056;16.317;1.229
5447260.987;40.717;31.739;37.067;37.290;33.453;13.858;16.354;1.155
5447260.995;44.927;36.433;39.786;42.766;39.004;19.334;19.222;5.849
5447261.003;49.323;42.729;42.729;51.074;42.431;26.710;26.673;11.958
5447261.011;39.674;35.539;30.100;46.603;27.567;14.305;15.497;-0.931
5447261.019;46.156;42.692;35.204;54.911;32.708;13.486;17.919;-1.192
5447261.027;48.876;46.119;36.396;60.089;33.900;12.033;16.727;0.112
5447261.035;37.737;34.645;22.836;47.684;20.415;-1.304;0.447;-7.190
5447261.043;35.577;31.143;23.022;43.921;28.461;2.719;3.800;-3.800
5447261.010;27.306;21.420;14.529;34.943;18.962;0.335;-0.820;-13.039
5447261.018;34.459;27.195;19.707;41.351;27.753;6.109;5.141;-7.637
5447261.026;31.516;24.587;13.486;40.270;26.040;3.539;5.402;-11.176
5447261.034;26.040;18.738;5.215;34.310;19.521;-3.949;0.447;-12.368
5447261.042;16.317;7.898;-7.153;20.005;2.943;-11.921;-5.178;-15.274
5447261.050;21.495;12.740;2.496;26.301;20.042;-6.929;1.155;-9.425
5447261.058;30.324;20.675;11.623;34.459;31.739;-3.204;7.302;-4.508
5447261.066;39.861;30.734;18.589;46.827;38.333;-0.969;4.172;2.757
5447261.074;44.666;36.098;21.197;52.452;40.568;-1.788;3.651;2.645
5447261.082;53.942;46.603;27.083;62.883;48.503;3.427;8.754;7.488
5447261.090;49.993;43.176;21.979;59.940;42.878;2.086;9.350;-2.198
5447261.098;38.035;31.814;7.302;50.813;24.922;-3.055;2.868;-11.399
5447261.106;25.742;20.042;-4.135;41.798;14.864;-4.433;-1.453;-15.944
5447261.114;40.233;34.906;15.460;56.997;45.449;11.884;14.529;0.484
5447261.122;31.888;26.561;7.860;48.652;39.116;4.098;5.886;-5.476
5447261.130;27.008;22.911;0.782;44.368;32.000;3.576;6.258;-1.602
5447261.138;28.424;23.060;3.986;43.362;36.694;3.204;6.557;-0.894
5447261.146;47.870;41.537;22.985;62.622;54.687;14.417;17.956;13.150
5447261.154;63.628;57.742;34.571;81.211;61.393;29.244;36.545;23.730
5447261.162;33.453;28.163;2.459;52.154;28.163;1.602;9.164;-11.288
5447261.170;31.739;25.928;1.974;48.056;39.823;-2.310;2.533;-12.182
5447261.178;43.288;38.780;11.176;59.642;46.268;6.258;9.649;-1.043
5447261.186;41.388;37.290;9.090;57.109;43.027;8.494;11.995;1.118
5447261.194;51.185;46.156;20.117;68.210;52.601;23.916;29.057;15.348
5447261.204;38.333;34.682;5.625;59.083;36.433;18.030;20.713;5.551
5447261.212;31.516;26.673;-5.253;50.701;25.928;12.368;15.274;-2.533
5447261.220;30.771;25.816;-6.035;49.211;23.544;15.162;20.824;4.284
5447261.228;19.893;15.348;-15.125;40.084;18.626;4.582;10.468;-6.482
5447261.236;18.850;14.082;-16.950;37.514;22.687;-3.241;4.210;-9.090
5447261.244;24.065;19.558;-11.660;40.121;29.951;-0.522;6.892;2.570
5447261.252;13.374;8.680;-22.650;30.249;19.148;-7.451;-2.347;-6.333
5447261.260;2.794;-2.645;-33.081;19.819;6.892;-13.039;-6.557;-13.933
5447261.268;16.503;10.952;-19.521;33.639;22.873;5.960;11.250;1.676
5447261.276;26.152;18.999;-11.250;42.059;35.949;15.870;20.638;11.697
5447261.284;6.780;-0.559;-30.808;24.103;9.574;0.559;5.774;-6.855
5447261.292;1.974;-2.719;-33.006;23.134;11.884;-0.373;5.141;-11.921
5447261.300;14.938;10.766;-19.819;36.471;25.705;8.903;14.044;-2.980
5447261.308;21.383;17.285;-12.815;42.021;31.479;12.964;15.683;1.863
5447261.316;17.397;9.239;-17.658;34.757;24.699;7.451;10.990;-2.906
5447261.324;20.266;10.096;-12.740;36.806;27.604;8.792;9.798;-0.224
5447261.332;30.287;21.011;-2.012;45.523;31.292;17.360;20.377;8.717
5447261.340;32.671;22.873;0.745;46.119;28.573;21.122;23.283;16.466
5447261.348;26.673;16.317;-0.671;43.251;33.043;18.664;18.701;10.431
5447261.356;30.734;20.303;4.917;48.280;37.998;23.507;22.314;17.583
5447261.364;18.068;7.339;-5.960;32.932;22.128;11.623;8.158;6.221
5447261.372;3.241;-8.158;-18.738;14.566;7.078;-3.055;-6.855;-12.331
5447261.380;4.172;-7.153;-16.056;15.497;6.221;-3.166;-9.872;-8.121
5447261.388;22.352;10.878;2.310;33.900;15.646;12.927;5.402;10.729
5447261.327;17.248;5.923;1.341;26.450;20.117;5.402;2.049;-2.049
5447261.335;18.813;8.941;5.625;27.008;24.214;4.731;2.906;-1.676
5447261.343;26.152;15.609;16.205;33.043;30.138;6.109;4.992;0.820
5447261.351;29.393;16.913;22.091;34.794;33.118;6.184;6.184;-0.149
5447261.359;34.757;21.122;27.753;40.941;32.298;14.231;17.248;6.966
5447261.367;28.387;15.795;26.040;35.465;35.912;11.586;14.119;4.210
5447261.375;14.305;1.565;13.709;21.048;23.581;-4.284;-4.172;-8.345
5447261.383;9.649;-2.980;9.425;16.093;13.225;-9.052;-12.964;-12.293
5447261.391;17.621;4.955;21.122;23.395;20.601;-6.706;-12.740;-6.668
5447261.399;24.252;12.033;29.877;28.759;27.791;-1.267;-6.855;1.639
5447261.407;29.691;17.285;35.353;30.436;31.851;2.980;-0.335;6.594
5447261.415;21.383;7.786;25.854;24.103;14.044;-3.986;-5.476;-8.419
5447261.423;31.888;18.962;40.494;36.061;35.539;7.153;7.972;1.341
5447261.431;36.396;24.773;46.790;41.202;44.219;10.841;10.729;7.115
5447261.439;21.718;11.437;32.596;26.897;27.791;0.224;-2.086;-5.849
5447261.447;17.397;6.333;30.994;19.670;26.077;-2.347;-4.731;-4.806
5447261.455;10.319;-1.565;24.587;13.448;17.546;-15.199;-20.340;-16.578
5447261.463;10.021;-3.316;21.718;10.431;12.144;-16.987;-18.850;-24.512
5447261.471;27.604;15.423;36.508;36.322;23.246;-0.261;-0.186;-7.376
5447261.479;38.370;25.369;50.180;37.886;45.821;10.282;10.878;5.551
5447261.487;36.284;21.197;46.976;30.175;37.141;3.017;3.353;-1.006
5447261.495;36.806;21.793;47.311;31.926;31.851;2.794;5.923;-5.662
5447261.503;38.743;24.401;49.062;34.012;33.863;7.302;8.717;-0.261
5447261.511;29.504;16.876;40.941;27.902;29.840;4.135;5.886;-1.788
5447261.475;24.699;13.337;35.912;26.599;24.624;9.649;11.995;-1.676
5447261.483;18.775;6.631;28.238;20.750;9.276;0.857;2.980;-11.362
5447261.491;33.453;19.632;45.337;31.777;31.926;8.009;9.239;-2.868
5447261.499;43.735;28.200;51.633;39.972;38.147;12.219;10.356;3.092
5447261.507;44.331;29.244;51.484;45.151;38.818;0.745;-0.596;-6.296
5447261.515;39.116;23.320;49.360;40.755;39.227;-0.373;2.310;-7.823
5447261.523;15.907;0.298;28.238;21.346;20.824;-12.442;-10.468;-16.503
5447261.531;-8.121;-23.916;3.725;0.112;0.820;-24.997;-22.091;-24.997
5447261.539;-23.954;-41.462;-10.729;-15.236;-8.196;-30.622;-27.157;-27.269
5447261.547;-27.604;-45.188;-13.001;-17.956;-5.886;-32.447;-26.301;-25.220
5447261.555;-16.242;-33.043;-1.043;-4.061;8.084;-15.423;-7.711;-12.219
5447261.563;-9.052;-25.444;6.109;4.247;13.188;-2.645;3.949;1.863
5447261.571;-8.568;-23.954;2.272;5.439;4.880;-1.565;5.178;-1.416
5447261.579;-8.568;-23.171;1.416;5.290;1.304;-7.562;-1.192;-11.362
5447261.587;-8.419;-23.246;5.439;3.576;10.431;-15.572;-8.531;-16.801
5447261.595;-16.242;-29.728;-3.688;-1.378;-2.831;-24.699;-15.236;-27.940
5447261.603;-14.119;-27.902;-0.373;0.857;0.186;-18.701;-9.947;-22.426
5447261.611;-2.161;-16.242;13.188;11.548;13.895;-5.104;2.161;-6.557
5447261.619;14.603;-1.304;27.493;25.295;27.642;7.451;12.815;2.533
5447261.627;18.030;1.937;26.450;28.163;23.581;6.817;12.331;1.974
5447261.635;10.990;-5.029;17.211;21.569;18.515;-1.453;5.811;-10.133
5447261.643;6.743;-8.233;11.362;22.203;14.938;-5.588;1.676;-16.242
5447261.651;0.000;-18.626;7.898;13.895;3.763;-9.276;0.894;-18.440
5447261.659;7.302;-13.374;16.242;18.515;12.368;-4.880;7.153;-8.196
5447261.670;8.568;-12.405;15.199;20.228;15.087;-7.041;3.763;-4.172
5447261.678;10.394;-11.139;16.950;21.160;17.993;-7.041;1.378;-11.437
5447261.686;11.511;-11.548;17.956;20.899;19.893;-4.321;0.559;-10.207
5447261.694;17.881;-7.376;23.320;25.928;23.879;2.161;4.880;-1.676
5447261.702;12.778;-16.652;19.558;16.764;18.589;-0.671;2.272;-6.184
5447261.710;17.099;-18.254;25.891;16.205;30.994;2.384;6.109;0.969
5447261.718;24.475;-13.337;30.436;21.048;31.702;9.090;12.442;10.394
5447261.726;24.959;-13.672;30.324;22.575;27.716;7.786;9.276;9.052
5447261.734;29.653;-9.574;35.316;28.573;27.008;17.844;20.750;15.981
5447261.742;28.051;-12.591;29.393;24.885;25.630;18.217;23.954;11.101
5447261.750;18.589;-22.687;23.246;16.503;17.770;2.868;7.711;-4.135
5447261.758;22.575;-21.085;26.636;16.354;16.131;-5.253;1.900;-10.356
5447261.766;41.798;-4.955;44.070;33.453;42.394;5.476;13.150;3.800
5447261.774;51.334;5.513;51.782;44.778;48.876;12.219;20.452;11.474
5447261.782;39.153;-4.955;37.104;34.235;29.765;3.427;8.456;-5.849
5447261.790;36.992;-9.276;36.173;32.075;20.787;11.064;15.534;1.118
5447261.798;56.364;12.442;56.140;53.607;35.055;42.915;47.274;40.121
5447261.806;54.277;5.178;50.515;44.256;30.436;50.701;50.478;49.546
5447261.814;45.784;-4.582;50.142;33.379;32.000;30.957;32.373;25.593
5447261.822;41.835;-12.368;45.560;29.504;29.132;6.482;13.895;-1.267
5447261.830;49.807;0.708;51.297;43.176;35.241;-18.738;-5.998;-29.542
5447261.838;51.484;7.600;47.348;45.821;32.932;-30.696;-16.503;-36.545
5447261.846;47.274;0.261;41.053;38.557;27.046;-25.705;-10.803;-30.771
5447261.854;52.750;4.768;45.672;45.523;33.267;-5.178;11.176;-15.162
5447261.864;48.317;3.092;45.821;44.294;30.361;9.052;24.512;-2.384
5447261.872;48.205;2.012;48.876;46.417;40.531;11.586;21.905;4.135
5447261.880;47.386;2.906;43.772;41.127;32.373;-2.049;4.955;-10.617
5447261.888;55.395;12.666;49.137;44.815;38.221;-1.155;6.482;-7.711
5447261.896;58.599;18.291;51.036;50.627;39.749;-0.335;7.302;-6.035
5447261.904;56.624;16.540;47.944;50.552;31.739;0.857;10.543;-10.021
5447261.912;49.807;12.778;39.041;40.196;26.710;-7.600;-1.229;-13.746
5447261.920;35.353;2.235;28.759;26.338;23.544;-19.968;-16.093;-20.713
5447261.928;24.103;-5.327;21.011;22.352;11.884;-36.992;-29.579;-41.872
5447261.936;21.867;-0.782;15.534;28.685;17.136;-45.747;-41.090;-48.056
5447261.944;31.926;1.043;23.060;24.401;9.872;-49.658;-50.515;-51.782
5447261.952;50.664;13.784;36.843;34.571;19.558;-39.488;-40.904;-44.592
5447261.960;74.469;42.282;65.044;63.367;58.226;-11.288;-15.311;-16.354
5447261.968;67.428;37.998;58.748;56.885;54.799;-17.732;-25.257;-22.426
5447261.976;52.117;25.108;43.139;42.506;39.563;-32.485;-42.543;-33.565
5447261.984;42.729;17.844;31.441;31.516;25.034;-47.870;-58.338;-49.248
5447261.992;46.752;24.550;35.055;38.184;20.005;-29.802;-43.027;-25.779
5447262.000;67.800;45.598;57.332;59.940;56.215;-8.121;-21.942;-10.580
5447262.008;80.466;56.066;65.826;71.675;69.998;-22.054;-25.742;-33.639
5447262.016;64.261;44.256;52.601;59.977;52.564;-39.712;-47.050;-50.031
5447262.024;54.687;37.104;44.554;53.011;47.237;-40.680;-52.862;-44.145
5447262.032;48.876;29.914;34.161;42.766;34.422;-48.503;-58.562;-47.460
5447262.040;59.828;38.333;45.225;47.609;33.528;-36.880;-47.199;-35.912
5447262.048;58.338;37.290;49.956;45.300;39.227;-30.063;-39.898;-37.737
5447262.000;55.842;38.445;49.472;48.503;43.660;-21.644;-36.061;-30.510
5447262.008;67.055;46.715;58.264;56.662;52.154;-9.090;-24.624;-13.523
5447262.016;63.665;40.568;55.842;48.131;43.251;-14.305;-29.393;-18.366
5447262.024;53.644;31.292;47.684;40.196;30.957;-19.595;-36.359;-22.389
5447262.032;63.740;41.686;58.822;53.607;46.529;-7.376;-25.369;-8.643
5447262.040;79.684;58.264;74.953;67.912;59.120;-7.004;-24.922;-11.884
5447262.048;99.614;76.666;96.709;84.639;75.325;8.009;-8.009;5.625
5447262.056;88.587;66.757;87.842;73.835;59.083;-10.245;-26.040;-14.044
5447262.064;79.758;57.667;84.527;64.671;62.734;-23.134;-40.792;-27.679
5447262.072;79.870;57.891;88.252;63.814;61.281;-24.438;-40.568;-25.369
5447262.080;100.695;79.125;110.455;84.937;73.500;-18.142;-30.734;-20.452
5447262.088;127.144;109.859;141.896;115.298;96.560;-2.272;-14.976;-4.470
5447262.096;150.278;136.495;168.830;138.804;115.894;5.476;-15.013;11.325
5447262.104;179.484;174.642;200.346;180.453;135.750;31.143;5.402;34.757
5447262.112;175.349;179.484;200.570;187.382;125.356;20.303;-3.614;12.890
5447262.120;166.856;168.271;189.804;174.306;111.796;-28.163;-49.099;-40.308
5447262.128;165.328;166.073;183.322;174.195;106.469;-33.490;-55.358;-42.543
5447262.136;188.909;194.348;207.834;204.816;127.517;-0.782;-22.426;-16.242
5447262.144;204.332;210.032;217.333;221.655;137.389;29.951;12.591;3.465
5447262.152;163.577;168.160;175.424;178.292;99.428;16.391;-0.261;-15.572
5447262.160;136.271;137.314;149.943;149.757;85.235;11.921;-9.649;-17.211
5447262.168;125.095;123.307;137.947;136.979;74.729;15.832;-9.686;-13.821
5447262.176;109.449;105.649;121.295;122.301;66.794;24.587;-1.118;-4.917
5447262.184;94.734;88.997;104.271;106.730;57.742;36.918;5.253;14.156
5447262.192;71.637;69.998;85.533;87.284;42.394;29.355;2.459;16.242
5447262.200;56.438;42.953;74.059;60.834;25.444;14.827;-14.901;4.992
5447262.208;28.312;6.482;44.443;27.083;-10.021;-28.051;-54.687;-60.908
5447262.216;29.318;8.158;42.804;30.100;-5.364;-19.334;-41.761;-51.409
5447262.239;15.385;-6.445;30.324;16.950;-16.615;-28.759;-57.556;-61.207
5447262.247;27.418;2.794;40.457;25.816;-1.155;-1.453;-30.100;-39.488
5447262.255;35.390;8.196;49.211;31.255;2.943;26.636;-3.614;-13.113
5447262.263;22.277;-5.886;42.804;17.509;4.917;30.771;-3.502;-11.735
5447262.271;-3.055;-27.977;18.626;-0.820;-17.025;28.983;-6.519;-19.781
5447262.279;-3.763;-33.677;14.752;-6.407;-24.885;37.067;2.421;-14.231
5447262.287;20.415;-11.511;39.712;20.079;0.969;54.725;30.734;-6.407
5447262.295;-15.423;-49.211;5.402;-16.727;-33.937;22.165;-1.453;-39.116
5447262.303;-83.968;-117.794;-60.499;-85.942;-101.961;-52.117;-82.925;-106.692
5447262.311;-93.542;-127.181;-75.325;-96.224;-122.599;-68.210;-98.608;-127.368
5447262.319;-57.742;-94.026;-36.955;-62.883;-81.323;-20.601;-52.340;-87.172
5447262.327;-83.484;-119.396;-57.332;-84.415;-99.950;-32.224;-62.734;-100.993
5447262.335;-106.283;-139.475;-77.710;-104.532;-122.227;-38.370;-68.508;-114.702
5447262.343;-128.672;-167.415;-110.231;-135.824;-150.092;-70.147;-101.179;-150.092
5447262.351;-143.237;-183.098;-125.207;-153.445;-170.507;-89.183;-123.046;-168.718
5447262.359;-166.856;-211.485;-142.045;-181.794;-196.919;-101.887;-133.738;-182.874
5447262.367;-170.842;-216.924;-142.157;-187.233;-194.907;-92.946;-137.053;-175.275
5447262.375;-188.909;-235.066;-163.019;-205.562;-217.780;-117.794;-164.807;-211.298
5447262.383;-182.018;-228.696;-158.064;-195.466;-219.271;-111.647;-152.215;-212.751
5447262.391;-225.157;-274.107;-195.764;-240.877;-247.695;-156.164;-195.615;-255.518
5447262.399;-267.364;-316.501;-240.654;-281.744;-292.435;-198.595;-239.424;-297.427
5447262.407;-300.668;-351.928;-280.514;-316.389;-331.923;-228.882;-261.143;-329.390
5447262.415;-293.143;-344.478;-270.903;-308.082;-323.206;-226.758;-255.704;-327.006
5447262.423;-266.023;-317.805;-237.823;-281.408;-292.398;-206.642;-229.031;-307.858
5447262.419;-264.496;-316.948;-237.152;-280.850;-293.963;-202.060;-226.162;-302.345
5447262.427;-276.379;-328.012;-247.136;-290.349;-297.800;-196.174;-224.672;-290.871
5447262.435;-293.739;-343.248;-263.751;-308.864;-309.721;-223.257;-251.643;-317.656
5447262.443;-333.861;-383.556;-307.374;-350.103;-360.496;-275.746;-308.529;-375.174
5447262.451;-356.920;-409.447;-329.874;-371.598;-380.836;-304.617;-332.445;-408.664
5447262.459;-352.710;-405.237;-324.436;-367.276;-371.262;-292.547;-320.897;-393.651
5447262.467;-364.818;-414.439;-336.990;-377.633;-382.699;-304.468;-333.712;-405.014
5447262.475;-362.471;-409.856;-333.153;-377.148;-378.862;-305.027;-333.302;-405.088
5447262.483;-369.549;-414.178;-340.901;-384.003;-389.181;-312.813;-342.019;-408.180
5447262.491;-394.173;-435.933;-366.122;-408.366;-407.882;-348.911;-375.249;-452.697
5447262.499;-408.292;-446.737;-380.538;-419.766;-417.009;-357.106;-384.301;-450.760
5447262.507;-396.222;-431.463;-372.529;-404.567;-407.845;-338.443;-359.081;-429.936
5447262.515;-379.533;-412.874;-360.198;-388.548;-395.663;-328.682;-349.544;-421.293
5447262.523;-396.073;-428.930;-373.684;-400.059;-411.421;-338.890;-367.053;-434.257
5447262.531;-409.558;-442.378;-382.178;-411.160;-408.441;-333.339;-368.468;-433.214
5447262.539;-424.273;-455.901;-399.165;-423.118;-419.766;-330.247;-371.970;-433.736
5447262.547;-457.317;-487.566;-428.483;-450.611;-451.468;-355.914;-397.526;-468.045
5447262.555;-476.949;-504.367;-448.078;-464.730;-476.353;-364.594;-406.243;-482.760
5447262.563;-444.427;-469.238;-418.201;-422.411;-439.212;-326.000;-370.257;-453.405
5447262.571;-396.930;-421.405;-373.237;-368.580;-388.101;-268.109;-314.228;-393.316
5447262.579;-416.376;-441.261;-395.887;-387.840;-412.092;-289.418;-337.698;-418.276
5447262.587;-423.044;-447.556;-405.684;-391.826;-425.950;-301.376;-355.057;-428.297
5447262.595;-416.078;-441.819;-397.637;-383.593;-408.106;-282.265;-334.419;-415.333
5447262.603;-428.297;-455.119;-409.856;-397.377;-407.062;-280.701;-337.847;-413.321
5447262.644;-446.886;-473.857;-430.569;-415.221;-429.526;-286.214;-343.956;-412.874
5447262.652;-471.771;-496.395;-457.354;-434.741;-456.087;-304.431;-356.734;-436.492
5447262.660;-489.540;-513.419;-474.043;-448.450;-472.255;-327.043;-387.616;-460.073
5447262.668;-521.094;-544.302;-503.436;-475.757;-499.785;-351.332;-410.303;-491.366
5447262.676;-531.785;-553.392;-515.319;-482.574;-515.394;-340.715;-395.700;-486.337
5447262.684;-548.623;-568.777;-531.860;-497.103;-524.893;-344.552;-393.540;-489.913
5447262.692;-585.616;-605.248;-571.236;-534.877;-557.005;-375.919;-422.746;-517.517
5447262.700;-540.949;-560.470;-528.172;-487.380;-520.386;-341.088;-389.330;-488.423
5447262.708;-506.118;-524.186;-494.197;-446.960;-476.837;-307.001;-352.338;-458.807
5447262.716;-562.519;-581.257;-553.839;-503.734;-542.961;-346.899;-395.812;-491.403
5447262.724;-607.818;-625.774;-594.780;-546.351;-575.520;-388.995;-429.861;-536.367
5447262.732;-607.409;-625.439;-594.556;-543.594;-567.101;-393.726;-427.887;-545.718
5447262.740;-610.054;-629.090;-598.803;-545.383;-574.961;-397.824;-427.328;-548.400
5447262.748;-633.784;-652.559;-622.012;-569.224;-604.019;-415.407;-444.725;-563.785
5447262.756;-658.482;-675.991;-645.705;-586.696;-632.778;-436.380;-463.836;-593.513
5447262.764;-668.205;-688.247;-653.565;-599.883;-641.048;-463.575;-486.299;-617.504
5447262.772;-655.241;-676.177;-639.223;-588.521;-629.611;-458.211;-476.800;-607.222
5447262.780;-639.260;-660.680;-624.880;-573.844;-621.974;-448.115;-464.804;-596.493
5447262.788;-616.089;-639.781;-604.875;-556.000;-605.583;-440.776;-452.362;-589.229
5447262.796;-594.929;-618.063;-580.698;-534.505;-590.198;-435.896;-447.035;-586.957
5447262.804;-592.247;-615.679;-581.592;-535.622;-597.946;-445.768;-460.446;-594.854
5447262.812;-584.684;-608.005;-574.924;-525.489;-597.984;-444.390;-461.563;-594.072
5447262.820;-592.470;-618.286;-582.002;-533.648;-608.414;-454.597;-474.229;-603.944
5447262.828;-601.038;-631.176;-583.716;-547.618;-599.474;-459.701;-478.402;-601.783
5447262.869;-607.669;-641.458;-584.871;-556.409;-602.938;-461.452;-483.990;-599.287
5447262.877;-619.553;-657.029;-595.301;-568.740;-620.820;-486.560;-506.081;-628.941
5447262.885;-642.985;-681.765;-614.971;-591.427;-643.842;-508.279;-524.297;-649.653
5447262.893;-652.000;-697.337;-620.149;-604.950;-651.702;-508.353;-525.415;-647.642
5447262.901;-648.797;-700.243;-617.243;-609.905;-647.716;-513.494;-527.874;-644.550
5447262.909;-639.409;-693.165;-605.732;-608.265;-640.452;-525.080;-535.548;-648.052
5447262.917;-633.597;-689.551;-598.803;-603.385;-637.434;-522.807;-536.218;-645.444
5447262.925;-628.121;-685.789;-593.029;-592.880;-638.962;-505.447;-525.452;-631.772
5447262.933;-632.554;-693.128;-590.086;-594.072;-640.154;-496.395;-520.945;-623.353
5447262.941;-633.299;-698.455;-585.839;-596.754;-635.833;-500.381;-527.017;-626.780
5447262.949;-635.833;-702.888;-585.690;-598.170;-645.146;-508.241;-544.898;-633.001
5447262.957;-643.097;-713.617;-590.496;-607.632;-657.625;-518.821;-559.874;-638.180
5447262.965;-633.262;-704.750;-576.414;-594.743;-646.710;-517.219;-560.619;-629.611
5447262.973;-608.563;-681.989;-549.145;-568.852;-624.172;-511.743;-554.137;-627.525
5447262.981;-556.335;-633.597;-497.140;-525.564;-574.067;-478.774;-522.062;-586.957
5447262.989;-532.940;-611.022;-473.298;-505.820;-555.962;-468.902;-507.608;-569.187
5447262.997;-527.315;-607.669;-461.340;-506.379;-538.789;-477.843;-513.531;-571.124
5447263.005;-542.328;-623.055;-475.720;-520.200;-554.733;-492.819;-524.446;-586.137
5447263.013;-547.282;-630.431;-479.557;-522.994;-565.350;-489.764;-518.635;-584.982
5447263.021;-549.071;-634.864;-478.588;-525.825;-569.485;-490.695;-520.870;-582.300
5447263.029;-558.086;-645.220;-484.176;-525.676;-578.463;-485.741;-523.031;-580.847
5447263.037;-565.648;-651.814;-486.076;-529.029;-587.367;-482.202;-521.690;-579.804
5447263.045;-574.477;-662.543;-491.850;-537.634;-596.158;-480.153;-526.197;-577.308
5447263.053;-582.859;-675.246;-500.940;-545.606;-607.334;-486.635;-537.075;-586.547
5447263.111;-598.729;-689.328;-515.394;-555.255;-627.600;-499.934;-554.994;-601.523
5447263.119;-595.376;-683.889;-508.130;-543.743;-621.267;-503.324;-565.089;-607.371
5447263.127;-564.121;-653.490;-474.043;-512.265;-595.301;-499.561;-563.562;-600.815
5447263.135;-526.719;-614.598;-431.575;-475.794;-569.224;-493.266;-559.986;-589.639
5447263.143;-485.554;-572.391;-385.717;-435.300;-540.055;-485.145;-551.194;-576.079
5447263.151;-450.909;-535.026;-352.338;-399.835;-519.939;-492.223;-556.521;-582.896
5447263.159;-423.454;-503.771;-325.926;-370.704;-507.869;-493.564;-557.601;-582.375
5447263.167;-401.177;-479.706;-304.244;-351.854;-501.387;-499.822;-557.825;-592.247
5447263.175;-379.533;-457.019;-283.830;-334.755;-490.919;-501.461;-558.011;-590.868
5447263.183;-364.855;-442.378;-269.599;-321.642;-482.388;-500.344;-560.433;-587.180
5447263.191;-348.538;-425.652;-256.300;-305.697;-469.163;-490.882;-549.816;-579.506
5447263.199;-348.128;-426.732;-258.014;-305.660;-470.467;-481.941;-545.494;-564.121
5447263.207;-375.882;-458.062;-289.716;-338.629;-499.301;-503.734;-564.009;-576.414
5447263.215;-384.711;-467.151;-302.494;-348.426;-507.198;-509.620;-566.356;-583.790
5447263.223;-401.698;-482.313;-321.977;-363.141;-520.572;-513.084;-573.099;-580.475
5447263.231;-404.976;-486.411;-329.055;-366.643;-518.225;-513.084;-567.250;-570.454
5447263.239;-410.639;-492.223;-335.425;-368.766;-520.051;-506.341;-560.880;-561.476
5447263.247;-423.118;-505.894;-350.922;-381.023;-533.648;-506.602;-561.438;-559.054
5447263.255;-424.311;-508.986;-350.997;-384.673;-526.756;-495.501;-549.667;-544.265
5447263.263;-424.087;-512.712;-350.364;-385.679;-511.818;-478.812;-532.828;-532.009
5447263.271;-465.512;-556.149;-393.838;-428.669;-552.163;-512.861;-564.344;-565.462
5447263.279;-460.558;-551.604;-389.218;-423.826;-538.901;-498.407;-550.300;-540.204
5447263.287;-450.648;-543.669;-379.197;-416.040;-520.088;-484.921;-540.428;-523.813
5447263.295;-456.795;-550.747;-388.063;-423.007;-524.409;-487.417;-538.528;-524.633
5447263.321;-458.807;-552.498;-393.949;-424.236;-524.856;-483.952;-530.183;-517.778
5447263.329;-444.241;-537.895;-382.103;-410.602;-506.379;-468.045;-508.651;-503.175
5447263.337;-445.396;-537.187;-385.866;-406.243;-505.187;-451.729;-497.401;-487.044
5447263.345;-446.960;-539.049;-390.820;-406.988;-504.777;-458.919;-504.442;-499.338
5447263.353;-414.550;-506.602;-362.061;-376.143;-471.398;-424.869;-465.401;-461.712
5447263.361;-420.921;-512.414;-370.853;-381.880;-465.512;-433.251;-466.704;-473.671
5447263.369;-417.270;-509.918;-369.884;-382.513;-459.105;-436.828;-461.154;-465.661
5447263.377;-359.006;-452.250;-315.011;-324.845;-401.027;-383.668;-402.927;-409.074
5447263.385;-358.038;-451.989;-317.805;-326.112;-397.488;-387.430;-401.847;-412.427
5447263.393;-351.705;-445.172;-315.383;-318.810;-390.597;-381.358;-397.228;-397.526
5447263.401;-314.191;-407.100;-281.408;-278.093;-348.985;-338.778;-351.891;-355.095
5447263.409;-321.418;-414.811;-296.459;-288.188;-356.659;-334.308;-343.136;-346.228
5447263.417;-308.268;-399.575;-288.114;-272.729;-341.982;-340.678;-347.309;-336.953
5447263.425;-291.876;-380.427;-277.869;-255.331;-329.651;-360.832;-362.769;-357.777
5447263.433;-266.954;-353.903;-259.653;-230.595;-311.397;-351.444;-354.499;-347.421
5447263.441;-247.061;-333.302;-240.766;-207.461;-279.881;-328.869;-328.422;-336.878
5447263.449;-220.537;-307.970;-216.402;-180.118;-250.377;-286.326;-282.899;-303.984
5447263.457;-207.163;-293.478;-205.636;-161.678;-235.513;-248.253;-247.844;-268.407
5447263.465;-184.141;-269.599;-186.302;-137.389;-210.851;-222.065;-220.165;-249.371
5447263.473;-183.322;-268.035;-188.649;-134.669;-210.144;-217.929;-218.116;-247.657
5447263.481;-149.831;-231.937;-160.038;-93.244;-178.032;-182.949;-185.147;-215.694
5447263.489;-157.729;-236.630;-173.487;-99.614;-186.712;-196.770;-195.988;-227.764
5447263.497;-210.702;-287.108;-228.621;-148.527;-236.705;-236.481;-238.046;-269.040
5447263.505;-236.630;-311.993;-255.853;-174.232;-254.251;-254.959;-250.749;-291.504
5447263.486;-236.072;-309.534;-257.678;-172.667;-248.514;-244.193;-236.183;-273.734
5447263.494;-210.442;-280.961;-233.725;-145.249;-218.302;-210.106;-199.787;-241.846
5447263.502;-225.194;-291.392;-253.282;-160.821;-233.725;-225.082;-211.932;-250.712
5447263.510;-222.474;-281.334;-254.959;-154.376;-233.129;-223.108;-211.373;-247.248
5447263.518;-199.974;-252.016;-234.619;-131.205;-199.676;-207.014;-195.839;-241.362
5447263.526;-198.372;-242.665;-237.450;-126.995;-201.166;-201.911;-193.454;-235.997
5447263.534;-195.354;-227.876;-238.270;-119.135;-199.936;-186.004;-182.949;-220.314
5447263.542;-198.148;-220.053;-243.857;-127.666;-200.421;-193.268;-191.070;-219.755
5447263.550;-172.593;-184.476;-224.225;-104.271;-175.983;-177.398;-174.418;-197.738
5447263.558;-175.610;-182.949;-228.994;-113.025;-173.301;-194.535;-190.586;-213.124
5447263.566;-173.524;-178.032;-225.306;-113.174;-169.054;-190.623;-185.370;-206.642
5447263.574;-161.640;-162.870;-213.124;-97.677;-153.743;-158.399;-155.680;-178.665
5447263.582;-177.547;-177.026;-230.856;-110.753;-163.577;-169.985;-165.775;-189.804
5447263.590;-198.260;-196.584;-251.867;-135.228;-177.175;-189.245;-187.345;-204.369
5447263.598;-197.627;-193.380;-255.518;-141.710;-178.963;-199.713;-195.280;-206.083
5447263.606;-159.517;-143.461;-224.337;-106.767;-150.762;-177.510;-169.389;-177.287
5447263.614;-153.594;-124.909;-217.818;-102.185;-135.228;-178.963;-174.679;-182.576
5447263.622;-148.751;-109.188;-211.038;-100.397;-123.419;-182.763;-181.720;-184.849
5447263.630;-138.655;-90.562;-202.730;-85.682;-119.582;-170.134;-174.604;-173.897
5447263.638;-140.890;-87.842;-206.977;-87.172;-123.046;-178.479;-190.325;-171.997
5447263.646;-124.574;-64.634;-190.362;-72.941;-107.624;-173.524;-187.419;-165.030
5447263.654;-129.044;-61.952;-193.007;-74.059;-109.076;-171.848;-188.239;-165.887
5447263.662;-132.658;-61.281;-194.386;-73.090;-106.320;-171.997;-188.686;-163.577
5447263.670;-115.447;-42.282;-172.965;-52.862;-86.278;-154.786;-173.636;-146.441
5447263.694;-97.454;-19.893;-150.949;-32.969;-68.843;-143.945;-165.924;-139.140
5447263.702;-63.218;19.372;-113.472;1.453;-38.408;-130.013;-153.072;-124.164
5447263.710;-51.931;35.726;-99.316;15.460;-31.032;-132.844;-157.766;-124.909
5447263.718;-9.686;82.254;-56.773;57.034;0.894;-127.628;-151.470;-116.825
5447263.726;39.749;137.612;-8.270;111.088;40.010;-103.973;-127.479;-90.264
5447263.734;60.946;160.597;11.064;129.789;54.501;-100.434;-120.737;-85.048
5447263.742;46.268;145.361;-2.608;111.908;38.780;-123.419;-141.189;-105.537
5447263.750;51.185;149.906;3.278;115.223;44.405;-112.429;-128.336;-90.450
5447263.758;57.071;153.109;8.494;114.441;54.613;-103.116;-115.745;-75.474
5447263.766;24.587;116.602;-24.699;78.455;30.845;-115.708;-128.411;-89.370
5447263.774;-20.675;69.402;-73.612;34.571;-10.096;-133.738;-145.175;-112.168
5447263.782;-63.144;25.854;-118.278;-0.484;-49.658;-149.719;-161.827;-130.944
5447263.790;-61.542;24.773;-111.945;2.161;-28.349;-130.348;-146.925;-112.876
5447263.798;-62.808;20.042;-113.100;-4.135;-23.656;-129.826;-143.945;-109.039
5447263.806;-77.151;5.662;-128.448;-13.970;-33.788;-126.846;-141.636;-102.371
5447263.814;-80.802;2.161;-131.391;-14.640;-33.341;-112.802;-128.560;-86.874
5447263.822;-72.941;7.898;-123.903;-7.637;-22.613;-94.548;-112.727;-73.947
5447263.830;-108.853;-31.032;-158.623;-46.082;-51.223;-121.593;-140.965;-102.967
5447263.838;-107.177;-30.212;-158.176;-45.076;-48.652;-120.178;-137.277;-95.218
5447263.846;-68.955;6.929;-120.476;-7.004;-12.778;-79.721;-100.322;-61.244
5447263.854;-56.028;15.572;-106.692;1.304;1.974;-66.832;-86.613;-44.480
5447263.862;-95.367;-24.959;-145.324;-37.514;-33.900;-96.224;-112.876;-65.304
5447263.870;-95.069;-24.922;-145.249;-37.476;-32.298;-93.952;-106.879;-72.755
5447263.878;-59.903;8.754;-111.237;-4.694;2.719;-64.634;-74.953;-48.578
5447263.845;-47.572;19.558;-97.565;8.866;13.523;-42.953;-51.484;-22.613
5447263.853;-57.630;7.749;-103.377;-4.731;10.915;-52.676;-53.719;-27.046
5447263.861;-80.355;-15.572;-124.536;-27.418;-2.570;-82.068;-75.214;-47.907
5447263.869;-49.621;13.709;-94.958;2.421;22.799;-49.286;-40.866;-9.574
5447263.877;-52.117;11.437;-100.136;-3.241;15.758;-49.472;-39.004;-7.525
5447263.885;-64.857;-2.384;-112.392;-19.036;9.015;-69.030;-56.401;-23.581
5447263.893;-38.408;21.681;-85.123;3.166;39.712;-65.342;-48.988;-18.552
5447263.901;-37.588;21.644;-81.621;1.825;44.405;-58.934;-42.096;-11.548
5447263.909;-49.062;9.164;-92.983;-9.872;32.037;-69.030;-48.690;-22.911
5447263.917;-42.804;15.050;-91.828;-8.047;31.404;-78.417;-51.484;-33.826
5447263.925;16.801;76.406;-33.826;53.979;81.770;-12.405;12.703;17.211
5447263.933;47.088;105.873;1.192;79.498;127.181;17.360;46.901;41.164
5447263.941;79.349;137.128;32.671;106.096;157.654;47.870;79.274;77.151
5447263.949;99.950;158.735;52.974;126.734;175.312;73.276;102.520;107.698
5447263.957;129.193;187.382;83.148;152.811;208.169;99.242;129.491;141.598
5447263.965;139.289;199.974;94.548;164.919;218.600;115.484;142.343;163.279
5447263.973;125.878;184.961;80.913;148.118;206.530;104.532;129.901;157.394
5447263.981;129.826;187.494;88.215;150.613;212.640;100.210;124.834;147.372
5447263.989;146.404;202.060;107.251;163.503;232.793;105.761;130.199;149.608
5447263.997;152.513;206.046;110.641;164.583;232.458;105.686;126.176;159.368
5447264.005;157.133;211.112;118.688;174.083;239.462;117.086;133.887;165.887
5447264.013;158.958;211.224;122.041;173.077;249.967;115.633;137.277;157.095
5447264.021;182.539;233.799;147.149;197.440;272.170;136.048;160.113;173.450
5447264.029;147.447;196.099;115.708;162.199;238.344;108.667;125.319;147.782
5447264.054;160.038;208.542;126.064;175.126;248.142;113.659;128.634;157.766
5447264.062;204.369;252.686;167.154;224.225;290.908;164.695;172.183;207.648
5447264.070;189.692;234.582;152.029;210.665;277.832;156.499;157.915;203.252
5447264.078;204.928;248.700;165.999;226.460;296.049;169.165;162.572;214.055
5447264.086;185.594;230.558;142.641;208.803;269.189;163.391;159.182;199.080
5447264.094;198.409;242.330;155.345;220.574;278.428;180.528;182.092;213.534
5447264.102;204.109;246.763;164.881;229.403;303.648;192.672;194.609;221.618
5447264.110;192.784;232.421;152.886;214.316;294.261;166.111;168.309;195.652
5447264.118;182.576;221.394;142.530;205.375;285.245;159.517;162.087;190.586
5447264.126;214.241;251.345;173.599;237.301;316.426;202.022;199.117;228.137
5447264.134;220.723;255.257;174.604;240.169;316.389;207.797;205.338;231.825
5447264.142;205.003;239.089;158.548;226.013;303.872;196.695;189.431;218.861
5447264.150;208.505;242.554;164.583;229.627;316.240;198.521;189.804;218.861
5447264.158;206.083;240.766;161.119;229.217;310.689;200.011;188.649;224.188
5447264.166;207.983;241.920;166.036;231.713;315.830;216.179;201.054;237.115
5447264.174;213.608;246.204;170.656;234.917;324.845;221.580;205.748;239.685
5447264.182;195.839;229.180;152.178;222.586;295.825;218.414;199.452;229.292
5447264.190;197.552;232.123;156.462;227.913;316.575;223.555;201.985;235.625
5447264.198;200.570;234.954;159.331;232.905;326.186;225.864;206.232;237.301
5447264.206;168.383;203.736;126.436;201.911;290.610;195.317;177.138;206.679
5447264.214;196.844;231.452;152.178;226.349;315.271;207.312;196.435;226.833
5447264.222;203.811;237.450;154.935;233.799;319.742;215.285;203.736;234.693
5447264.230;187.270;218.675;139.773;215.285;312.440;198.930;186.488;224.672
5447264.238;199.564;228.956;156.276;229.888;335.798;212.267;198.334;243.746
5447264.279;205.152;232.980;162.125;237.934;338.815;220.165;205.487;248.328
5447264.287;179.932;206.530;137.091;210.255;314.638;191.554;180.826;222.065
5447264.295;164.658;190.437;121.519;198.446;295.341;192.374;181.347;221.692
5447264.303;176.802;203.326;129.789;210.144;296.906;199.229;190.288;225.529
5447264.311;173.710;200.234;131.167;207.126;310.093;192.299;188.947;223.294
5447264.319;164.621;190.884;123.531;201.873;300.184;190.139;186.749;221.767
5447264.327;179.559;206.605;135.861;217.669;309.274;195.727;194.535;229.403
5447264.335;169.575;197.105;126.399;211.708;296.645;195.168;192.299;227.317
5447264.343;175.834;204.109;129.640;221.245;294.372;202.209;200.868;233.985
5447264.351;159.778;186.116;115.931;206.307;281.408;191.852;185.110;225.194
5447264.359;142.902;166.781;102.930;192.001;275.597;184.141;175.983;213.943
5447264.367;135.303;158.139;94.697;182.688;266.433;167.862;162.944;201.352
5447264.375;145.771;167.191;104.234;195.578;268.966;189.021;179.596;218.228
5447264.383;174.008;195.652;129.826;224.598;280.589;208.914;199.750;237.226
5447264.391;181.608;204.034;142.008;232.309;301.115;209.883;202.470;236.817
5447264.399;152.364;173.077;117.682;205.375;281.520;185.557;175.498;213.906
5447264.407;167.340;188.351;132.583;221.729;287.890;192.933;185.445;222.921
5447264.415;183.359;202.581;151.359;237.189;300.370;215.285;204.071;242.405
5447264.423;191.815;209.026;161.268;244.640;308.864;224.598;213.832;254.065
5447264.431;165.254;180.639;136.420;217.669;280.961;200.793;192.113;235.401
5447264.439;165.552;180.192;136.904;218.116;275.671;202.246;196.472;239.089
5447264.447;176.243;190.511;148.192;227.429;279.434;203.438;200.383;237.860
5447264.455;162.087;175.759;140.555;214.577;269.003;198.334;194.870;229.739
5447264.463;159.331;171.475;139.251;209.436;266.284;196.211;192.262;233.240
5447264.444;171.587;183.024;154.227;222.288;275.970;209.585;201.985;246.987
5447264.452;197.589;209.212;182.576;250.526;299.290;239.797;233.576;269.711
5447264.460;214.465;225.976;202.358;265.278;312.105;239.052;236.891;271.611
5447264.468;185.743;197.142;178.404;236.370;282.042;208.281;200.272;241.362
5447264.476;181.496;192.672;174.120;232.719;271.536;200.681;195.950;234.507
5447264.484;207.275;217.892;201.277;259.764;289.753;222.586;220.835;249.445
5447264.492;225.678;236.258;225.976;277.534;320.375;244.863;244.193;264.868
5447264.500;215.359;224.710;215.955;262.298;304.617;222.810;226.237;249.930
5447264.508;207.908;216.998;208.505;256.933;293.218;222.400;221.469;257.269
5447264.516;217.706;226.237;219.978;263.713;302.307;228.025;229.888;262.782
5447264.524;203.401;212.602;207.685;247.955;285.022;210.479;213.049;250.749
5447264.532;244.975;256.300;249.967;288.188;322.908;245.497;247.546;284.836
5447264.540;264.198;276.789;266.954;306.554;329.539;244.305;247.732;278.987
5447264.548;272.095;286.847;277.832;318.661;337.847;249.185;245.832;287.257
5447264.556;266.582;284.091;276.789;313.185;349.954;233.017;232.235;273.287
5447264.564;285.395;306.368;293.329;335.127;360.049;238.605;243.038;273.474
5447264.572;320.971;345.409;327.639;374.503;386.499;264.235;268.295;298.210
5447264.580;341.684;371.449;348.948;398.755;404.380;273.399;281.334;307.374
5447264.588;344.701;378.191;353.418;403.039;406.019;270.344;273.734;302.866
5447264.596;373.535;413.135;380.911;431.873;429.004;277.571;278.167;316.501
5447264.604;404.790;449.456;414.215;460.744;460.967;281.818;279.695;321.269
5447264.612;422.522;469.126;433.512;468.977;472.032;271.201;265.241;310.242
5447264.620;472.851;522.695;481.829;513.569;513.419;294.149;288.486;335.276
5447264.628;492.930;548.363;499.301;532.642;526.272;297.949;286.847;331.067
5447264.699;525.974;586.733;529.438;564.083;556.558;314.564;305.809;342.876
5447264.707;564.083;626.557;563.748;597.984;594.407;351.146;342.876;386.760
5447264.715;548.512;616.536;540.316;587.814;575.706;348.054;337.884;380.576
5447264.723;500.195;573.434;484.996;542.663;526.756;308.603;296.533;339.523
5447264.731;499.934;574.403;484.325;531.971;546.910;335.723;319.667;362.471
5447264.739;516.325;592.098;493.899;520.796;567.585;382.103;364.147;403.002
5447264.747;481.307;558.048;454.821;476.949;541.173;372.529;342.838;397.377
5447264.755;435.002;525.154;402.816;435.188;500.605;336.692;309.646;355.318
5447264.763;401.363;517.704;361.539;406.504;471.622;316.687;293.851;338.331
5447264.771;350.140;478.625;306.927;363.663;428.036;299.513;273.921;326.149
5447264.779;370.592;503.622;324.547;388.511;453.517;344.105;319.704;364.706
5447264.787;394.657;532.381;344.999;417.903;479.892;381.805;359.118;405.312
5447264.795;334.196;476.539;280.030;362.434;426.136;332.892;305.362;362.769
5447264.803;335.611;485.890;273.287;364.818;425.503;333.562;306.778;367.314
5447264.811;361.502;624.731;298.247;394.396;457.093;370.666;341.758;397.637
5447264.819;356.808;1027.808;293.367;397.228;464.506;374.578;349.171;399.947
5447264.827;314.601;1218.095;248.812;362.806;424.199;339.597;316.650;366.755
5447264.835;311.211;1247.339;243.857;364.594;417.717;351.593;324.324;378.266
5447264.843;331.178;1271.553;262.596;390.969;435.002;376.850;353.158;393.316
5447264.851;302.568;1244.247;235.103;391.565;412.837;372.864;346.117;385.121
5447264.859;284.165;1222.454;217.035;394.508;398.904;365.749;339.784;389.926
5447264.867;265.203;1198.761;199.489;379.384;384.487;348.985;327.863;377.558
5447264.875;275.075;1203.790;207.536;385.381;394.247;349.842;327.826;382.923
5447264.883;316.985;1238.957;246.651;417.344;429.004;370.294;351.444;405.572
5447264.910;298.768;1215.637;231.601;396.557;420.362;345.968;327.155;382.029
5447264.918;267.401;1177.825;201.687;363.290;389.516;314.675;294.372;356.100
5447264.926;261.553;1167.953;197.850;355.393;382.699;313.967;294.335;357.181
5447264.934;309.683;1216.382;246.428;406.988;426.024;368.506;351.369;410.341
5447264.942;309.236;1218.617;246.949;404.120;423.305;363.626;347.681;409.596
5447264.950;291.131;1199.208;231.750;384.934;404.492;354.759;333.041;404.380
5447264.958;279.993;1185.313;225.939;372.976;393.428;346.676;323.839;395.589
5447264.966;286.251;1186.132;237.748;378.042;400.320;356.510;336.766;400.692
5447264.974;260.919;1152.940;216.700;353.269;368.692;335.798;318.959;377.707
5447264.982;235.997;1120.232;197.478;327.565;339.821;312.254;300.556;353.567
5447264.990;285.469;1162.663;253.059;376.999;399.500;361.875;347.383;400.841
5447264.998;308.082;1176.745;278.875;395.365;421.293;379.458;368.841;420.474
5447265.006;264.607;1122.206;242.181;348.389;377.446;333.190;322.647;385.009
5447265.014;236.109;1078.881;218.526;314.899;346.676;303.760;293.441;363.141
5447265.022;235.029;1059.733;218.861;311.993;339.560;293.069;286.140;351.481
5447265.030;270.531;1080.968;260.025;347.234;371.262;325.851;320.449;374.354
5447265.038;280.626;1077.466;272.803;352.003;375.286;327.751;325.032;380.389
5447265.046;271.387;1054.816;265.688;340.119;356.250;309.609;310.913;363.849
5447265.054;309.497;1072.511;310.950;373.311;401.549;332.296;332.110;383.928
5447265.062;336.915;1083.091;340.380;396.445;421.330;342.242;347.756;397.488
5447265.070;326.857;1061.372;333.227;385.195;405.423;328.943;337.139;378.266
5447265.078;306.107;1027.882;317.134;355.132;382.923;300.184;307.895;353.642
5447265.086;302.941;1015.365;318.363;348.091;374.690;298.843;304.170;360.385
5447265.094;318.363;1022.033;338.927;364.706;388.362;323.653;328.124;382.662
5447265.133;297.762;992.641;323.839;341.423;365.637;300.147;305.921;361.428
5447265.141;289.790;976.250;320.412;329.688;359.379;298.396;302.941;356.436
5447265.149;242.889;926.070;272.244;286.959;300.407;263.080;270.568;314.079
5447265.157;281.967;957.400;317.730;323.616;342.578;306.293;316.016;353.977
5447265.165;312.440;979.938;357.702;347.495;390.969;340.268;347.905;390.001
5447265.173;279.471;940.524;328.422;305.213;357.814;308.566;317.842;366.904
5447265.181;265.725;919.439;317.954;284.091;341.535;292.249;300.035;352.077
5447265.189;280.514;927.336;336.319;291.839;354.201;301.376;314.377;358.373
5447265.197;288.859;930.540;347.868;292.622;362.471;306.442;319.183;365.116
5447265.205;273.064;909.679;334.978;270.456;349.358;290.461;299.849;348.575
5447265.213;263.490;898.130;325.739;259.541;338.517;274.032;286.959;341.088
5447265.221;278.279;914.261;340.454;280.552;351.407;299.364;310.093;359.640
5447265.229;264.943;898.950;328.273;263.751;332.072;286.996;301.115;343.956
5447265.237;249.222;881.888;316.426;242.442;319.742;266.880;280.626;326.410
5447265.245;258.163;890.978;328.235;251.122;335.090;276.305;291.765;335.537
5447265.253;230.782;865.012;300.147;223.741;307.932;243.746;260.733;302.792
5447265.261;218.935;856.407;288.524;213.645;301.488;237.897;247.546;294.633
5447265.269;265.092;906.736;333.823;258.014;346.899;289.790;295.900;346.862
5447265.277;300.556;947.267;369.176;292.286;379.533;315.383;317.283;368.766
5447265.285;290.535;940.785;356.659;284.575;367.835;308.901;311.136;355.691
5447265.293;287.443;940.450;350.997;278.987;366.792;309.534;313.148;359.975
5447265.301;255.257;911.132;317.469;245.906;332.147;277.944;281.967;328.757
5447265.309;250.489;908.822;315.495;241.175;333.115;268.482;274.293;330.880
5447265.317;262.000;920.258;324.622;252.649;354.685;287.779;296.459;345.968
5447265.330;282.191;938.177;338.443;273.436;371.896;305.288;309.311;362.135
5447265.338;281.520;936.165;331.104;273.511;366.345;294.596;295.788;354.871
5447265.346;261.366;912.733;307.336;252.724;344.813;274.256;272.766;324.957
5447265.354;279.099;928.715;322.051;270.419;365.414;293.255;293.702;348.762
5447265.362;234.805;886.396;275.671;231.043;326.075;257.008;256.635;319.630
5447265.370;214.316;868.291;251.345;214.949;300.333;242.554;241.995;304.207
5447265.378;331.029;984.222;365.898;331.290;421.666;348.054;350.177;400.618
5447265.386;337.511;990.778;368.655;338.480;432.841;366.159;366.755;413.805
5447265.394;273.623;927.076;301.898;250.116;370.741;320.561;317.507;365.488
5447265.402;233.129;889.413;260.882;191.815;334.233;284.873;275.150;332.482
5447265.410;252.761;911.392;275.113;209.101;355.877;305.437;288.561;354.014
5447265.418;227.578;884.123;248.738;180.155;330.322;280.589;260.249;329.651
5447265.426;224.076;877.082;247.583;176.877;340.715;281.930;261.739;333.302
5447265.434;237.226;887.215;257.567;189.841;350.513;304.319;289.790;352.636
5447265.442;225.306;872.798;241.585;177.249;340.976;288.785;276.677;334.382
5447265.450;222.251;868.775;235.625;177.659;342.652;281.036;264.645;323.914
5447265.458;273.325;917.911;282.899;229.888;388.138;328.310;316.426;367.388
5447265.466;275.746;915.565;282.489;232.160;391.267;345.334;330.843;380.725
5447265.474;247.620;883.117;252.351;207.424;366.047;316.612;300.594;354.759
5447265.482;216.775;848.770;218.116;183.024;329.763;279.881;261.292;324.175
5447265.490;227.354;854.284;230.670;195.317;344.664;298.321;278.056;341.348
5447265.498;241.585;866.726;247.695;216.365;371.188;319.369;299.774;352.561
5447265.506;231.452;857.152;237.115;214.763;357.889;324.324;300.258;351.854
5447265.514;223.070;843.815;233.576;207.871;357.553;316.091;291.802;334.382
5447265.526;235.699;853.837;247.844;222.772;368.804;326.596;302.792;336.133
5447265.534;244.267;860.319;254.773;231.825;374.466;321.344;297.204;332.855
5447265.542;272.393;881.031;280.887;245.981;400.655;310.019;289.977;331.663
5447265.550;308.380;911.877;315.644;274.815;433.773;311.434;293.143;342.205
5447265.558;308.082;904.202;315.830;265.054;432.134;275.522;260.696;308.566
5447265.566;314.936;901.073;324.063;263.415;436.939;265.837;253.394;304.691
5447265.574;323.728;899.695;330.023;267.997;436.530;266.954;253.692;308.305
5447265.582;331.886;896.230;334.978;276.007;436.418;270.568;260.472;312.477
5447265.590;331.551;885.688;333.078;278.391;440.441;281.073;274.740;318.103
5447265.598;322.834;866.652;321.865;267.848;434.071;289.865;289.008;327.267
5447265.606;311.397;844.523;312.962;256.673;427.514;287.928;290.982;327.937
5447265.614;301.003;825.524;304.021;249.520;424.087;288.635;291.802;332.296
5447265.622;265.576;780.374;266.805;215.434;391.118;258.163;263.974;306.033
5447265.630;229.254;736.713;229.068;184.998;352.189;246.279;251.569;290.051
5447265.638;228.621;728.108;227.019;187.568;353.195;260.398;266.209;303.276
5447265.646;242.144;734.292;238.158;202.432;365.004;282.824;291.355;325.404
5447265.654;214.726;700.280;212.938;181.347;345.036;269.339;277.720;312.440
5447265.662;186.674;665.858;184.551;155.382;318.475;248.402;256.784;288.971
5447265.670;178.926;649.318;177.063;146.590;305.325;253.432;258.461;291.578
5447265.678;168.681;629.351;164.993;134.706;291.355;242.367;244.044;284.463
5447265.686;177.547;630.729;171.103;145.920;291.243;254.698;253.133;293.292
5447265.694;159.256;604.540;152.774;128.672;265.315;241.511;239.499;268.668
5447265.702;158.399;594.519;154.935;126.474;261.404;237.674;238.419;264.309
5447265.710;155.531;582.635;154.264;123.344;255.927;236.034;233.315;266.545
5447265.705;176.691;597.388;180.975;148.900;274.777;254.922;253.432;288.375
5447265.713;159.740;574.291;168.160;133.924;254.475;236.519;235.997;272.021
5447265.721;120.774;531.003;133.254;97.454;209.361;206.679;208.914;241.771
5447265.729;144.653;549.369;164.919;118.352;243.001;225.045;228.956;256.114
5447265.737;129.789;529.513;153.445;104.494;224.784;209.995;211.410;237.003
5447265.745;128.485;524.372;155.941;102.259;219.047;199.303;203.140;229.664
5447265.753;126.697;520.721;156.946;102.445;210.814;195.242;202.991;219.755
5447265.761;134.148;524.335;164.956;111.088;215.396;204.220;208.691;233.948
5447265.769;128.224;514.500;158.958;103.898;207.163;196.360;201.836;231.452
5447265.777;137.687;520.572;169.575;112.839;204.220;203.475;207.946;235.215
5447265.785;132.397;511.184;168.756;107.065;207.908;194.311;198.781;226.572
5447265.793;139.512;513.680;177.883;110.902;218.228;205.897;209.361;233.836
5447265.801;161.491;533.760;197.962;138.730;228.509;227.317;229.292;251.383
5447265.809;134.073;504.032;168.905;116.043;193.566;195.540;200.346;223.108
5447265.817;123.493;489.168;157.990;107.884;183.396;188.909;193.119;214.986
5447265.825;132.062;491.254;168.942;113.808;190.102;194.199;198.744;225.976
5447265.833;131.056;484.996;169.091;112.616;188.164;197.962;200.607;222.586
5447265.841;92.424;443.831;132.024;79.982;144.988;174.381;170.395;190.325
5447265.849;81.398;429.824;120.811;72.047;128.709;172.891;171.065;192.411
5447265.857;89.519;432.618;129.938;80.056;155.270;183.284;180.863;206.418
5447265.865;97.565;436.604;139.587;89.258;158.623;198.595;197.068;222.474
5447265.873;112.243;450.052;153.482;106.953;166.334;215.992;217.184;235.178
5447265.881;91.083;423.789;133.477;80.653;144.914;197.366;202.619;217.706
5447265.889;90.376;419.691;132.583;83.670;140.145;184.961;186.525;209.548
5447265.810;108.331;436.045;144.877;108.778;147.596;191.368;190.027;213.794
5447265.818;118.092;443.943;150.390;123.903;146.180;198.223;201.464;221.580
5447265.826;85.644;409.111;123.009;92.238;126.138;165.962;169.910;184.625
5447265.834;136.308;457.242;173.375;145.659;178.665;216.849;219.196;237.599
5447265.842;120.923;438.876;153.221;133.850;150.912;204.518;210.479;223.927
5447265.850;80.355;399.947;95.144;100.471;97.379;180.341;184.625;197.776
5447265.858;50.738;372.007;49.546;77.114;58.860;159.927;161.044;179.298
5447265.866;64.075;382.774;81.025;90.301;76.480;176.132;177.883;191.666
5447265.874;55.917;371.598;84.043;80.094;79.460;171.326;172.295;185.482
5447265.882;34.310;349.544;63.255;58.785;68.657;136.830;139.773;158.884
5447265.890;68.769;384.524;93.244;97.007;102.706;169.016;171.736;190.437
5447265.898;94.734;408.776;115.335;125.803;96.932;187.457;188.760;207.052
5447265.906;67.577;376.739;94.324;98.385;81.696;160.001;162.534;183.210
5447265.914;56.811;362.881;104.010;86.725;98.720;149.086;150.725;174.828
5447265.922;58.264;362.098;86.278;96.001;89.705;149.608;151.023;176.542
5447265.930;42.208;342.615;56.736;79.051;34.012;135.303;131.913;162.795
5447265.938;28.722;326.224;54.389;74.394;4.992;129.789;124.052;156.239
5447265.946;32.224;326.447;62.138;79.684;70.371;141.636;132.807;162.907
5447265.954;4.731;298.210;36.620;52.489;33.304;123.680;110.008;141.561
5447265.962;23.618;316.352;50.627;76.108;24.252;151.508;139.028;165.552
5447265.970;84.490;375.286;111.051;140.630;87.805;207.759;201.426;216.402
5447265.978;95.256;384.264;122.413;152.364;97.752;209.026;207.238;224.039
5447265.986;86.613;372.082;110.678;143.610;74.357;195.652;194.237;213.310
5447265.994;60.312;344.105;90.748;122.190;51.521;171.214;168.644;191.443
5447265.991;64.932;347.048;97.007;128.672;56.736;177.808;171.959;200.197
5447265.999;80.355;359.118;114.366;148.229;63.740;198.968;191.554;214.651
5447266.007;36.135;312.068;70.035;126.809;13.337;160.411;148.304;172.071
5447266.015;18.217;293.143;50.813;145.100;-6.072;161.640;146.255;174.679
5447266.023;21.085;295.341;51.633;163.317;-14.044;184.588;168.830;191.778
5447266.031;15.013;282.489;59.046;152.923;-7.488;182.167;161.193;194.162
5447266.039;3.316;266.656;59.679;137.687;-6.594;156.984;133.924;168.942
5447266.047;20.564;275.671;75.176;142.865;8.270;150.800;132.881;168.793
5447266.055;56.624;300.296;111.535;161.678;37.029;166.297;151.396;192.635
5447266.063;45.560;278.614;102.669;138.544;23.544;150.502;135.824;178.777
5447266.071;68.247;291.318;129.379;149.943;46.827;161.529;149.533;187.419
5447266.079;104.755;320.189;174.493;180.379;88.811;191.815;180.714;218.824
5447266.087;84.117;292.622;157.207;152.178;69.514;162.944;153.929;192.784
5447266.095;51.372;254.624;124.425;112.951;36.769;120.588;111.908;159.107
5447266.103;39.041;235.550;115.298;91.530;27.567;104.457;94.473;145.733
5447266.111;61.020;249.892;151.470;104.196;55.432;114.404;103.638;145.435
5447266.119;75.661;259.764;171.736;115.968;72.829;127.666;113.584;156.723
5447266.127;106.506;288.226;200.011;147.596;89.705;156.760;145.622;191.256
5447266.135;94.473;273.176;191.219;134.744;85.346;139.736;132.024;163.615
5447266.143;80.355;254.810;178.926;121.333;66.236;122.450;114.292;146.106
5447266.151;88.103;259.988;186.637;129.268;66.385;125.729;117.235;149.980
5447266.159;107.996;277.422;212.044;147.149;83.372;147.000;139.661;171.363
5447266.167;96.448;262.260;202.693;131.354;64.373;134.334;127.405;165.328
5447266.175;100.769;265.427;204.444;136.346;68.173;139.847;135.750;173.710
5447266.140;70.371;231.974;179.522;104.569;36.173;107.288;101.067;140.443
5447266.148;67.726;226.945;191.927;100.657;49.993;105.314;98.720;139.400
5447266.156;68.024;227.503;193.529;100.955;45.784;105.910;102.408;134.595
5447266.164;53.011;213.981;176.802;91.083;16.131;94.548;92.722;119.954
5447266.172;41.015;198.968;166.558;76.443;5.551;87.246;85.533;117.421
5447266.180;51.819;207.797;180.453;84.229;14.082;99.503;95.740;134.185
5447266.188;69.030;229.031;194.535;101.440;16.801;110.492;109.896;146.665
5447266.196;80.578;238.456;199.750;113.770;21.383;123.456;121.482;155.903
5447266.204;53.793;207.424;170.283;85.235;-11.697;93.803;92.871;127.740
5447266.212;63.367;212.528;201.501;91.307;21.234;99.950;98.087;137.240
5447266.220;77.486;226.311;210.702;105.612;27.716;97.118;92.387;132.509
5447266.228;66.757;217.445;194.944;96.709;4.210;84.825;80.839;124.350
5447266.236;73.463;224.747;200.830;101.887;0.894;96.820;96.001;131.801
5447266.244;51.558;198.372;181.347;68.955;-6.445;65.789;68.657;103.451
5447266.252;29.989;177.138;170.805;43.400;-26.375;46.566;47.423;88.736
5447266.260;34.943;178.590;189.058;42.543;-3.204;45.188;45.300;90.227
5447266.268;89.966;234.507;244.230;90.376;49.397;89.444;94.771;135.452
5447266.276;74.506;219.420;220.463;66.124;30.436;73.165;75.512;122.786
5447266.284;37.104;180.565;169.799;22.016;-13.188;38.482;37.216;96.001
5447266.292;62.250;201.911;216.402;38.892;19.521;63.330;63.442;121.705
5447266.300;69.588;206.605;239.238;44.405;56.103;78.417;77.039;130.683
5447266.308;82.962;215.434;249.296;54.240;66.310;95.963;89.891;148.900
5447266.316;77.039;204.220;236.630;45.151;52.676;97.118;87.097;144.169
5447266.324;53.011;178.665;204.407;23.320;17.844;82.366;71.935;124.052
5447266.304;51.782;175.610;202.022;22.277;24.140;88.774;80.690;128.597
5447266.312;19.334;140.183;173.859;-10.245;-6.035;65.118;56.103;104.867
5447266.320;0.894;119.768;150.800;-24.587;-27.791;51.521;41.164;89.929
5447266.328;35.539;147.894;181.869;6.780;3.763;78.268;62.734;115.894
5447266.336;19.968;124.723;171.661;-11.027;-6.929;65.230;50.552;102.483
5447266.344;-7.711;92.275;142.865;-35.726;-30.436;41.202;27.232;77.859
5447266.352;-3.949;90.934;145.808;-33.379;-29.579;44.256;31.516;81.174
5447266.360;38.855;130.311;188.909;9.127;10.766;80.131;70.669;118.464
5447266.368;75.400;165.217;219.308;48.615;40.121;104.941;102.445;141.189
5447266.376;54.054;139.587;194.609;27.306;3.055;78.306;78.939;109.896
5447266.384;60.424;140.443;202.432;34.347;28.424;89.444;89.556;126.362
5447266.392;46.603;122.935;186.116;20.452;19.781;75.996;78.268;118.390
5447266.400;40.755;112.727;176.504;13.448;12.182;65.900;69.812;104.979
5447266.408;20.303;87.321;153.184;-5.066;-8.531;52.638;55.805;90.450
5447266.416;33.863;94.846;166.409;10.841;3.241;72.494;71.451;104.718
5447266.424;48.615;106.059;175.573;19.260;9.090;88.550;84.378;118.725
5447266.432;24.326;79.162;148.565;-34.943;-8.233;67.167;66.422;94.362
5447266.440;9.276;60.014;128.485;-63.255;-17.844;49.844;50.850;74.618
5447266.448;-12.293;36.359;101.663;-84.005;-47.423;31.702;37.625;54.836
5447266.456;68.657;118.054;175.722;2.347;32.634;119.545;129.379;144.914
5447266.464;57.705;103.042;167.675;-12.331;37.812;100.471;109.896;130.236
5447266.472;43.213;90.487;155.270;-30.808;27.344;73.910;82.441;101.775
5447266.480;40.345;91.940;151.694;-38.184;17.621;54.985;65.081;84.564
5447266.488;79.349;133.999;196.435;-5.476;69.253;69.067;81.733;99.130
5447266.514;118.166;172.257;237.599;18.477;108.667;78.939;90.003;107.177
5447266.522;104.904;158.474;227.392;-7.190;95.554;40.941;46.380;70.147
5447266.530;96.224;152.104;222.735;-24.140;86.613;15.758;21.234;46.678
5447266.538;168.458;230.074;295.006;46.603;158.921;68.322;76.108;95.628
5447266.546;191.033;257.678;322.424;68.359;184.700;77.561;81.919;102.893
5447266.554;190.027;262.819;308.566;61.914;175.163;71.898;78.604;88.327
5447266.562;186.376;277.236;298.135;60.908;166.111;71.041;75.400;81.584
5447266.570;192.299;302.717;329.129;67.241;189.506;75.735;78.790;82.627
5447266.578;185.557;302.196;318.475;60.759;189.804;74.618;75.810;83.707
5447266.586;176.951;289.269;294.559;45.300;179.224;70.445;74.282;81.286
5447266.594;161.529;269.152;265.911;27.381;157.878;60.983;69.626;77.151
5447266.602;141.077;243.597;241.883;9.574;145.026;53.756;65.044;70.333
5447266.610;126.697;224.449;223.294;0.000;142.194;52.489;68.918;74.208
5447266.618;116.266;210.218;207.834;0.969;134.893;59.307;80.317;85.756
5447266.626;90.189;179.298;173.710;-20.862;108.741;54.501;75.623;88.923
5447266.634;67.055;151.582;144.057;-41.947;84.266;47.721;69.775;80.243
5447266.642;51.334;130.795;129.752;-55.805;81.919;41.872;67.092;74.245
5447266.650;42.096;116.229;122.376;-62.734;74.692;46.231;69.700;79.796
5447266.658;34.273;103.489;112.951;-69.253;72.271;47.386;70.781;79.833
5447266.666;20.079;85.793;96.522;-79.311;62.995;33.826;59.307;67.241
5447266.674;12.331;72.457;86.613;-86.054;61.020;30.957;58.226;69.737
5447266.682;11.884;66.571;81.249;-81.807;58.375;44.405;72.047;78.902
5447266.690;17.807;70.855;82.366;-62.548;53.756;59.195;84.676;88.401
5447266.698;-3.055;45.821;54.240;-80.094;25.742;39.488;64.000;65.677
5447266.770;8.531;51.782;62.548;-65.751;33.788;49.956;70.222;72.904
5447266.778;9.649;49.919;58.748;-60.089;27.716;54.538;75.959;75.437
5447266.786;15.385;53.421;59.269;-49.919;28.834;60.610;83.894;80.243
5447266.794;25.518;59.381;68.806;-39.116;33.081;64.224;85.905;84.490
5447266.802;31.851;61.430;71.935;-31.777;29.579;65.193;88.736;84.229
5447266.810;11.735;37.365;56.513;-51.744;21.458;47.199;71.190;69.365
5447266.818;15.423;38.370;58.636;-47.460;22.650;50.701;75.139;73.947
5447266.826;13.597;33.751;55.209;-47.870;17.993;49.770;74.841;76.927
5447266.834;7.078;24.140;47.721;-48.690;6.296;46.641;73.798;70.706
5447266.842;-7.860;7.562;29.765;-58.375;-15.087;37.216;64.373;55.432
5447266.850;-21.867;-8.754;13.299;-67.241;-35.800;36.247;60.089;57.071
5447266.858;-9.127;-1.229;22.575;-55.060;-34.422;47.758;71.414;66.496
5447266.866;-41.425;-37.067;-11.064;-88.587;-67.130;17.174;42.804;34.794
5447266.874;-66.571;-61.840;-43.102;-107.028;-101.738;-9.574;17.583;8.941
5447266.882;-2.161;0.261;32.261;-42.841;-23.246;50.701;80.243;68.136
5447266.890;18.477;19.260;56.066;-17.695;4.284;70.594;96.932;86.538
5447266.898;4.619;3.129;36.508;-31.590;-20.228;50.403;75.400;67.949
5447266.906;0.261;-3.129;32.783;-37.849;-35.278;42.617;68.732;59.493
5447266.914;-12.852;-17.695;21.197;-45.151;-57.034;25.183;50.366;42.692
5447266.922;7.227;2.310;41.351;-25.518;-34.459;46.194;73.537;59.456
5447266.930;-9.164;-12.815;24.065;-39.600;-54.352;33.602;62.361;46.194
5447266.938;-11.139;-13.970;24.885;-40.382;-50.738;28.871;57.295;44.890
5447266.946;9.798;8.978;42.953;-15.683;-40.531;52.750;81.919;68.918
5447266.954;-2.682;-5.998;33.937;-28.946;-50.366;40.494;66.012;55.283
5447266.995;-11.250;-19.595;29.877;-45.449;-51.670;16.689;39.041;33.900
5447267.003;-24.363;-33.751;20.489;-60.052;-57.556;16.131;40.196;38.482
5447267.011;-15.348;-27.195;33.304;-57.630;-42.394;25.705;48.354;48.578
5447267.019;-7.115;-22.240;44.480;-55.246;-29.281;29.877;48.950;47.348
5447267.027;-5.513;-24.773;50.403;-60.089;-19.707;28.871;47.013;49.882
5447267.035;38.892;15.758;98.310;-23.171;29.951;72.084;92.462;92.462
5447267.043;23.730;-0.037;85.905;-37.812;18.291;60.238;81.696;76.853
5447267.051;1.378;-26.524;66.720;-65.751;2.421;37.253;58.711;54.128
5447267.059;-14.268;-47.199;51.334;-89.332;-9.760;29.281;46.529;46.752
5447267.067;-40.494;-73.463;25.481;-112.727;-35.837;15.944;31.032;27.455
5447267.075;-30.808;-60.648;34.459;-97.118;-17.099;29.765;45.523;41.053
5447267.083;-36.098;-61.691;19.930;-96.299;-35.055;22.836;38.929;34.980
5447267.091;-40.904;-66.720;13.597;-101.179;-42.729;12.107;25.071;20.005
5447267.099;-40.494;-65.304;16.242;-93.319;-38.780;13.635;23.879;20.899
5447267.107;-35.428;-59.679;18.515;-82.627;-36.284;20.005;27.791;30.622
5447267.115;-33.081;-58.338;14.864;-80.280;-35.018;18.142;25.816;29.765
5447267.123;-32.783;-57.966;12.331;-76.257;-36.620;23.879;29.840;33.714
5447267.131;-7.451;-34.310;32.671;-50.180;-17.062;55.283;64.410;63.330
5447267.139;-17.509;-46.566;18.403;-57.817;-30.361;49.733;61.691;54.613
5447267.147;-21.979;-53.048;8.531;-58.785;-41.164;31.367;42.059;35.763
5447267.155;-26.748;-58.822;-2.496;-62.287;-51.670;19.446;32.298;25.034
5447267.163;-56.252;-90.934;-28.908;-92.387;-70.594;-16.727;-9.835;2.161
5447267.171;-15.944;-51.893;8.233;-47.944;-35.241;24.214;30.659;40.904
5447267.179;0.335;-37.067;21.793;-30.808;-13.597;45.486;56.177;51.409
5447267.204;-19.632;-60.312;-0.335;-51.372;-32.894;32.149;44.629;37.737
5447267.212;-29.057;-74.171;-13.784;-56.550;-43.660;25.071;35.204;35.949
5447267.220;-21.942;-73.053;-8.531;-45.970;-33.081;42.804;45.635;51.260
5447267.228;-50.180;-102.930;-39.600;-72.457;-66.571;22.091;22.240;30.100
5447267.236;-79.758;-129.677;-73.090;-99.503;-87.172;-0.335;-2.198;10.058
5447267.244;-68.918;-112.429;-72.382;-80.578;-85.831;19.595;21.756;20.042
5447267.252;-28.536;-68.657;-32.187;-34.831;-45.151;60.201;67.241;52.452
5447267.260;-27.381;-63.330;-35.428;-27.642;-36.322;67.018;74.059;57.779
5447267.268;-10.766;-47.125;-25.071;-9.686;-25.406;85.086;90.748;80.429
5447267.276;-53.830;-93.244;-77.337;-48.652;-70.147;38.482;41.425;34.235
5447267.284;-65.342;-105.575;-99.540;-57.593;-85.868;29.355;32.075;28.275
5447267.292;-59.977;-99.204;-98.087;-50.887;-93.170;30.957;33.751;23.656
5447267.300;-89.481;-126.399;-125.803;-72.643;-113.472;18.924;14.342;6.184
5447267.308;-74.953;-111.461;-110.939;-35.688;-86.874;39.004;33.937;26.524
5447267.316;-30.026;-66.310;-66.943;28.200;-37.514;77.598;70.781;61.765
5447267.324;-25.854;-64.075;-64.783;33.081;-35.465;80.280;67.912;61.020
5447267.332;-48.168;-87.321;-94.771;9.909;-69.663;58.971;43.586;37.514
5447267.340;-5.960;-49.509;-55.656;47.460;-30.883;99.093;79.088;75.512
5447267.348;0.745;-50.217;-50.515;44.815;-20.154;93.654;71.004;76.517
5447267.356;-3.576;-61.430;-60.350;32.149;-28.312;70.147;47.870;65.677
5447267.364;-12.591;-77.747;-73.276;17.211;-40.755;48.652;28.349;48.541
5447267.372;-1.639;-73.388;-68.285;19.968;-38.594;46.566;28.610;45.113
5447267.380;-3.278;-75.474;-71.712;20.750;-43.623;45.709;28.424;45.747
5447267.388;-28.387;-101.253;-96.560;-1.304;-64.597;20.303;6.482;21.756
5447267.445;-44.294;-122.562;-109.561;-20.638;-87.544;12.890;1.155;19.968
5447267.453;-8.903;-92.052;-71.116;10.692;-50.962;42.729;32.559;48.093
5447267.461;-25.220;-112.504;-86.352;-9.313;-66.459;14.864;8.047;16.242
5447267.469;-38.333;-128.821;-97.193;-19.260;-89.146;-4.359;-15.609;2.906
5447267.477;-16.131;-111.945;-71.935;0.633;-75.437;15.758;3.241;22.054
5447267.485;-7.004;-109.598;-58.860;5.811;-74.580;24.997;12.405;33.751
5447267.493;1.229;-106.283;-43.698;12.442;-73.910;40.419;29.281;49.323
5447267.501;29.802;-82.292;-5.849;37.476;-36.918;64.820;58.264;76.182
5447267.509;27.679;-87.470;-1.341;36.322;-41.835;52.825;46.156;62.250
5447267.517;28.759;-90.599;5.215;32.261;-49.658;47.497;39.116;61.058
5447267.525;16.876;-105.500;-0.484;17.546;-68.061;26.077;23.320;33.788
5447267.533;11.101;-113.435;1.341;8.754;-75.810;12.852;15.199;22.389
5447267.541;19.148;-105.835;14.007;13.262;-73.947;12.927;17.881;25.555
5447267.549;42.506;-81.882;46.119;39.041;-49.025;31.553;36.992;46.343
5447267.557;14.938;-110.641;25.071;8.345;-75.288;-0.484;6.817;19.856
5447267.565;17.658;-108.071;31.032;8.792;-80.056;1.416;9.425;25.555
5447267.573;9.649;-115.074;25.481;1.974;-93.952;-11.623;-3.725;9.052
5447267.581;21.607;-103.712;39.339;11.772;-89.034;-17.658;-10.766;5.178
5447267.589;37.365;-87.321;58.338;30.026;-82.739;-11.548;-5.476;8.605
5447267.597;63.181;-56.922;87.470;57.630;-57.369;2.235;10.021;18.254
5447267.605;87.954;-28.387;113.323;82.366;-38.929;9.760;22.128;22.203
5447267.613;114.404;1.974;141.412;107.810;-21.979;12.815;27.828;27.157
5447267.621;116.043;8.307;150.800;105.910;-21.197;-10.729;3.017;10.431
5447267.629;166.409;60.759;207.759;145.584;23.618;0.335;14.342;22.464
5447267.625;196.584;95.442;241.697;168.420;49.435;10.319;25.705;29.318
5447267.633;211.932;112.802;260.845;174.753;64.000;9.723;21.979;28.759
5447267.641;200.421;100.434;251.383;158.586;53.421;-5.364;4.098;23.432
5447267.649;186.414;84.415;235.289;142.753;37.961;-16.913;-7.339;9.686
5447267.657;216.924;112.616;261.441;175.685;59.456;33.863;42.766;53.495
5447267.665;186.153;78.119;228.100;141.189;29.504;17.844;23.581;46.268
5447267.673;163.056;50.515;201.091;113.249;13.262;7.749;11.325;35.651
5447267.681;153.407;39.935;188.015;112.690;2.682;-4.321;1.863;10.841
5447267.689;130.311;16.168;159.889;94.995;-20.564;-18.738;-12.480;-1.676
5447267.697;115.596;-0.186;140.257;85.272;-34.235;-23.134;-14.268;-1.751
5447267.705;96.187;-21.383;117.980;66.608;-47.497;-25.071;-13.076;-1.751
5447267.713;66.496;-53.123;83.894;38.706;-78.827;-38.072;-28.908;-18.068
5447267.721;112.802;-11.437;126.809;85.719;-32.783;13.597;22.314;32.559
5447267.729;123.307;-4.955;135.005;93.393;-19.111;23.246;34.161;48.243
5447267.737;113.547;-16.168;122.972;87.246;-31.702;17.062;28.647;38.184
5447267.745;107.400;-25.667;118.166;82.217;-26.971;17.136;24.587;33.863
5447267.753;104.122;-30.212;111.610;82.217;-25.742;29.430;34.384;37.998
5447267.761;88.327;-46.976;93.319;71.265;-40.680;29.765;29.355;33.304
5447267.769;77.002;-60.461;81.994;60.797;-51.074;43.400;40.866;48.541
5447267.777;60.685;-78.864;66.534;44.331;-60.312;27.306;16.466;48.280
5447267.785;62.101;-79.423;62.957;45.523;-58.152;9.425;7.749;25.257
5447267.793;95.889;-48.317;92.424;79.311;-24.661;45.486;50.738;61.393
5447267.801;50.254;-97.789;44.368;30.585;-70.147;-8.829;-0.075;3.986
5447267.809;39.525;-110.455;30.175;17.621;-80.392;-23.283;-13.188;-8.084
5447267.745;62.585;-88.699;51.334;43.549;-51.595;0.633;8.456;17.770
5447267.753;78.194;-76.853;65.714;58.971;-30.659;21.569;26.673;41.835
5447267.761;67.465;-87.954;51.148;50.217;-40.159;19.707;22.464;34.794
5447267.769;27.902;-123.940;4.210;12.927;-88.736;-13.150;-7.935;6.929
5447267.777;45.188;-104.234;17.844;31.553;-62.883;-2.310;4.582;20.154
5447267.785;99.503;-49.584;66.310;91.977;-10.021;52.303;64.075;62.361
5447267.793;76.815;-75.325;41.351;71.116;-28.647;31.292;42.245;39.674
5447267.801;85.793;-67.987;47.609;79.088;-17.919;40.457;50.254;47.572
5447267.809;99.130;-54.091;56.624;94.362;-3.390;55.917;60.014;58.785
5447267.817;81.621;-70.445;35.539;77.821;-18.328;46.343;47.609;51.633
5447267.825;93.952;-56.885;45.188;90.636;-6.706;65.491;61.765;69.775
5447267.833;105.612;-45.858;50.403;99.950;-10.729;76.778;73.351;73.500
5447267.841;91.009;-60.052;37.737;87.582;-2.123;69.104;63.665;57.146
5447267.849;86.129;-63.144;31.292;87.880;-1.453;62.287;54.464;50.887
5447267.857;78.715;-69.812;23.171;77.933;-9.574;48.801;40.308;40.084
5447267.865;80.317;-68.694;25.369;78.864;-7.749;59.940;47.646;49.546
5447267.873;109.114;-39.637;52.638;109.673;16.391;95.144;81.100;77.710
5447267.881;104.085;-42.506;45.374;113.174;10.952;103.563;87.470;74.767
5447267.889;100.583;-49.882;42.543;105.351;11.437;101.589;83.335;75.363
5447267.897;117.235;-39.302;55.619;111.312;26.450;99.428;83.558;79.647
5447267.905;113.286;-45.672;47.982;105.128;15.572;87.060;73.388;69.141
5447267.913;105.910;-54.725;38.445;97.789;18.924;71.824;63.106;61.281
5447267.921;107.102;-53.644;39.153;103.228;24.848;69.551;62.026;59.381
5447267.929;102.632;-59.307;33.490;98.012;24.252;65.006;55.581;49.248
5447267.894;119.247;-42.655;47.199;113.025;37.551;74.245;68.396;65.453
5447267.902;92.089;-70.930;19.372;87.656;11.697;49.435;42.878;46.007
5447267.910;108.331;-56.773;33.230;104.122;27.008;67.875;60.201;70.184
5447267.918;90.078;-74.618;15.497;88.736;16.242;58.562;51.074;62.175
5447267.926;89.854;-74.692;15.348;92.648;17.472;60.201;55.879;61.095
5447267.934;83.856;-81.956;8.196;85.048;9.425;37.886;33.937;43.735
5447267.942;84.601;-80.913;10.580;89.146;17.695;40.904;37.178;47.833
5447267.950;72.345;-91.642;-3.353;80.056;9.313;32.485;32.522;33.230
5447267.958;91.977;-69.216;14.491;105.686;21.383;58.636;58.860;53.421
5447267.966;87.023;-73.351;11.250;103.228;17.248;62.808;65.714;51.782
5447267.974;72.904;-88.699;-0.373;85.719;18.142;50.291;50.254;47.088
5447267.982;71.898;-88.885;1.118;86.278;16.801;58.487;55.581;58.860
5447267.990;76.815;-85.235;7.935;85.682;18.664;52.564;47.460;56.028
5447267.998;86.948;-74.543;16.391;96.373;25.928;54.166;47.758;57.109
5447268.006;89.258;-72.531;18.962;99.801;25.965;57.928;54.389;57.518
5447268.014;75.810;-88.103;6.035;84.713;15.236;46.939;42.953;49.099
5447268.022;65.304;-99.130;-4.284;77.933;5.998;46.939;44.964;45.486
5447268.030;38.408;-128.485;-29.840;47.907;-18.030;24.810;21.830;26.189
5447268.038;40.717;-127.330;-26.524;53.197;-15.572;36.769;34.049;38.110
5447268.046;43.362;-126.623;-24.252;58.748;-14.566;44.405;41.313;43.251
5447268.054;49.882;-126.027;-21.681;59.642;-16.168;46.045;44.182;42.431
5447268.062;60.089;-120.439;-13.486;67.502;-14.007;65.528;64.149;53.458
5447268.070;42.841;-139.922;-30.361;49.286;-19.856;49.323;45.337;33.230
5447268.078;18.850;-164.472;-54.948;26.561;-45.411;24.587;21.867;12.182
5447268.080;5.551;-178.777;-67.353;13.635;-60.163;14.491;15.274;6.817
5447268.088;17.211;-168.644;-57.556;23.730;-50.329;28.387;29.765;28.424
5447268.096;28.498;-159.182;-43.996;34.869;-41.388;44.331;47.386;35.428
5447268.104;16.876;-173.859;-54.128;20.601;-50.552;25.667;29.989;11.511
5447268.112;1.155;-191.331;-68.881;5.029;-67.167;8.345;13.001;-1.639
5447268.120;-9.425;-204.518;-80.690;-4.470;-83.745;0.149;5.290;-9.835
5447268.128;18.626;-180.230;-53.234;22.016;-57.742;13.150;18.887;5.178
5447268.136;28.349;-173.710;-41.872;34.831;-44.033;27.530;34.980;12.740
5447268.144;37.402;-167.526;-32.373;41.053;-35.167;33.639;41.574;24.438
5447268.152;36.135;-170.767;-31.814;40.382;-41.053;21.458;30.920;11.399
5447268.160;40.643;-165.850;-26.561;48.690;-41.723;21.718;34.198;11.548
5447268.168;35.353;-172.406;-32.336;40.717;-49.695;14.640;30.845;4.657
5447268.176;36.694;-172.928;-30.659;43.362;-54.017;22.352;37.961;9.127
5447268.184;36.396;-176.393;-28.461;42.915;-49.770;21.048;36.769;11.846
5447268.192;13.188;-200.495;-46.380;22.091;-61.169;0.782;15.907;-8.047
5447268.200;4.321;-210.144;-54.874;14.789;-70.222;-2.086;15.013;-15.572
5447268.208;11.735;-204.183;-50.217;20.675;-75.325;1.453;20.638;-2.868
5447268.216;10.841;-205.301;-49.733;23.134;-74.878;0.671;15.274;-5.066
5447268.224;-9.350;-226.386;-69.253;4.806;-87.358;-25.108;-11.660;-38.147
5447268.232;1.006;-217.445;-61.244;15.236;-86.203;-7.302;6.706;-16.838
5447268.240;30.138;-189.133;-32.783;46.529;-59.009;15.944;29.765;2.161
5447268.248;24.401;-195.578;-37.812;37.365;-57.407;1.304;14.864;-8.233
5447268.256;27.046;-194.982;-36.024;39.190;-54.985;13.560;27.753;1.341
5447268.264;32.559;-190.586;-31.963;42.506;-51.260;10.282;29.653;-5.104
5447268.300;43.437;-179.149;-20.936;54.538;-42.617;25.332;41.202;15.795
5447268.308;6.594;-215.434;-58.971;20.191;-83.745;-10.468;4.321;-21.011
5447268.316;28.014;-195.280;-39.041;38.482;-58.375;-3.241;13.560;-7.115
5447268.324;74.171;-149.384;6.780;86.091;-5.811;44.256;57.891;36.210
5447268.332;53.607;-170.879;-15.646;61.952;-25.481;27.679;40.457;23.469
5447268.340;43.586;-180.416;-27.344;53.495;-39.451;24.848;37.439;22.016
5447268.348;53.905;-171.922;-14.752;56.848;-21.532;15.907;25.481;16.466
5447268.356;50.515;-176.951;-20.005;46.678;-20.564;-18.068;-3.949;-29.206
5447268.364;40.382;-189.953;-32.000;29.430;-31.590;-30.547;-15.497;-38.631
5447268.372;63.851;-170.283;-14.454;22.501;-11.101;-22.091;-5.215;-22.016
5447268.380;23.358;-212.379;-60.499;-30.920;-54.240;-59.716;-45.449;-63.740
5447268.388;63.218;-171.326;-24.997;13.299;-11.921;-3.465;6.147;-15.013
5447268.396;92.722;-137.873;-1.043;45.262;21.122;33.565;42.357;26.561
5447268.404;71.675;-155.345;-25.444;28.834;4.247;16.652;27.157;5.141
5447268.412;66.571;-157.617;-34.384;24.736;-2.496;11.362;23.358;-2.421
5447268.420;93.877;-125.766;-8.382;55.097;22.911;49.621;59.865;34.235
5447268.428;76.815;-139.475;-28.759;40.978;0.857;34.310;45.262;9.872
5447268.436;117.719;-96.112;13.150;82.031;50.925;66.236;77.263;43.213
5447268.444;89.258;-120.103;-13.225;57.928;28.498;51.782;58.785;31.330
5447268.452;73.798;-133.961;-28.498;35.167;14.044;24.587;35.502;6.743
5447268.460;51.484;-149.682;-51.185;28.126;-9.164;12.740;23.209;-8.829
5447268.468;57.220;-131.540;-43.884;63.293;-1.192;37.402;39.637;15.497
5447268.476;43.809;-131.615;-57.518;60.387;-12.554;31.702;31.218;12.554
5447268.484;45.784;-113.286;-52.974;67.875;-13.113;48.950;43.549;27.306
5447268.420;42.804;-87.619;-55.209;61.691;-15.683;44.033;39.078;17.919
5447268.428;57.258;-19.297;-37.774;78.045;-2.049;55.134;47.535;30.249
5447268.436;56.624;31.665;-37.365;74.692;6.445;42.543;34.496;25.891
5447268.444;61.430;55.023;-36.471;70.967;14.342;24.773;18.291;22.016
5447268.452;71.302;67.167;-24.475;80.131;31.628;34.757;24.140;29.206
5447268.460;70.259;63.591;-27.977;74.953;26.412;22.389;8.792;19.930
5447268.468;87.693;79.758;-10.803;91.158;41.351;47.460;29.728;35.688
5447268.476;68.359;60.946;-30.734;75.586;24.103;34.943;14.268;16.429
5447268.484;68.806;59.493;-33.900;73.537;20.079;20.266;1.304;13.709
5447268.492;91.754;78.082;-8.680;95.740;48.093;44.852;26.524;37.290
5447268.500;92.164;73.090;-7.525;92.126;47.535;46.156;29.616;41.723
5447268.508;73.649;54.836;-21.644;78.529;29.281;39.712;24.959;30.361
5447268.516;67.651;47.348;-20.638;75.400;35.688;42.357;26.338;32.410
5447268.524;73.500;47.013;-12.554;75.698;37.551;38.482;22.091;35.986
5447268.532;69.961;38.557;-12.033;72.494;34.273;45.672;28.573;37.774
5447268.540;51.819;15.162;-26.450;49.323;15.609;25.257;11.735;19.185
5447268.548;39.637;-0.075;-36.508;35.837;-3.353;16.242;5.029;11.474
5447268.556;26.599;-14.193;-48.392;21.830;-15.832;10.841;0.857;9.313
5447268.564;34.124;-7.562;-39.786;24.848;-15.646;18.105;13.486;18.589
5447268.572;56.550;11.995;-10.952;51.297;12.927;48.056;42.468;40.568
5447268.580;54.426;5.662;-8.345;45.933;22.054;37.439;33.826;33.267
5447268.588;26.897;-26.524;-30.957;17.360;-6.706;13.001;9.649;10.356
5447268.596;21.756;-39.041;-33.528;11.362;-14.827;7.451;5.923;2.459
5447268.604;18.813;-48.839;-33.863;0.820;-19.670;1.341;-1.490;4.023
5447268.572;37.402;-34.012;-14.380;20.005;-9.164;30.510;24.959;32.596
5447268.580;48.317;-29.840;-2.310;25.742;0.484;22.277;19.521;22.650
5447268.588;65.975;-17.583;21.458;44.219;25.779;33.490;34.422;24.773
5447268.596;51.148;-36.135;8.941;30.324;13.560;22.352;23.954;15.609
5447268.604;64.485;-28.126;24.140;37.402;24.959;22.911;28.871;22.352
5447268.612;51.074;-45.262;16.242;26.077;9.760;14.119;20.117;15.870
5447268.620;82.366;-18.701;49.584;51.446;39.116;34.757;44.852;39.823
5447268.628;64.708;-37.886;34.720;34.794;10.692;19.744;31.851;20.713
5447268.636;46.529;-55.656;21.234;20.154;-0.186;7.823;18.664;18.142
5447268.644;62.101;-43.213;40.233;31.441;25.816;10.729;23.618;20.787
5447268.652;45.672;-61.952;26.785;14.007;1.453;3.278;15.460;4.098
5447268.660;55.470;-54.203;34.794;17.509;0.745;-2.496;15.162;0.298
5447268.668;74.096;-38.855;57.854;33.416;28.796;18.999;36.731;26.412
5447268.676;77.300;-37.067;65.565;39.265;37.327;13.635;32.373;23.842
5447268.684;93.319;-21.495;80.168;53.346;42.133;23.320;47.944;40.270
5447268.692;84.564;-32.373;73.127;42.953;30.957;16.578;38.370;26.077
5447268.700;76.704;-44.815;67.204;28.461;24.959;-8.233;13.150;11.213
5447268.708;63.814;-60.461;54.613;16.131;8.680;-9.350;8.456;6.333
5447268.716;27.679;-97.416;16.689;-16.093;-39.302;-37.365;-18.850;-26.152
5447268.724;23.767;-102.930;13.895;-21.942;-28.908;-62.771;-41.053;-49.099
5447268.732;69.700;-58.077;62.473;27.902;25.108;-1.378;18.030;16.131
5447268.740;87.358;-43.139;77.486;42.170;38.482;3.166;27.902;22.836
5447268.748;82.292;-49.695;69.812;36.955;30.622;-10.468;14.976;-0.969
5447268.756;86.650;-46.641;77.598;40.755;29.281;0.000;22.724;7.264
5447268.780;87.470;-47.907;77.821;40.308;37.588;-9.164;13.970;-0.820
5447268.788;96.038;-41.686;84.788;50.366;48.205;-1.304;17.323;-1.118
5447268.796;86.650;-51.185;74.022;38.743;40.457;-13.672;7.190;-3.316
5447268.804;75.661;-60.573;60.946;30.994;26.636;-13.150;4.880;4.210
5447268.812;69.253;-66.943;49.807;27.828;8.382;-13.262;2.831;-10.021
5447268.820;96.299;-41.649;79.349;53.123;51.744;8.158;28.983;9.201
5447268.828;100.434;-38.296;81.658;62.361;56.922;29.020;46.678;29.877
5447268.836;107.922;-35.428;85.719;63.702;60.871;9.835;27.977;21.718
5447268.844;105.985;-41.313;79.535;59.009;58.003;-1.080;19.111;13.039
5447268.852;96.560;-53.793;64.522;52.154;42.133;-5.290;13.039;12.070
5447268.860;98.608;-54.985;68.434;51.893;60.461;-1.751;15.795;18.179
5447268.868;138.469;-20.117;109.486;93.654;109.784;43.288;60.685;54.911
5447268.876;105.575;-57.928;70.892;61.132;66.608;-10.803;10.654;-7.041
5447268.884;88.625;-82.031;52.936;47.609;58.189;-9.798;5.588;-9.425
5447268.892;31.963;-147.447;-6.184;-9.313;-0.596;-53.532;-43.325;-59.083
5447268.900;31.069;-150.055;-9.090;-14.342;3.688;-61.244;-50.403;-60.797
5447268.908;48.168;-129.752;7.525;4.433;26.040;-29.467;-21.718;-33.975
5447268.916;115.149;-63.144;73.835;69.067;92.871;36.731;47.721;29.765
5447268.924;118.949;-59.195;76.778;79.274;96.150;51.334;66.645;36.433
5447268.932;55.917;-121.184;14.491;22.091;36.545;-1.192;11.399;-10.841
5447268.940;27.381;-148.453;-15.348;-8.568;12.070;-35.204;-20.079;-33.937
5447268.948;46.939;-127.256;2.831;11.250;30.361;-6.445;4.582;-5.290
5447268.956;40.494;-130.981;-3.017;4.470;23.656;-19.446;-3.353;-23.991
5447268.964;41.835;-125.803;-0.708;13.113;32.336;-7.972;9.984;-18.738
5447268.961;10.990;-152.290;-30.659;-10.878;13.374;-13.784;-1.676;-23.879
5447268.969;-19.260;-182.018;-58.077;-39.972;-12.517;-40.457;-38.482;-49.770
5447268.977;0.708;-162.981;-36.843;-19.483;2.943;-15.795;-16.689;-35.129
5447268.985;70.184;-96.671;32.745;43.958;70.669;31.702;33.155;14.529
5447268.993;61.356;-108.108;23.656;30.696;62.287;4.135;7.115;-9.499
5447269.001;56.550;-115.484;17.099;24.997;56.326;-11.176;-3.986;-22.277
5447269.009;36.247;-140.183;-3.390;1.006;34.608;-33.416;-24.103;-32.485
5447269.017;14.603;-162.311;-20.973;-15.348;27.977;-36.173;-28.685;-37.514
5447269.025;50.478;-127.628;16.242;17.211;65.416;-3.353;7.600;-4.955
5447269.033;33.863;-146.553;1.341;-2.086;49.621;-15.385;-2.347;-19.521
5447269.041;10.245;-170.432;-22.389;-20.154;24.363;-29.244;-13.672;-35.390
5447269.049;20.713;-160.709;-12.256;-8.158;33.602;-16.950;0.335;-17.807
5447269.057;9.313;-171.028;-21.271;-12.442;32.075;-12.331;3.614;-20.638
5447269.065;18.701;-162.013;-14.156;-2.533;47.460;-4.880;12.927;-14.678
5447269.073;5.960;-175.349;-27.716;-14.715;31.106;-14.715;3.427;-23.134
5447269.081;-2.198;-182.204;-34.794;-16.093;28.461;-18.328;-1.527;-25.220
5447269.089;5.439;-174.269;-29.095;-10.543;36.731;-8.605;6.706;-16.466
5447269.097;2.012;-174.940;-35.614;-9.798;30.026;4.023;14.864;-5.737
5447269.105;26.114;-148.416;-15.870;15.572;51.111;16.913;31.665;11.846
5447269.113;26.822;-147.223;-16.503;16.689;50.589;10.058;26.822;6.258
5447269.121;10.990;-163.503;-34.347;-0.745;31.181;-10.766;6.929;-18.477
5447269.129;39.525;-138.208;-8.568;22.650;56.475;6.817;24.997;4.284
5447269.137;38.892;-139.773;-11.101;27.083;52.303;20.973;36.135;15.646
5447269.145;41.351;-138.246;-10.468;31.628;48.541;20.526;36.135;17.807
5447269.214;45.784;-137.538;0.112;34.273;64.895;16.540;32.969;9.760
5447269.222;23.171;-159.778;-21.122;14.380;40.829;-3.353;17.136;-6.557
5447269.230;54.277;-130.795;9.015;43.064;66.571;14.976;36.955;14.901
5447269.238;56.364;-130.683;13.374;44.703;64.597;21.942;45.709;8.158
5447269.246;47.386;-143.796;6.929;27.008;53.123;-0.708;25.854;-8.643
5447269.254;46.305;-147.782;6.929;23.916;50.776;1.416;28.051;-7.302
5447269.262;32.820;-163.205;-3.688;10.543;42.096;-3.614;22.016;-5.439
5447269.270;38.333;-156.090;1.676;18.366;43.586;4.843;30.287;9.835
5447269.278;8.233;-187.457;-22.277;-9.015;22.389;-10.766;12.964;-11.809
5447269.286;42.766;-152.476;14.305;26.450;56.960;7.153;34.533;8.009
5447269.294;28.387;-164.062;0.075;20.117;35.129;-6.706;24.885;-11.176
5447269.302;36.322;-156.201;9.798;32.112;41.835;-6.445;27.232;-7.935
5447269.310;66.571;-129.379;41.015;54.277;72.047;6.966;41.537;11.288
5447269.318;52.862;-146.851;28.610;37.178;57.593;8.047;42.021;4.023
5447269.326;72.531;-131.838;46.678;59.083;74.618;11.735;44.890;12.703
5447269.334;88.923;-122.115;59.977;81.919;82.254;32.969;62.771;31.404
5447269.342;84.862;-134.483;53.272;79.051;68.061;18.552;42.059;15.497
5447269.350;81.323;-141.859;48.317;82.441;57.258;7.041;33.267;4.470
5447269.358;62.510;-165.664;26.450;70.333;29.914;5.662;31.739;6.668
5447269.366;105.090;-127.144;64.075;115.819;61.244;39.861;67.279;38.482
5447269.374;83.074;-153.258;40.941;95.181;37.402;18.440;49.733;6.519
5447269.382;78.417;-161.827;41.388;91.828;39.637;14.864;51.819;3.427
5447269.390;94.697;-146.553;57.630;111.498;49.174;30.026;68.881;23.767
5447269.398;62.920;-180.602;29.802;84.788;23.730;18.552;54.203;10.207
5447269.351;77.114;-168.160;48.131;98.012;48.317;35.241;66.422;34.384
5447269.359;85.831;-160.076;59.381;107.996;56.475;28.908;54.576;30.436
5447269.367;45.821;-200.011;19.856;69.588;12.666;-9.201;19.334;-20.489
5447269.375;2.235;-243.746;-23.730;27.791;-31.814;-43.921;-12.703;-64.597
5447269.383;-6.035;-253.096;-30.547;25.481;-42.431;-26.040;-1.453;-45.709
5447269.391;-7.115;-256.412;-32.559;21.607;-41.611;-22.240;-2.086;-40.382
5447269.399;53.234;-194.609;27.120;83.074;21.309;46.231;66.422;20.601
5447269.407;37.812;-214.055;14.305;60.201;9.649;27.902;42.915;0.596
5447269.415;28.647;-228.696;2.570;47.237;-0.894;10.207;25.369;-10.878
5447269.423;23.171;-234.880;-6.519;46.678;-5.476;14.380;31.292;0.149
5447269.431;49.174;-209.250;15.758;73.127;21.085;29.169;49.695;17.658
5447269.439;20.191;-238.530;-19.148;46.417;-16.466;-1.527;19.595;-16.131
5447269.447;29.318;-229.552;-13.001;59.046;-4.582;7.339;27.008;-1.751
5447269.455;47.870;-211.410;3.465;77.821;21.569;26.971;46.752;24.661
5447269.463;11.176;-249.110;-35.502;43.660;-12.815;7.860;23.097;4.992
5447269.471;8.866;-252.314;-38.520;39.637;-15.907;-16.540;1.304;-19.372
5447269.479;38.333;-223.443;-11.846;64.895;16.987;-9.499;12.629;-19.744
5447269.487;35.726;-226.200;-17.360;62.659;15.795;-18.142;6.184;-26.859
5447269.495;36.359;-224.970;-17.621;66.385;24.103;-22.762;1.229;-26.561
5447269.503;59.232;-199.266;4.210;96.224;40.494;11.586;31.404;-5.178
5447269.511;22.538;-235.513;-32.894;57.779;4.098;-28.200;-11.176;-41.127
5447269.519;29.840;-228.584;-28.312;63.032;8.456;-5.923;2.943;-12.368
5447269.527;-17.062;-274.777;-73.835;16.354;-33.677;-52.042;-46.492;-63.218
5447269.535;-8.605;-263.974;-61.914;20.079;-17.807;-61.058;-53.942;-76.443
5447269.515;-7.637;-255.927;-59.493;17.360;-13.374;-53.719;-49.248;-68.769
5447269.523;7.451;-227.690;-44.927;31.777;-0.261;-41.351;-35.204;-55.619
5447269.531;28.051;-190.958;-23.842;53.979;19.409;-16.950;-8.717;-33.043
5447269.539;27.120;-176.840;-19.744;55.842;18.068;-18.589;-2.310;-32.261
5447269.547;9.947;-180.118;-33.677;41.798;5.290;-34.869;-14.380;-52.527
5447269.555;7.637;-168.085;-34.794;47.237;2.086;-18.738;0.596;-41.761
5447269.563;9.835;-147.857;-30.287;54.054;7.674;-7.302;13.188;-20.862
5447269.571;17.136;-121.146;-20.973;68.247;18.105;14.640;33.565;-2.012
5447269.579;-28.238;-153.519;-62.808;25.183;-16.913;-16.466;1.863;-32.932
5447269.587;-34.571;-149.570;-68.285;14.976;-19.036;-28.163;-12.182;-39.823
5447269.595;-54.464;-164.956;-90.264;-11.511;-37.849;-52.191;-37.588;-57.481
5447269.603;-34.682;-144.690;-73.127;1.602;-18.179;-51.633;-36.620;-45.560
5447269.611;-15.981;-130.571;-51.372;13.262;2.496;-42.431;-34.273;-36.508
5447269.619;11.437;-105.388;-22.799;36.322;30.138;-29.169;-25.779;-18.142
5447269.627;18.515;-98.832;-17.174;37.774;32.149;-46.380;-44.852;-32.000
5447269.635;17.248;-99.093;-21.718;33.900;25.220;-41.239;-44.331;-26.636
5447269.643;-2.310;-115.857;-43.735;12.219;4.619;-59.418;-62.175;-43.437
5447269.651;45.784;-68.955;9.239;54.985;46.827;-40.568;-35.912;-42.357
5447269.659;54.315;-62.659;14.193;63.591;48.317;-42.208;-35.651;-47.833
5447269.667;76.815;-41.537;35.614;89.295;74.171;-8.121;-2.012;-9.090
5447269.675;63.851;-60.499;26.673;72.941;65.565;2.347;3.725;7.004
5447269.683;58.301;-70.296;24.140;62.995;59.642;7.451;3.390;12.107
5447269.691;34.310;-95.256;9.350;41.276;57.407;-0.112;-6.147;-1.378
5447269.699;32.261;-98.273;11.027;39.078;61.765;6.296;1.118;0.224
5447269.744;-0.335;-130.236;-20.340;5.513;29.802;-34.757;-41.574;-36.694
5447269.752;4.172;-126.399;-11.362;10.021;39.712;-23.060;-32.783;-22.426
5447269.760;37.588;-93.654;24.475;41.388;76.182;11.735;4.992;13.039
5447269.768;10.133;-120.327;-0.931;15.534;48.168;-5.327;-11.511;-5.700
5447269.776;-15.236;-145.808;-25.555;-9.127;21.905;-26.524;-31.851;-24.736
5447269.784;5.290;-126.027;-3.316;8.419;46.417;-11.325;-12.442;-4.657
5447269.792;6.296;-125.132;-0.447;10.915;48.876;-5.923;-3.166;-7.451
5447269.800;-10.692;-142.455;-15.013;-6.296;34.422;-24.587;-19.930;-19.148
5447269.808;8.866;-125.691;4.992;10.394;57.071;-4.210;-0.969;3.800
5447269.816;-20.340;-157.319;-27.418;-23.209;20.191;-33.751;-32.410;-26.524
5447269.824;-8.605;-145.808;-13.225;-12.331;39.078;-29.691;-27.418;-21.979
5447269.832;15.311;-123.940;14.640;10.505;73.276;0.782;2.235;8.792
5447269.840;0.559;-141.561;-0.112;-8.903;64.336;-10.617;-9.015;-5.178
5447269.848;-17.732;-161.342;-21.569;-26.897;46.380;-14.417;-12.182;-16.131
5447269.856;-21.197;-166.893;-25.816;-31.702;44.592;-8.307;-8.531;-10.952
5447269.864;-25.667;-170.060;-35.577;-32.373;33.379;-11.735;-13.709;-7.227
5447269.872;-18.589;-161.976;-32.708;-20.489;28.685;-4.470;-6.445;-3.055
5447269.880;-17.658;-163.428;-31.553;-27.828;28.387;-24.438;-25.481;-19.930
5447269.888;-24.289;-171.177;-37.700;-38.333;19.595;-56.960;-58.077;-47.833
5447269.896;55.432;-93.393;41.276;36.471;93.505;9.760;14.305;13.821
5447269.904;121.780;-27.902;104.792;102.445;146.814;58.077;65.789;64.261
5447269.912;107.922;-43.102;91.419;90.636;131.801;43.437;51.484;51.446
5447269.920;99.130;-54.203;81.137;79.386;118.092;24.773;35.092;37.774
5447269.928;87.917;-66.534;66.906;67.800;107.288;11.437;21.309;24.326
5447269.919;78.157;-78.715;59.307;56.028;103.936;-0.745;7.078;9.164
5447269.927;77.225;-82.478;59.791;51.558;101.887;2.757;10.654;10.356
5447269.935;82.962;-80.541;64.932;55.805;108.369;20.750;31.963;19.819
5447269.943;64.634;-102.632;49.323;32.559;97.565;-1.155;13.299;5.476
5447269.951;96.187;-74.916;83.409;63.479;134.334;31.814;46.119;37.551
5447269.959;91.270;-85.272;76.853;57.518;123.605;26.152;36.806;25.705
5447269.967;82.776;-101.067;69.253;43.362;117.570;13.858;20.005;20.824
5447269.975;97.156;-92.201;88.438;56.550;148.527;41.090;44.294;44.107
5447269.983;84.005;-105.351;72.569;45.970;128.113;18.254;25.965;16.056
5447269.991;88.066;-101.812;77.374;49.137;128.448;21.495;31.479;20.079
5447269.999;77.747;-115.186;71.339;34.645;128.672;14.566;25.742;20.005
5447270.007;68.098;-126.772;63.926;21.197;120.737;0.931;15.609;9.537
5447270.015;86.166;-109.561;82.664;42.096;139.736;21.942;41.425;28.089
5447270.023;86.688;-108.741;85.570;41.351;140.592;10.468;35.278;21.458
5447270.031;73.165;-123.903;77.263;24.140;136.569;0.410;23.991;12.107
5447270.039;50.552;-150.912;60.238;-6.519;126.474;-12.331;11.995;0.857
5447270.047;61.393;-136.942;67.726;9.276;123.419;-7.413;18.217;6.743
5447270.055;86.315;-112.318;95.963;33.453;147.112;-2.235;23.618;13.635
5447270.063;123.307;-71.600;132.099;71.749;176.504;10.729;42.580;30.026
5447270.071;133.514;-58.636;139.922;81.845;169.687;-6.594;25.071;1.825
5447270.079;165.403;-27.902;172.630;109.226;191.554;-0.671;23.730;15.609
5447270.087;218.935;23.469;225.268;154.972;229.888;21.495;49.993;39.041
5447270.095;240.095;47.535;243.038;178.851;233.240;7.451;34.906;17.956
5447270.103;268.593;76.517;268.780;205.897;252.649;22.724;49.919;39.712
5447270.114;252.984;64.373;250.377;193.492;225.566;-8.009;21.234;3.390
5447270.122;264.943;75.847;262.372;203.252;231.005;10.729;38.035;16.615
5447270.130;308.156;118.390;306.331;244.491;272.356;51.558;75.102;59.381
5447270.138;299.290;114.292;297.502;246.242;259.578;44.592;65.826;49.584
5447270.146;261.404;77.076;256.523;209.957;208.989;17.062;41.574;11.437
5447270.154;252.202;68.359;246.428;202.283;202.581;17.770;42.580;6.407
5447270.162;225.976;43.884;217.855;180.490;185.817;10.766;31.963;12.033
5447270.170;231.415;47.795;223.778;181.980;200.830;17.844;41.388;32.522
5447270.178;188.947;5.849;176.951;141.673;151.470;-9.239;12.368;2.496
5447270.186;182.167;1.080;166.707;137.836;133.812;-11.027;13.448;-5.588
5447270.194;217.408;38.780;197.999;176.728;170.693;33.826;57.966;35.875
5447270.202;222.288;41.462;207.908;184.886;196.397;48.801;63.889;50.738
5447270.210;187.159;1.714;176.579;155.717;167.117;35.055;45.411;37.141
5447270.218;112.802;-83.297;101.179;87.880;100.769;-8.941;-3.986;-10.170
5447270.226;102.110;-114.888;93.877;76.257;91.642;-11.735;-6.855;-25.332
5447270.234;83.037;-136.942;74.767;70.855;65.789;-11.139;-6.072;-30.622
5447270.242;41.500;-169.687;25.779;34.980;27.269;-40.121;-38.967;-59.046
5447270.250;41.425;-154.935;20.973;34.422;26.971;-30.138;-30.808;-49.248
5447270.258;43.623;-144.355;23.097;37.514;35.539;4.992;8.456;-22.687
5447270.266;57.966;-136.159;41.202;42.841;51.968;14.380;18.477;-15.534
5447270.274;17.583;-184.290;5.662;1.118;5.364;-18.477;-19.073;-58.226
5447270.282;15.497;-194.609;5.253;-19.260;13.970;-11.511;-22.165;-53.905
5447270.290;76.033;-141.338;65.789;8.233;84.788;40.643;27.530;3.800
5447270.298;84.564;-137.910;86.389;10.952;113.919;46.007;37.327;10.915
5447270.371;49.584;-178.479;54.799;-30.510;84.005;8.568;-4.843;-17.099
5447270.379;31.106;-201.389;36.992;-53.309;68.732;-2.719;-14.901;-33.155
5447270.387;37.439;-195.950;46.156;-51.260;75.735;18.440;12.256;-19.707
5447270.395;32.932;-196.099;47.348;-59.679;75.847;22.687;18.142;-16.913
5447270.403;8.419;-215.657;29.691;-88.289;62.659;5.439;-1.080;-37.067
5447270.411;14.901;-205.673;38.892;-85.719;77.225;8.605;6.706;-28.238
5447270.419;20.154;-197.217;44.741;-78.008;78.902;12.256;17.248;-27.455
5447270.427;27.642;-187.978;55.395;-67.018;87.619;21.011;29.877;-15.385
5447270.435;29.206;-185.855;60.089;-68.024;102.930;19.036;29.691;-13.858
5447270.443;29.095;-187.233;63.404;-72.122;110.827;15.572;20.601;-10.468
5447270.451;33.900;-186.823;70.333;-78.455;121.072;11.064;12.405;-8.233
5447270.459;30.510;-186.265;64.783;-74.618;118.949;4.992;2.943;-13.411
5447270.467;52.638;-152.811;77.896;-32.559;128.858;11.660;10.468;-12.890
5447270.475;56.364;-141.896;74.990;-14.380;126.511;7.041;10.245;-16.019
5447270.483;62.063;-128.858;74.729;31.814;124.536;16.987;19.595;-1.006
5447270.491;53.272;-131.093;55.730;50.329;105.686;19.632;18.403;10.021
5447270.499;25.705;-151.247;22.948;35.278;74.990;6.706;-3.465;1.974
5447270.507;71.339;-99.391;60.573;94.324;113.621;43.064;30.361;29.467
5447270.515;102.557;-62.697;79.349;137.240;130.013;67.949;60.685;40.159
5447270.523;79.907;-79.200;48.578;129.044;96.671;53.756;54.426;17.136
5447270.531;64.895;-91.307;26.971;122.860;75.661;48.876;55.619;12.517
5447270.539;75.325;-77.561;34.273;142.120;86.278;63.218;66.794;24.512
5447270.547;62.212;-85.346;15.125;139.996;70.930;35.837;33.081;4.768
5447270.555;78.604;-63.702;23.209;164.025;79.982;54.054;51.260;32.969
5447270.549;60.499;-79.162;1.937;150.353;54.389;61.318;57.630;38.408
5447270.557;41.798;-100.732;-16.056;124.648;35.614;53.756;51.670;30.547
5447270.565;39.600;-103.787;-10.952;118.315;48.690;54.725;46.678;30.845
5447270.573;36.173;-106.990;-15.013;113.137;43.921;59.642;51.782;29.765
5447270.581;40.904;-103.898;-8.941;114.180;46.790;65.751;61.952;27.232
5447270.589;59.195;-87.991;14.752;130.944;65.528;85.384;74.543;47.721
5447270.597;54.017;-95.665;12.517;122.897;68.396;61.430;53.681;27.902
5447270.605;25.071;-128.970;-12.890;88.885;47.050;30.696;25.555;1.602
5447270.613;44.741;-113.174;9.611;103.861;76.294;50.813;45.337;19.036
5447270.621;71.451;-85.682;38.557;129.119;104.271;67.614;61.728;38.967
5447270.629;54.836;-100.210;24.550;112.578;84.341;54.091;41.872;26.785
5447270.637;42.431;-110.306;13.001;97.565;73.649;30.324;19.968;3.874
5447270.645;84.005;-66.310;56.252;139.847;118.837;71.935;67.614;43.586
5447270.653;87.768;-60.536;63.404;145.808;123.903;84.378;84.825;51.036
5447270.661;69.365;-80.653;48.168;120.588;104.643;36.806;40.084;11.511
5447270.669;73.984;-77.188;59.605;121.519;114.068;27.418;29.430;8.158
5447270.677;77.076;-74.394;68.136;115.968;117.868;21.681;16.913;8.345
5447270.685;96.075;-54.277;90.413;131.205;133.365;33.528;25.555;16.466
5447270.693;131.279;-12.442;121.035;177.212;152.141;46.454;34.720;21.681
5447270.701;149.198;7.004;135.750;198.968;157.505;53.570;39.786;28.089
5447270.709;153.966;14.454;134.967;218.712;150.502;61.058;41.313;33.192
5447270.717;178.926;38.631;152.066;250.041;164.658;90.152;73.761;58.003
5447270.725;188.574;49.025;153.854;269.339;165.142;108.480;98.646;65.863
5447270.733;141.896;6.407;99.801;237.264;113.361;74.320;65.975;26.189
5447270.701;131.801;-4.694;80.839;233.874;101.179;82.888;75.065;42.506
5447270.709;73.351;-62.846;19.260;184.216;50.031;48.950;37.365;14.976
5447270.717;16.838;-117.831;-35.092;130.199;2.831;7.376;-2.310;-26.375
5447270.725;-3.241;-135.489;-57.742;115.149;-14.342;23.954;9.239;-19.893
5447270.733;-38.855;-167.564;-94.324;87.209;-45.337;18.254;4.508;-33.751
5447270.741;-48.652;-175.871;-96.783;76.815;-46.678;23.246;9.835;-20.042
5447270.749;-66.981;-192.150;-118.725;59.456;-69.290;14.789;1.825;-38.333
5447270.757;-84.117;-208.728;-133.291;41.947;-76.257;10.319;1.602;-50.776
5447270.765;-36.433;-165.552;-86.054;85.160;-34.645;69.924;57.109;4.619
5447270.773;-31.851;-162.087;-80.280;86.725;-31.330;72.420;51.931;6.631
5447270.781;-44.368;-176.728;-86.650;67.092;-29.840;55.209;33.453;-7.972
5447270.789;-45.262;-172.481;-86.166;66.087;-24.326;81.398;56.252;20.526
5447270.797;-43.400;-173.636;-90.636;59.605;-44.927;80.913;59.381;9.947
5447270.805;-56.587;-186.078;-94.548;35.837;-61.616;47.013;25.593;-27.306
5447270.813;-108.033;-234.209;-132.099;-23.432;-91.940;-11.697;-36.806;-72.606
5447270.821;-127.442;-247.210;-141.114;-43.064;-102.930;-39.823;-63.479;-95.405
5447270.829;-115.670;-232.980;-131.093;-30.957;-96.783;-16.876;-35.353;-74.208
5447270.837;-124.685;-246.689;-140.220;-47.907;-112.429;-6.966;-20.303;-65.044
5447270.845;-123.829;-245.087;-132.546;-45.970;-108.555;14.268;4.359;-51.334
5447270.853;-111.833;-234.470;-111.833;-34.720;-94.995;23.022;15.162;-57.183
5447270.861;-129.342;-256.039;-123.493;-58.971;-112.243;8.568;-3.092;-64.410
5447270.869;-162.870;-288.561;-155.196;-91.456;-149.235;-26.226;-38.892;-104.643
5447270.877;-151.433;-277.981;-148.006;-86.986;-144.877;-19.297;-30.994;-91.530
5447270.885;-83.707;-203.215;-69.700;-12.331;-70.259;45.151;37.104;-32.447
5447270.880;-69.290;-186.004;-51.372;0.075;-63.516;43.623;37.998;-29.020
5447270.888;-113.882;-229.552;-90.562;-50.403;-109.971;-17.695;-26.450;-81.509
5447270.896;-160.038;-275.299;-132.993;-101.402;-161.491;-73.053;-84.601;-130.720
5447270.904;-179.633;-300.072;-150.874;-137.016;-180.900;-114.329;-120.215;-155.866
5447270.912;-139.587;-263.005;-107.475;-109.896;-143.610;-89.519;-92.499;-130.869
5447270.920;-146.516;-266.135;-107.177;-117.123;-151.955;-90.227;-90.487;-140.257
5447270.928;-113.063;-230.223;-73.537;-87.731;-121.370;-67.092;-60.648;-123.903
5447270.936;-78.715;-204.593;-49.174;-66.087;-104.979;-41.798;-29.802;-110.641
5447270.944;-79.311;-207.685;-42.990;-71.526;-111.349;-38.408;-20.899;-110.269
