Timestamp,AFz,AF3,AF4,AF7,AF8,Pz,P3,P4,2024-04-18 11:59:49.533,fs=125
3026720.491;8.754;12.405;18.924;-17.509;16.168;6.370;-5.737;3.986
3026720.499;4.880;12.591;17.509;-2.794;10.692;-2.123;-15.199;-1.043
3026720.507;-2.421;4.359;10.170;-19.111;-3.427;-7.711;-21.122;-3.576
3026720.515;-6.892;1.527;6.966;-29.989;8.680;-12.331;-28.126;-3.837
3026720.523;-13.039;-6.147;-0.075;-38.482;8.158;-18.775;-36.731;-6.482
3026720.531;-12.517;-8.829;2.533;-35.539;-6.668;-13.784;-32.783;-0.671
3026720.539;2.049;8.866;17.993;-17.956;15.907;-2.347;-22.650;7.078
3026720.547;5.141;7.749;21.309;-15.199;16.689;-0.484;-21.122;5.141
3026720.555;9.015;13.709;22.948;-14.417;11.437;-2.608;-21.234;1.565
3026720.563;7.525;13.635;19.930;-10.245;-0.447;-8.643;-23.618;-6.706
3026720.571;6.519;15.795;20.526;-11.027;21.942;-8.643;-20.936;-7.637
3026720.579;6.333;17.136;16.652;-12.144;20.675;-8.084;-20.824;-4.396
3026720.587;-1.863;7.376;9.164;-16.391;0.559;-9.499;-24.438;-3.986
3026720.595;-6.743;-2.049;11.474;-28.275;5.960;-11.735;-30.287;-4.508
3026720.603;2.794;11.586;17.323;-23.134;2.384;-5.811;-22.128;-0.969
3026720.611;5.327;12.182;19.185;-18.664;8.829;-2.757;-16.354;-2.459
3026720.619;1.490;2.347;15.981;-16.131;16.838;-6.147;-19.297;-7.674
3026720.627;-1.788;-1.304;13.560;-19.781;15.609;-4.359;-18.738;-3.800
3026720.635;-7.264;0.522;7.190;-27.195;-4.843;-5.476;-20.750;0.671
3026720.643;-8.866;-2.757;3.763;-33.267;-5.066;-7.488;-23.022;2.906
3026720.651;-7.674;2.086;4.955;-25.034;0.522;-7.860;-24.810;1.863
3026720.659;-9.499;-3.427;6.109;-31.106;1.900;-8.568;-24.885;-2.384
3026720.667;-5.178;-0.112;11.474;-23.060;3.651;-7.078;-22.016;-2.459
3026720.675;-3.837;4.172;12.368;-16.727;0.484;-6.184;-23.209;-0.633
3026720.686;6.445;17.285;18.999;-11.362;12.554;-0.931;-18.775;6.296
3026720.694;9.947;12.666;23.805;-25.108;17.323;-0.820;-17.770;7.600
3026720.702;6.035;7.264;26.375;-24.624;25.444;-9.499;-26.003;-1.714
3026720.710;-0.373;7.041;13.784;-21.383;3.949;-18.254;-34.273;-10.878
3026720.718;-1.490;10.729;13.411;-14.789;-0.484;-21.271;-37.439;-13.821
3026720.726;-3.837;3.166;6.743;-22.165;-4.396;-18.962;-34.124;-12.964
3026720.734;1.974;3.614;16.950;-27.269;11.474;-11.325;-26.561;-6.370
3026720.742;3.241;9.574;20.377;-20.266;11.288;-8.680;-24.661;-2.310
3026720.750;2.533;15.981;19.595;-17.472;3.502;-8.605;-25.816;-1.155
3026720.758;2.645;13.746;18.291;-11.921;14.342;-9.686;-29.057;-1.751
3026720.766;-6.706;3.129;6.370;-16.987;-8.084;-11.548;-32.634;-2.421
3026720.774;-9.649;-1.118;5.588;-32.075;-5.513;-6.929;-27.679;1.118
3026720.782;-3.763;5.811;11.586;-18.217;14.380;-4.843;-24.997;2.943
3026720.790;-4.992;5.141;14.082;-26.561;8.196;-9.723;-29.653;-3.725
3026720.798;0.931;12.070;20.750;-11.660;6.668;-9.015;-27.716;-6.296
3026720.806;-0.298;13.970;14.976;-16.205;0.782;-10.356;-27.791;-6.706
3026720.814;-4.023;3.353;11.958;-20.415;2.645;-6.817;-22.762;-3.353
3026720.822;-10.468;-4.731;5.476;-24.363;4.247;-12.107;-28.834;-7.860
3026720.830;-8.568;5.029;1.155;-27.902;-3.092;-10.841;-29.244;-3.166
3026720.838;-11.623;-1.304;3.129;-23.805;-19.483;-15.981;-35.278;-6.109
3026720.846;-7.339;0.782;9.798;-20.750;-15.013;-14.007;-34.012;-5.364
3026720.854;-3.763;1.565;13.448;-23.060;14.715;-8.643;-29.132;-1.937
3026720.862;-8.941;1.080;8.605;-29.393;5.811;-10.505;-31.069;-5.104
3026720.870;-1.825;8.903;16.056;-21.420;5.923;-5.215;-24.252;-4.023
3026720.880;-0.447;7.972;13.486;-14.491;3.055;-2.161;-18.701;-3.763
3026720.888;-0.596;2.757;10.654;-23.469;-4.955;-1.751;-17.732;-1.304
3026720.896;-5.029;2.012;13.076;-25.705;-2.459;-9.052;-26.859;-4.135
3026720.904;-5.066;11.511;10.729;-11.921;10.133;-13.895;-33.230;-5.662
3026720.912;-2.868;11.735;12.629;-16.354;-0.745;-9.798;-29.355;-2.384
3026720.920;-14.640;-8.158;2.608;-32.224;-19.856;-15.311;-35.502;-8.941
3026720.928;-11.846;-4.694;0.857;-25.406;-20.675;-10.952;-30.547;-7.264
3026720.936;-4.321;13.523;5.104;-10.282;-3.390;-5.476;-24.140;-4.880
3026720.944;-8.158;4.917;5.253;-26.561;0.931;-5.066;-25.183;-5.588
3026720.952;-9.723;2.310;6.929;-25.891;1.378;-6.035;-26.226;-6.258
3026720.960;-14.640;-3.017;2.161;-23.656;-10.096;-13.746;-33.677;-11.995
3026720.968;-10.245;-2.310;4.917;-26.636;-22.314;-13.933;-32.373;-11.511
3026720.976;-3.316;12.293;9.537;-13.113;-5.104;-8.270;-25.593;-7.972
3026720.984;-4.582;7.562;10.952;-18.328;-1.602;-6.333;-22.165;-7.823
3026720.992;2.496;17.248;18.291;-3.651;10.692;-6.706;-19.856;-7.488
3026721.000;10.841;23.581;23.954;3.427;9.276;-7.190;-21.346;-7.339
3026721.008;4.247;11.213;10.692;-8.382;-15.944;-1.714;-17.285;-4.508
3026721.016;0.931;14.566;10.841;-14.566;-17.770;0.000;-15.758;-3.874
3026721.024;12.591;30.585;26.599;-1.378;13.635;1.900;-12.815;-1.825
3026721.032;9.872;21.197;18.664;-3.539;9.201;0.522;-12.890;-2.831
3026721.040;5.513;13.523;19.819;-7.376;-1.155;0.410;-15.199;-2.235
3026721.048;11.548;31.553;26.077;8.084;15.572;1.639;-14.827;1.118
3026721.056;7.637;29.095;17.695;0.298;-4.247;-1.788;-17.695;-2.198
3026721.064;-0.522;9.798;11.325;-18.217;-7.376;-7.711;-21.309;-9.872
3026721.076;4.247;9.760;15.125;-11.362;2.384;-6.706;-15.385;-8.978
3026721.084;11.884;22.203;21.532;-6.631;7.823;-8.345;-13.560;-10.058
3026721.092;26.040;42.804;34.235;26.822;17.658;-0.559;-4.694;-1.341
3026721.100;19.222;33.639;27.791;12.070;6.817;3.912;-1.304;3.949
3026721.108;8.233;17.621;20.303;-6.147;1.565;2.235;-7.153;5.402
3026721.116;4.135;14.976;12.554;-12.591;6.966;1.453;-11.101;8.531
3026721.124;2.310;17.360;9.574;-2.645;-0.671;-3.614;-15.683;5.364
3026721.132;2.906;17.062;10.841;3.353;-1.006;-7.451;-18.664;2.645
3026721.140;0.782;11.958;10.058;-14.305;-9.090;-11.325;-21.495;-2.123
3026721.148;4.135;12.144;13.486;-16.950;-8.643;-12.703;-20.526;-3.614
3026721.156;13.039;22.613;22.613;-0.894;0.931;-10.729;-14.491;-2.794
3026721.164;15.870;31.069;26.822;12.666;16.950;-14.864;-16.168;-8.531
3026721.172;13.746;24.773;23.134;7.115;15.907;-14.417;-15.609;-7.078
3026721.180;16.131;25.928;27.344;-3.427;4.433;-4.061;-7.413;3.316
3026721.188;6.743;12.219;18.552;-18.962;-9.723;-11.884;-17.062;-4.135
3026721.196;3.986;10.543;12.666;-12.033;-7.264;-12.331;-18.850;-3.725
3026721.204;3.204;16.391;10.580;-7.041;2.421;-3.502;-11.995;5.476
3026721.212;-3.874;4.694;6.072;-11.623;-12.293;-3.278;-13.076;8.047
3026721.220;-12.852;-3.166;-3.278;-23.879;-26.040;-7.749;-17.472;4.619
3026721.228;-14.380;-4.098;-5.327;-25.071;-24.475;-9.276;-17.397;3.539
3026721.236;-8.196;6.929;-2.533;-16.689;-19.260;-11.697;-17.248;0.298
3026721.244;5.439;19.521;14.044;-6.668;7.972;-6.109;-8.456;6.482
3026721.252;9.462;22.873;19.558;2.272;7.860;-7.749;-8.643;4.955
3026721.260;4.806;16.876;16.056;-5.700;-3.725;-13.225;-12.778;-1.825
3026721.284;-0.261;11.064;8.605;-9.201;-18.328;-10.021;-10.431;0.782
3026721.292;3.353;9.313;8.643;-7.600;-11.437;-0.335;-4.061;11.846
3026721.300;-1.490;9.947;9.984;-14.752;1.639;-3.614;-10.617;8.978
3026721.308;-8.345;1.639;5.588;-26.263;-5.849;-1.974;-9.798;8.829
3026721.316;-2.384;10.245;2.868;-6.445;-8.978;-5.476;-11.474;3.837
3026721.324;13.374;28.498;17.732;12.442;-2.272;-13.001;-15.348;-2.459
3026721.332;20.117;37.812;24.922;19.297;-10.543;-9.462;-9.909;2.570
3026721.340;29.355;42.431;35.055;27.865;-12.107;-3.949;-4.470;5.998
3026721.348;34.794;43.549;41.574;32.224;-12.964;2.421;2.645;12.778
3026721.356;32.596;44.070;40.941;33.714;-13.150;6.296;5.066;15.348
3026721.364;27.902;40.792;36.545;28.089;-10.692;6.817;6.333;12.480
3026721.372;30.883;46.082;39.116;34.310;-10.841;12.107;14.007;15.683
3026721.380;37.886;51.521;48.019;45.002;-1.043;17.993;20.415;20.973
3026721.388;30.994;40.866;37.327;29.393;-17.248;12.964;12.927;18.626
3026721.396;27.157;40.084;32.671;37.476;-18.924;4.955;2.459;11.623
3026721.404;27.865;41.462;37.476;41.276;-11.958;0.931;-4.545;9.984
3026721.412;23.395;37.439;34.235;29.914;-13.262;-0.298;-5.476;10.468
3026721.420;20.526;37.551;30.771;29.653;-13.858;0.633;-3.837;9.201
3026721.428;23.320;43.325;28.573;39.823;-21.048;6.706;2.645;11.064
3026721.436;28.126;44.256;29.877;44.182;-10.766;12.629;12.331;12.107
3026721.444;21.122;35.763;24.736;34.720;-20.489;18.403;21.011;15.981
3026721.452;8.829;24.475;18.291;13.448;-30.175;16.131;20.117;15.683
3026721.460;11.586;33.565;22.501;29.840;-13.560;14.342;19.260;17.621
3026721.468;13.821;29.355;22.203;34.459;-16.093;11.623;15.870;17.919
3026721.450;11.958;27.604;19.558;27.679;-27.008;6.184;9.611;15.087
3026721.458;9.947;21.197;19.111;21.569;-20.154;-3.688;-0.782;8.196
3026721.466;16.280;32.634;23.432;30.957;-25.146;-4.545;-3.241;5.402
3026721.474;23.134;39.712;29.318;41.537;-15.870;2.496;2.086;7.637
3026721.482;17.732;38.445;24.475;39.488;-6.706;4.657;1.863;8.903
3026721.490;11.101;32.894;16.578;33.937;-29.877;3.874;0.671;8.084
3026721.498;8.643;24.810;13.933;24.661;-36.769;3.129;1.192;6.780
3026721.506;8.643;24.326;18.962;20.824;-19.446;4.247;6.482;6.296
3026721.514;13.560;26.673;22.985;19.595;-15.236;15.087;20.787;13.523
3026721.522;20.713;39.563;25.034;45.225;-24.103;20.899;25.891;18.105
3026721.530;38.967;54.762;46.268;59.716;3.427;29.020;32.857;23.916
3026721.538;39.451;50.217;49.658;51.782;15.125;30.398;33.416;25.146
3026721.546;38.780;49.919;49.323;44.405;6.929;24.661;26.934;23.060
3026721.554;29.877;50.329;35.614;36.769;-6.072;18.813;20.005;19.595
3026721.562;27.381;43.474;38.557;26.077;-13.225;16.578;17.956;19.148
3026721.570;26.375;41.611;34.831;43.251;-12.368;9.201;10.729;10.207
3026721.578;34.906;48.429;45.970;56.587;4.806;12.852;15.832;8.531
3026721.586;28.498;41.202;39.078;36.582;-0.298;14.007;16.838;10.692
3026721.594;13.188;28.946;20.750;17.695;-14.454;12.442;12.629;11.139
3026721.602;15.609;36.880;24.624;24.289;-15.981;18.626;17.881;18.813
3026721.610;15.981;33.192;25.257;34.571;-16.093;17.025;16.280;19.260
3026721.618;17.993;34.161;27.716;35.949;-15.460;17.509;18.254;19.819
3026721.626;22.203;34.831;31.888;37.067;-6.557;19.744;23.469;22.314
3026721.634;27.716;47.795;34.980;44.070;0.633;15.162;21.793;17.509
3026721.646;33.155;47.311;40.121;41.425;-0.596;13.299;22.426;16.391
3026721.654;31.479;49.174;39.563;49.509;-1.192;11.548;21.607;16.131
3026721.662;20.415;31.702;33.304;34.608;-4.657;4.172;13.597;10.356
3026721.670;25.779;40.270;36.694;39.116;1.863;5.439;14.305;10.021
3026721.678;46.082;66.571;55.172;66.422;18.999;7.451;16.987;8.941
3026721.686;57.928;73.388;69.886;70.743;7.115;13.039;21.346;15.497
3026721.694;57.258;67.838;72.122;55.842;18.775;14.566;20.452;19.558
3026721.702;53.458;58.785;67.279;52.154;30.324;11.809;16.019;19.968
3026721.710;58.413;72.531;68.881;63.032;26.450;24.140;28.126;34.720
3026721.718;51.148;66.236;62.659;55.879;17.732;21.569;24.773;32.037
3026721.726;46.566;63.479;56.066;61.430;16.689;10.878;16.317;21.569
3026721.734;49.658;61.430;59.120;59.567;5.700;14.640;23.618;23.097
3026721.742;52.638;60.983;62.436;60.871;16.727;17.360;28.089;21.569
3026721.750;56.699;73.202;64.112;71.861;26.822;16.391;26.971;19.073
3026721.758;49.099;67.018;56.215;63.106;13.709;11.995;23.283;13.895
3026721.766;40.717;56.028;43.698;50.068;2.421;5.141;18.962;6.109
3026721.774;42.655;58.338;45.262;55.358;4.172;6.706;23.209;7.004
3026721.782;51.409;66.273;59.605;68.881;19.707;14.305;32.037;14.678
3026721.790;55.060;70.930;61.952;63.665;28.089;21.458;37.216;25.257
3026721.798;40.270;52.974;47.497;49.919;11.399;11.809;22.911;23.060
3026721.806;37.514;49.844;43.623;37.327;5.327;9.276;18.217;26.077
3026721.814;36.545;46.417;42.059;46.231;5.588;5.327;13.784;24.624
3026721.822;40.904;49.025;42.580;51.819;10.431;3.055;11.586;22.501
3026721.830;50.180;59.977;49.472;61.840;12.554;4.694;17.248;21.197
3026721.839;45.002;51.819;48.652;46.454;13.225;-3.278;11.772;9.239
3026721.847;50.515;58.599;56.177;59.344;17.472;-6.519;10.952;3.576
3026721.855;62.734;74.171;65.230;75.363;31.926;0.820;19.297;9.686
3026721.863;64.969;76.070;64.671;78.715;32.149;6.035;23.469;15.385
3026721.871;56.177;59.865;55.917;65.938;18.217;4.433;19.632;17.509
3026721.879;38.631;46.082;40.792;42.543;11.213;-4.917;7.898;10.654
3026721.887;40.084;55.209;38.035;54.799;14.305;6.333;18.664;21.607
3026721.895;49.956;59.307;50.031;63.665;21.495;5.998;18.366;21.383
3026721.903;32.410;37.104;36.098;34.198;7.898;-12.778;-2.533;6.072
3026721.911;13.225;16.540;16.019;9.462;-4.470;-20.638;-11.548;2.310
3026721.919;3.874;9.164;7.376;-0.745;-12.331;-19.260;-8.941;3.166
3026721.927;-5.737;-2.384;-5.886;-12.554;-23.954;-19.521;-8.754;0.894
3026721.935;-14.603;-14.268;-17.583;-23.656;-41.462;-19.856;-8.717;-1.863
3026721.943;-10.654;-11.697;-11.958;-26.785;-38.370;-17.136;-5.253;-1.080
3026721.951;-4.545;-5.960;-7.749;-10.245;-27.455;-12.033;-0.410;3.129
3026721.959;-10.654;-10.915;-15.497;-9.798;-23.469;-17.956;-7.451;-1.155
3026721.967;-8.531;-1.118;-10.617;-2.533;-15.125;-19.781;-10.133;0.633
3026721.975;-0.931;3.725;1.192;0.298;-5.551;-12.144;-2.123;8.941
3026721.983;-5.364;-5.662;-2.049;-14.603;-14.156;-13.225;-3.986;7.115
3026721.991;-8.456;-5.402;-5.551;-16.838;-34.049;-12.890;-3.353;5.178
3026721.999;-12.591;-13.448;-11.250;-15.385;-22.724;-15.125;-5.327;-2.719
3026722.007;-13.337;-15.907;-12.852;-12.778;-7.115;-17.695;-6.035;-9.388
3026722.015;-18.850;-11.362;-14.529;-24.810;-21.718;-22.203;-9.015;-14.566
3026722.023;-17.881;-11.995;-15.125;-20.936;-22.352;-17.397;-5.700;-10.580
3026722.035;-10.543;-9.425;-11.064;-8.270;-28.089;-11.437;-0.484;-3.576
3026722.043;-9.015;-7.004;-8.941;-10.692;-22.911;-10.282;0.745;-0.149
3026722.051;-12.591;-11.437;-14.007;-6.892;-29.877;-14.752;-3.092;-1.490
3026722.059;-16.689;-14.380;-18.775;-18.626;-39.600;-20.750;-9.760;-4.135
3026722.067;-11.884;-4.657;-8.754;-9.686;-13.709;-23.693;-12.442;-4.433
3026722.075;-10.729;-4.247;-8.270;-4.992;-8.121;-28.498;-17.546;-6.966
3026722.083;-8.680;-1.639;-6.296;-8.829;-14.342;-30.026;-21.085;-8.903
3026722.091;-2.868;-0.559;-4.992;-3.129;-7.004;-24.848;-17.062;-3.986
3026722.099;-15.348;-14.864;-19.558;-16.913;-32.634;-30.659;-23.991;-10.878
3026722.107;-18.328;-12.778;-18.552;-15.236;-31.628;-29.206;-21.607;-13.486
3026722.115;-13.858;-5.998;-11.213;-13.746;-18.589;-21.867;-10.505;-9.909
3026722.123;-16.391;-13.523;-13.597;-16.093;-21.122;-23.171;-10.431;-12.182
3026722.131;-12.927;-13.188;-13.672;-7.302;-18.217;-15.534;-3.316;-5.998
3026722.139;-14.268;-5.178;-18.589;-9.499;-23.805;-11.846;-0.373;-2.831
3026722.147;-4.433;12.368;-10.058;14.454;-18.142;-18.105;-7.302;-7.302
3026722.155;-2.570;9.984;-9.164;14.305;-23.246;-12.405;-3.353;-1.192
3026722.163;-13.039;-8.680;-14.752;-7.637;-29.504;-14.007;-6.594;-2.049
3026722.171;-12.070;-11.064;-11.064;-19.707;-22.165;-17.658;-9.537;-5.588
3026722.179;-9.425;-16.689;-8.754;-23.581;-9.909;-22.165;-13.746;-10.915
3026722.187;-7.376;-4.284;-6.631;-15.460;-11.809;-19.297;-11.623;-8.456
3026722.195;-11.623;-0.969;-9.947;-5.886;-15.311;-20.340;-15.087;-8.978
3026722.203;-22.165;-18.068;-18.217;-18.142;-12.740;-16.578;-13.113;-7.153
3026722.211;-19.893;-18.515;-19.297;-18.366;-17.807;-7.749;-3.725;0.112
3026722.219;-19.334;-19.483;-19.595;-19.148;-24.177;-1.937;1.453;3.725
3026722.229;-17.136;-17.062;-16.242;-11.213;-23.656;-4.023;0.782;-0.075
3026722.237;-0.112;11.064;-6.966;15.274;-9.649;2.608;9.164;3.316
3026722.245;-1.527;9.872;-5.960;14.454;-8.792;-1.453;6.221;-0.782
3026722.253;-8.941;-2.645;-10.468;2.384;-17.658;-9.537;-0.633;-7.711
3026722.261;-11.586;-9.313;-16.205;-4.470;-25.257;-8.754;0.149;-3.874
3026722.269;-14.752;-7.264;-18.477;-0.037;-32.745;-5.141;1.341;2.570
3026722.277;-16.540;-9.164;-17.323;-7.376;-19.409;-9.164;-3.390;-0.931
3026722.285;-16.093;-10.990;-16.056;-4.880;-16.093;-14.454;-9.798;-7.227
3026722.293;-17.621;-8.531;-16.913;1.714;-17.360;-20.340;-19.036;-12.144
3026722.301;-13.970;-10.021;-10.394;-7.413;-13.746;-12.927;-13.113;-4.359
3026722.309;-11.288;-11.437;-9.499;-7.749;-22.054;-9.537;-8.494;-1.527
3026722.317;-16.205;-10.245;-20.750;-10.021;-29.132;-14.976;-13.225;-9.201
3026722.325;-21.197;-14.976;-27.418;-13.821;-33.602;-23.954;-21.085;-19.483
3026722.333;-10.990;-2.347;-10.766;4.545;-10.841;-23.879;-20.079;-18.924
3026722.341;-3.390;6.258;-2.831;12.964;-6.333;-21.495;-17.025;-16.391
3026722.349;-5.662;-2.198;-5.998;1.341;-12.480;-22.054;-17.695;-15.385
3026722.357;-13.746;-9.537;-16.056;-8.009;-23.693;-19.222;-17.583;-10.990
3026722.365;-20.713;-13.113;-24.065;-7.860;-31.367;-17.993;-18.850;-8.605
3026722.373;-30.063;-23.134;-31.702;-15.274;-42.468;-20.079;-22.314;-9.313
3026722.381;-36.694;-31.665;-39.265;-19.222;-41.947;-25.332;-26.934;-15.311
3026722.389;-35.949;-35.763;-34.235;-29.653;-32.000;-25.816;-27.828;-17.211
3026722.397;-25.146;-16.429;-24.252;-20.415;-34.794;-11.995;-14.491;-5.253
3026722.405;-20.862;-9.835;-18.105;-16.578;-23.879;-3.725;-6.482;2.161
3026722.413;-21.979;-14.976;-18.813;-15.013;-21.756;-4.284;-8.419;2.384
3026722.409;-34.608;-29.653;-34.794;-26.338;-32.149;-11.921;-18.813;-4.396
3026722.417;-39.190;-33.341;-42.878;-25.965;-49.211;-15.981;-23.320;-8.456
3026722.425;-26.263;-21.122;-33.975;-14.231;-46.529;-13.858;-18.068;-7.637
3026722.433;-26.077;-16.466;-30.845;-13.597;-41.723;-12.964;-16.578;-7.153
3026722.441;-31.181;-26.338;-31.628;-23.134;-46.082;-8.829;-13.039;-3.353
3026722.449;-29.840;-27.083;-32.932;-34.198;-41.798;-2.347;-6.072;1.192
3026722.457;-20.228;-8.605;-25.928;-9.574;-33.043;1.155;-2.682;3.316
3026722.465;-17.770;-8.456;-25.332;3.614;-35.837;-1.565;-5.141;-1.304
3026722.473;-23.395;-18.552;-31.590;-6.594;-39.265;-8.717;-12.144;-10.058
3026722.481;-28.908;-20.675;-40.643;-19.297;-40.457;-11.884;-15.870;-10.654
3026722.489;-24.997;-24.699;-28.424;-23.842;-32.000;-6.929;-13.672;-1.863
3026722.497;-27.120;-30.659;-27.157;-33.192;-29.728;-5.215;-13.746;0.857
3026722.505;-24.363;-18.068;-28.387;-14.007;-39.376;-5.588;-13.635;0.447
3026722.513;-19.446;-8.345;-24.885;-7.264;-33.900;-6.296;-12.852;-0.261
3026722.521;-11.325;-7.749;-17.434;2.943;-19.446;-1.714;-6.370;4.172
3026722.529;-8.121;-3.837;-13.337;-0.633;-17.583;0.186;-3.353;4.284
3026722.537;-21.197;-18.850;-26.636;-20.489;-27.306;-8.643;-11.176;-3.316
3026722.545;-19.707;-11.176;-29.802;-8.531;-34.869;-7.786;-7.115;-2.831
3026722.553;-3.427;9.350;-9.537;16.615;-22.538;5.588;6.817;6.929
3026722.561;-13.672;-6.035;-20.526;1.006;-14.231;-0.894;0.335;-1.192
3026722.569;-22.575;-22.501;-29.095;-19.670;-27.902;-4.992;-5.960;-3.614
3026722.577;-23.134;-24.885;-26.636;-27.269;-29.691;-6.333;-10.394;-0.633
3026722.585;-24.401;-19.409;-28.722;-20.899;-37.998;-12.927;-18.850;-3.539
3026722.593;-22.203;-18.887;-28.014;-11.958;-31.181;-12.442;-19.670;-0.671
3026722.604;-23.730;-22.314;-29.206;-16.391;-27.083;-15.646;-22.911;-1.863
3026722.612;-23.358;-26.487;-25.183;-24.252;-19.856;-16.093;-22.203;-4.247
3026722.620;-21.458;-20.750;-19.744;-13.635;-21.383;-14.864;-18.328;-7.339
3026722.628;-3.502;6.780;-5.476;13.001;0.261;-2.719;-2.049;2.049
3026722.636;1.490;9.947;-5.141;13.001;-8.270;-4.992;-0.969;-2.012
3026722.644;7.041;14.752;-3.465;20.601;-12.331;-7.376;-1.527;-5.588
3026722.652;3.763;5.662;-1.416;10.096;-0.559;-12.256;-6.966;-10.021
3026722.660;-0.224;-6.594;0.708;1.676;8.792;-12.480;-9.686;-9.686
3026722.668;-5.662;-3.166;-7.525;-2.384;-0.373;-14.268;-13.411;-10.803
3026722.676;-27.269;-23.767;-31.069;-28.051;-34.571;-19.297;-22.985;-15.832
3026722.684;-28.349;-25.742;-29.206;-29.095;-39.637;-14.305;-24.252;-4.545
3026722.692;-31.814;-33.714;-32.373;-34.198;-43.325;-14.715;-28.387;-0.075
3026722.700;-28.349;-28.424;-30.175;-22.613;-29.244;-14.789;-29.914;-0.373
3026722.708;-19.819;-14.007;-26.934;-12.927;-13.225;-14.417;-26.114;-2.868
3026722.716;-14.082;-4.992;-19.222;-4.098;-25.220;-10.841;-16.317;-2.310
3026722.724;-11.325;-2.868;-18.068;-3.912;-26.301;-7.786;-7.413;-1.043
3026722.732;-4.284;-0.112;-12.964;10.729;-11.176;-3.502;1.378;-0.335
3026722.740;6.258;7.860;-0.559;13.262;-3.316;1.788;8.009;0.261
3026722.748;8.084;16.838;2.459;19.185;-8.270;-5.290;0.298;-6.706
3026722.756;-5.811;5.253;-11.921;8.494;-24.736;-20.415;-18.328;-21.644
3026722.764;-11.139;-7.488;-19.819;-8.941;-26.710;-20.340;-22.352;-19.446
3026722.772;-12.740;-10.915;-17.919;-16.242;-24.438;-16.615;-22.054;-13.672
3026722.780;-17.695;-17.360;-21.718;-12.815;-15.423;-15.050;-25.630;-9.015
3026722.788;-38.557;-40.345;-38.333;-37.923;-34.682;-12.629;-29.057;-1.490
3026722.800;-43.325;-41.462;-45.188;-40.308;-54.948;-11.437;-29.914;2.421
3026722.808;-23.916;-26.524;-25.555;-21.756;-42.357;-17.360;-33.788;-2.421
3026722.816;-15.199;-12.927;-18.887;-13.486;-28.983;-17.397;-28.796;-7.935
3026722.824;1.751;5.811;-3.427;13.262;-24.140;-9.276;-14.640;-5.215
3026722.832;17.323;20.079;9.276;33.975;-15.236;-1.527;-1.118;-2.235
3026722.840;23.395;33.639;10.617;47.162;-27.493;2.161;7.562;-3.539
3026722.848;12.070;24.699;-3.278;35.241;-35.726;1.490;8.084;-5.849
3026722.856;7.078;18.440;-0.522;32.894;-35.167;2.980;4.061;-2.198
3026722.864;4.768;14.342;1.639;38.520;-30.696;0.484;-4.396;-1.714
3026722.872;-6.817;-4.023;-10.468;16.727;-37.886;-8.382;-16.503;-9.164
3026722.880;-17.509;-16.764;-19.819;0.298;-51.856;-13.299;-25.406;-13.411
3026722.888;-28.051;-30.696;-26.003;-18.068;-54.091;-14.938;-30.622;-14.715
3026722.896;-26.263;-28.349;-25.667;-16.540;-47.758;-6.147;-25.705;-3.166
3026722.904;-22.724;-24.587;-23.022;-3.763;-47.237;-1.676;-20.973;1.565
3026722.912;-27.306;-24.475;-26.673;-8.903;-49.546;-3.390;-18.924;-2.831
3026722.920;-30.212;-28.759;-29.095;-5.960;-50.738;-4.694;-13.895;-8.978
3026722.928;-28.312;-25.593;-28.126;-12.368;-47.795;-0.149;-4.433;-8.456
3026722.936;-23.767;-16.205;-25.332;-8.568;-58.375;10.356;10.394;-1.937
3026722.944;-11.958;-6.482;-16.540;18.030;-45.635;23.432;24.028;9.649
3026722.952;-15.907;-13.374;-20.191;14.193;-42.729;20.675;20.862;8.084
3026722.960;-20.936;-18.105;-26.450;6.482;-44.107;14.380;13.560;2.943
3026722.968;-13.560;-4.731;-21.346;18.366;-42.580;11.772;8.233;1.639
3026722.976;-14.976;-6.594;-18.626;11.846;-40.866;1.565;-3.763;-6.519
3026722.984;-20.713;-14.342;-20.899;10.282;-44.070;-4.657;-11.399;-11.586
3026722.995;-9.388;-6.258;-9.611;10.990;-24.959;8.345;1.267;0.708
3026723.003;-17.397;-12.629;-18.813;8.047;-39.525;7.637;0.112;1.937
3026723.011;-28.051;-27.902;-25.406;-2.235;-49.956;7.935;-0.596;2.906
3026723.019;-6.482;-4.210;-5.886;21.048;-23.358;6.109;-0.037;-1.043
3026723.027;11.660;21.532;8.829;51.633;-11.809;9.201;3.912;-1.527
3026723.035;26.412;32.522;25.965;52.266;-11.176;17.323;11.288;5.364
3026723.043;41.090;41.462;43.772;49.174;3.055;22.314;16.727;10.282
3026723.051;54.166;60.312;57.518;71.004;2.198;27.232;20.936;16.019
3026723.059;65.565;76.108;66.906;87.954;15.870;33.900;27.791;23.395
3026723.067;57.109;61.728;60.089;85.123;27.753;28.685;22.165;17.956
3026723.075;49.248;57.593;52.527;82.292;29.244;20.005;12.591;8.792
3026723.083;42.282;53.644;48.615;63.553;18.813;19.111;12.070;5.551
3026723.091;38.445;46.752;40.531;61.207;-2.310;20.601;14.119;5.774
3026723.099;43.474;49.435;43.921;70.632;9.127;25.406;17.434;12.331
3026723.107;34.496;36.247;40.419;56.140;-1.714;20.042;9.313;8.419
3026723.115;41.015;52.489;43.511;66.981;12.778;26.226;13.784;13.262
3026723.123;47.609;63.479;47.013;76.033;16.727;28.871;13.597;14.901
3026723.131;55.283;65.714;58.152;76.406;24.177;24.550;9.872;10.617
3026723.139;54.576;65.640;56.475;85.980;22.240;23.022;12.703;7.562
3026723.147;48.578;61.393;51.409;87.656;16.950;21.383;13.858;5.737
3026723.155;48.503;58.040;48.578;85.756;20.340;20.824;15.423;6.631
3026723.163;56.922;71.153;55.134;86.166;24.773;13.225;11.884;-0.931
3026723.171;102.334;109.337;107.475;125.393;57.667;24.028;26.636;8.866
3026723.179;137.947;141.449;147.335;154.376;87.880;31.628;34.720;15.572
3026723.190;160.560;159.852;174.642;175.685;115.484;31.590;32.037;15.795
3026723.198;181.422;183.210;209.697;187.196;158.772;35.167;32.373;22.687
3026723.206;191.219;192.784;233.240;205.487;173.785;37.253;30.622;29.244
3026723.214;205.114;211.336;268.035;220.872;185.110;26.822;18.813;21.085
3026723.222;215.881;221.394;317.171;234.619;190.772;28.461;21.197;21.867
3026723.230;222.251;222.288;371.411;244.752;199.527;28.238;21.271;21.644
3026723.238;239.350;244.640;430.979;255.220;206.754;25.779;20.824;18.775
3026723.246;252.798;257.641;472.479;272.170;215.955;32.075;30.883;22.165
3026723.254;260.249;259.988;620.596;281.185;232.123;31.367;32.149;21.756
3026723.262;278.205;285.506;998.117;303.388;243.820;37.029;38.669;26.599
3026723.270;293.478;298.955;1177.229;303.313;251.234;38.110;39.712;26.897
3026723.278;298.023;304.803;1248.941;318.475;251.234;31.590;31.479;21.532
3026723.286;297.800;308.268;1276.471;325.926;259.131;31.926;28.312;22.985
3026723.294;285.506;289.418;1283.325;303.537;242.144;22.799;14.864;18.626
3026723.302;279.434;289.343;1289.360;287.928;238.381;14.007;2.384;14.752
3026723.310;276.528;285.693;1286.715;290.163;233.762;14.789;2.310;17.025
3026723.318;285.655;299.662;1294.985;301.674;238.530;17.360;4.917;20.452
3026723.326;294.968;307.113;1301.542;306.442;251.792;23.320;13.597;24.848
3026723.334;294.335;309.758;1300.015;315.718;258.163;24.550;19.260;23.358
3026723.342;286.512;303.946;1286.790;303.350;244.528;14.417;14.119;8.717
3026723.350;283.048;294.484;1286.976;301.376;235.029;13.858;13.709;5.625
3026723.358;281.818;294.223;1285.188;295.006;238.307;15.348;12.256;8.121
3026723.366;288.561;307.001;1287.125;302.829;242.852;15.758;12.107;10.245
3026723.374;297.390;313.520;1296.476;314.266;250.712;22.128;18.403;16.354
3026723.369;286.214;306.107;1282.096;291.802;228.733;22.538;17.285;16.801
3026723.377;275.373;293.553;1268.275;294.186;217.967;20.266;12.368;15.795
3026723.385;273.883;284.836;1264.289;288.635;228.696;21.085;12.778;19.148
3026723.393;274.368;286.512;1259.781;285.804;241.697;21.607;13.821;20.079
3026723.401;274.777;297.353;1251.288;291.206;239.909;20.415;13.858;18.179
3026723.409;280.030;302.829;1248.159;299.141;232.272;22.314;18.179;18.477
3026723.417;275.001;295.527;1240.820;286.996;231.862;26.412;23.171;21.271
3026723.425;275.932;292.733;1235.865;285.208;234.582;29.728;25.295;24.512
3026723.433;267.141;282.079;1218.766;277.162;222.251;23.395;18.291;16.764
3026723.441;261.776;278.838;1209.863;264.160;209.361;25.742;18.701;18.030
3026723.449;273.474;289.679;1217.909;280.365;218.563;34.757;26.487;27.306
3026723.457;277.534;296.123;1214.221;297.315;224.039;30.734;21.122;25.146
3026723.465;274.740;295.490;1200.736;295.937;225.231;26.859;17.248;21.383
3026723.473;276.864;293.180;1198.426;289.679;231.005;26.114;17.062;21.420
3026723.481;278.428;293.106;1195.222;292.547;235.327;29.057;20.824;25.183
3026723.489;259.392;274.293;1165.904;270.307;216.179;23.320;14.305;19.707
3026723.497;252.686;268.631;1154.579;261.366;202.917;24.289;14.454;18.217
3026723.505;252.835;266.917;1151.375;258.721;209.399;27.530;19.632;19.632
3026723.513;247.955;252.202;1141.243;247.993;213.385;28.983;21.458;20.340
3026723.521;253.841;264.607;1138.262;258.647;213.422;32.932;24.065;23.693
3026723.529;246.838;266.396;1123.957;265.092;188.537;35.204;25.295;24.885
3026723.537;244.007;266.321;1114.607;273.213;191.368;32.187;21.718;21.569
3026723.545;244.789;256.225;1111.887;266.023;205.487;31.888;21.048;23.432
3026723.553;236.332;257.567;1098.365;251.569;203.848;26.450;15.795;18.887
3026723.566;239.797;261.180;1094.863;249.855;206.195;24.512;13.486;18.477
3026723.574;238.940;252.500;1088.604;252.202;203.215;22.911;8.605;17.136
3026723.582;229.403;243.001;1072.176;241.771;192.001;18.962;1.416;12.778
3026723.590;239.350;247.397;1073.964;245.832;193.939;27.381;12.293;20.452
3026723.598;231.713;239.201;1058.355;239.275;181.124;29.132;18.477;18.105
3026723.606;227.205;238.046;1050.346;237.338;179.149;30.883;21.905;16.503
3026723.614;234.246;249.855;1051.053;249.334;194.758;33.081;26.189;16.317
3026723.622;233.613;252.873;1045.652;256.188;189.506;34.496;27.716;17.211
3026723.630;207.722;225.194;1011.975;229.813;158.548;24.177;14.007;9.686
3026723.638;190.064;207.312;985.712;206.046;142.753;14.417;0.484;5.178
3026723.646;194.684;215.061;980.645;214.912;149.608;20.452;4.508;15.125
3026723.654;187.084;203.215;968.762;203.699;150.986;18.366;0.671;14.193
3026723.662;181.571;187.047;958.219;202.283;138.991;14.305;-3.353;7.302
3026723.670;181.720;194.497;950.955;198.670;132.769;17.509;2.459;5.811
3026723.678;183.769;204.556;945.218;203.401;133.775;13.523;0.671;-2.682
3026723.686;181.831;193.417;940.710;193.827;136.420;11.958;0.373;-5.513
3026723.694;178.479;188.574;931.546;191.070;138.842;10.096;-1.565;-4.768
3026723.702;163.540;170.656;910.759;176.542;120.923;3.390;-9.798;-9.201
3026723.710;166.893;177.547;908.971;172.891;127.181;18.142;4.061;5.066
3026723.718;156.574;169.761;891.015;168.495;107.363;14.603;-0.633;-0.149
3026723.726;145.659;159.666;870.116;164.919;92.536;5.476;-10.096;-9.760
3026723.734;147.335;156.984;869.297;165.962;100.993;11.362;-2.421;-3.688
3026723.742;152.327;163.577;868.812;165.589;126.362;15.162;0.596;1.341
3026723.750;144.318;159.070;854.768;166.558;124.015;11.586;-4.545;-0.037
3026723.773;138.618;156.276;847.131;159.591;109.971;10.319;-6.370;-0.745
3026723.781;144.430;162.348;844.859;160.336;106.804;18.217;1.527;6.296
3026723.789;138.730;149.608;831.820;152.886;102.147;14.901;-2.421;0.186
3026723.797;137.277;147.782;822.619;153.668;98.497;16.093;-0.037;-2.459
3026723.805;140.257;153.743;818.036;155.643;99.652;18.328;5.886;-0.969
3026723.813;141.039;158.511;815.615;159.219;106.245;19.372;7.860;-0.745
3026723.821;142.418;154.823;810.325;161.976;101.551;22.948;12.740;2.012
3026723.829;135.750;146.702;796.653;152.551;93.915;20.079;8.866;1.192
3026723.837;115.074;126.883;765.324;129.379;65.453;8.531;-5.141;-8.084
3026723.845;111.796;122.711;760.108;117.421;76.778;8.866;-5.402;-6.594
3026723.853;119.805;130.422;764.579;137.053;100.471;17.881;2.459;1.341
3026723.861;113.100;128.374;750.646;137.314;99.912;17.956;2.086;1.900
3026723.869;111.945;119.954;742.562;125.691;90.897;21.905;6.519;5.923
3026723.877;107.251;119.433;728.816;120.513;73.574;12.070;0.484;-5.923
3026723.885;112.653;124.201;728.965;126.436;73.314;10.617;2.310;-8.754
3026723.893;116.080;121.668;727.586;131.018;88.327;11.735;3.986;-6.296
3026723.901;103.228;96.262;711.083;106.245;78.045;3.390;-4.210;-12.293
3026723.909;93.840;92.797;694.804;99.950;66.161;-2.943;-9.686;-15.087
3026723.917;92.722;98.869;682.510;105.686;57.667;-4.247;-11.437;-14.156
3026723.925;95.479;97.007;681.765;106.767;63.106;1.043;-8.307;-9.462
3026723.933;88.774;82.888;674.203;98.832;59.195;-2.161;-10.915;-14.007
3026723.941;94.809;89.817;673.309;106.506;72.047;3.278;-2.906;-11.548
3026723.949;103.302;102.967;674.762;117.198;76.778;6.184;1.453;-11.176
3026723.957;93.430;87.656;659.153;98.906;67.912;0.969;-5.886;-15.236
3026723.956;89.668;78.157;651.702;95.591;84.043;-1.453;-11.027;-12.070
3026723.964;84.117;76.815;643.581;89.817;73.984;-10.319;-20.526;-18.142
3026723.972;84.750;78.566;639.036;89.817;64.783;-10.170;-19.968;-18.217
3026723.980;76.778;70.482;621.751;87.619;54.315;-10.096;-19.260;-18.999
3026723.988;73.090;67.987;612.810;91.605;54.240;-8.754;-18.105;-17.174
3026723.996;79.758;78.008;614.151;93.989;61.691;-1.304;-11.064;-8.531
3026724.004;82.217;81.919;610.128;96.150;59.977;1.639;-8.494;-7.153
3026724.012;88.327;82.031;610.501;96.262;66.906;2.459;-5.998;-7.078
3026724.020;78.753;65.267;595.525;74.394;56.736;-9.872;-16.578;-19.744
3026724.028;80.913;68.322;589.974;77.002;61.914;-10.282;-18.179;-20.154
3026724.036;85.719;78.976;589.974;88.997;65.118;-5.886;-16.131;-14.156
3026724.044;77.225;71.414;578.836;92.685;57.444;-8.121;-21.197;-12.033
3026724.052;81.696;69.328;578.128;99.912;68.136;-6.482;-19.856;-6.892
3026724.060;74.953;69.514;566.766;89.072;72.569;-15.013;-25.593;-16.205
3026724.068;70.147;68.769;556.260;80.839;65.677;-10.580;-19.595;-16.689
3026724.076;71.079;65.379;554.919;81.770;67.391;-2.310;-10.878;-11.921
3026724.084;73.463;67.577;550.449;82.254;61.318;-1.565;-10.878;-12.964
3026724.092;74.953;67.912;545.457;81.174;64.932;-5.364;-15.087;-15.534
3026724.100;84.601;71.041;548.959;79.088;80.355;-1.937;-11.735;-9.872
3026724.108;77.039;63.702;534.840;72.345;66.496;-11.660;-23.432;-15.311
3026724.116;78.231;71.935;531.413;85.905;53.346;-13.858;-28.536;-13.895
3026724.124;70.520;59.791;519.380;79.125;57.742;-15.795;-33.490;-15.721
3026724.132;63.777;52.638;505.857;67.949;51.223;-9.649;-29.132;-9.276
3026724.140;64.373;64.969;506.379;73.612;67.540;-4.806;-22.165;-7.153
3026724.151;60.573;56.662;498.891;64.485;67.055;-2.496;-16.131;-8.047
3026724.159;50.925;46.864;480.302;55.507;48.541;-9.798;-21.234;-17.285
3026724.167;52.042;42.133;478.327;48.019;53.719;-6.855;-17.397;-14.342
3026724.175;57.295;41.090;480.637;44.517;59.567;-7.302;-17.881;-9.909
3026724.183;61.542;53.383;476.390;60.350;59.865;-13.188;-26.375;-12.368
3026724.191;57.779;53.458;465.922;63.814;48.690;-24.065;-39.935;-20.824
3026724.199;56.699;49.546;463.836;62.138;55.991;-24.773;-41.723;-19.819
3026724.207;55.134;46.939;457.652;62.138;57.258;-16.838;-34.310;-14.305
3026724.215;57.928;47.758;452.846;59.195;53.272;-5.960;-23.693;-6.706
3026724.223;49.695;37.923;440.553;49.584;42.804;-3.092;-20.191;-7.600
3026724.231;46.231;35.502;430.942;42.394;35.428;-5.066;-20.452;-11.809
3026724.239;50.552;41.015;433.251;45.523;42.357;-6.743;-21.085;-14.417
3026724.247;55.581;44.629;433.512;51.372;53.085;-7.823;-22.501;-17.546
3026724.255;58.673;49.286;429.116;56.252;54.501;-8.866;-25.928;-17.621
3026724.263;58.301;52.750;425.167;57.779;53.830;-15.460;-35.241;-20.452
3026724.271;61.281;57.071;423.789;57.295;67.279;-14.454;-36.098;-17.658
3026724.279;63.218;58.860;415.258;66.385;62.250;-8.792;-29.914;-10.245
3026724.287;47.646;32.857;405.125;42.059;44.592;-13.299;-32.745;-12.852
3026724.295;40.121;30.324;395.216;43.847;49.435;-17.509;-35.688;-18.366
3026724.303;47.311;49.770;393.540;64.000;52.005;-13.560;-29.169;-17.807
3026724.311;51.968;56.438;392.757;68.098;50.403;-3.092;-20.117;-9.537
3026724.319;68.918;66.906;400.543;88.774;59.977;-2.310;-19.968;-10.431
3026724.327;66.422;64.857;392.795;82.254;49.099;-6.296;-24.997;-17.509
3026724.335;73.761;82.329;395.738;87.433;52.415;2.570;-16.764;-10.245
3026724.330;77.412;84.229;395.067;98.757;61.914;5.364;-12.703;-8.829
3026724.338;64.485;65.602;380.948;90.860;46.007;-2.049;-19.148;-15.870
3026724.346;68.508;73.276;376.962;98.646;40.457;-4.582;-21.085;-14.752
3026724.354;68.583;79.349;370.108;98.534;42.282;-8.307;-25.332;-16.280
3026724.362;65.826;71.898;365.153;101.589;43.288;-16.093;-33.751;-22.054
3026724.370;59.269;67.204;353.456;91.791;22.650;-12.778;-30.398;-19.222
3026724.378;61.058;58.748;350.066;91.717;29.020;-3.390;-22.650;-11.064
3026724.386;73.090;71.414;359.006;96.411;50.366;3.949;-16.056;-5.960
3026724.394;67.614;81.845;345.558;93.691;40.494;4.768;-13.821;-11.064
3026724.402;65.416;74.953;339.895;85.756;38.631;10.394;-7.004;-10.096
3026724.410;63.814;72.196;337.176;89.593;31.888;16.987;1.341;-6.407
3026724.418;50.403;53.830;320.375;76.406;29.765;4.061;-11.101;-17.881
3026724.426;61.579;65.267;327.304;91.158;49.658;1.527;-15.311;-16.764
3026724.434;61.430;66.683;322.163;100.210;46.864;-1.304;-21.905;-15.870
3026724.442;54.277;59.791;311.323;85.421;37.327;-10.207;-34.273;-19.930
3026724.450;51.297;55.842;300.705;73.723;30.212;-3.763;-28.573;-13.076
3026724.458;50.217;56.922;297.017;70.259;29.989;-0.112;-23.805;-10.431
3026724.466;55.246;63.702;298.210;76.815;32.634;13.076;-7.711;-1.900
3026724.474;52.229;59.865;294.223;72.531;39.563;14.789;-3.502;-3.763
3026724.482;48.876;56.699;287.741;71.898;34.086;12.368;-4.247;-6.035
3026724.490;49.770;50.999;283.495;75.623;35.837;14.529;-2.384;-3.129
3026724.498;55.693;55.432;281.073;85.197;35.129;16.131;-1.602;0.037
3026724.506;49.174;53.570;267.550;70.371;30.100;4.172;-14.082;-9.276
3026724.514;44.890;41.276;265.650;63.218;37.588;-7.711;-29.132;-17.658
3026724.524;35.912;33.639;256.598;49.286;35.167;-13.486;-39.488;-19.632
3026724.532;31.069;33.937;247.732;46.901;22.277;-7.637;-33.043;-11.846
3026724.540;19.744;23.954;229.739;40.457;12.815;2.012;-21.458;-4.992
3026724.548;11.660;21.122;214.986;35.018;6.333;7.004;-13.299;-4.917
3026724.556;11.064;14.044;209.920;30.063;3.837;9.723;-5.513;-7.525
3026724.564;16.391;18.962;212.304;32.969;4.619;17.509;4.917;-3.949
3026724.572;17.807;23.767;207.834;47.721;-0.745;17.807;6.706;-4.470
3026724.580;21.607;28.163;208.654;52.676;6.780;11.548;0.633;-7.637
3026724.588;21.532;21.383;206.456;42.096;14.231;1.974;-8.568;-14.044
3026724.596;21.867;22.240;205.599;40.792;25.406;1.006;-11.735;-10.952
3026724.604;16.689;20.713;199.825;32.857;12.629;-5.066;-20.340;-10.468
3026724.612;6.072;15.050;186.674;26.189;0.261;-3.427;-21.718;-7.488
3026724.620;-4.098;-2.049;170.618;0.559;-8.121;3.353;-14.938;-5.029
3026724.628;-3.092;-2.496;165.179;7.413;-10.431;9.909;-6.370;-3.949
3026724.636;5.774;5.662;177.287;29.504;14.007;16.727;1.788;-1.527
3026724.644;27.269;29.728;195.168;51.297;32.671;25.332;14.715;3.204
3026724.652;33.975;46.752;193.939;55.432;30.920;22.389;14.752;-3.353
3026724.660;18.068;30.175;172.183;44.927;9.015;16.056;7.898;-7.674
3026724.668;20.377;29.653;172.444;45.896;13.895;14.156;1.751;-3.278
3026724.676;21.122;32.112;169.985;44.294;14.827;5.402;-11.772;-6.594
3026724.684;12.740;16.056;159.331;32.596;-0.969;1.639;-19.260;-4.992
3026724.692;4.359;4.061;151.098;12.293;-4.880;1.229;-21.569;-4.098
3026724.700;11.437;21.644;154.190;30.361;6.929;12.256;-10.021;4.470
3026724.708;23.209;36.210;158.511;58.636;16.168;21.681;2.831;11.623
3026724.733;22.054;32.373;156.164;50.403;17.360;21.495;5.402;7.600
3026724.741;22.091;28.275;153.407;48.764;13.933;17.546;5.849;0.000
3026724.749;29.467;35.018;154.674;52.676;22.985;18.887;10.654;-3.166
3026724.757;30.771;32.149;156.537;51.260;32.932;7.376;1.229;-15.311
3026724.765;42.282;41.276;167.713;60.797;49.770;4.433;-3.316;-14.529
3026724.773;21.309;22.389;143.647;38.780;22.724;-7.302;-19.222;-22.016
3026724.781;15.460;17.732;141.077;36.098;11.697;-7.749;-22.762;-16.950
3026724.789;25.071;26.003;159.554;49.658;31.739;-4.582;-22.128;-10.878
3026724.797;18.328;12.927;164.770;32.522;29.728;0.447;-19.707;-5.290
3026724.805;22.016;17.695;170.097;34.720;21.122;7.413;-9.947;0.149
3026724.813;16.019;16.689;165.515;35.129;22.389;8.568;-5.178;-2.198
3026724.821;18.887;18.626;166.260;49.137;19.185;6.743;-4.247;-7.972
3026724.829;27.940;25.406;171.289;54.836;26.636;5.923;-2.235;-11.958
3026724.837;34.869;28.424;180.006;52.117;43.437;0.559;-6.557;-18.775
3026724.845;39.227;33.118;183.024;56.885;47.125;-8.866;-16.987;-30.287
3026724.853;32.932;27.940;174.455;51.968;40.159;-15.236;-24.699;-35.129
3026724.861;21.160;18.291;158.846;40.121;30.547;-22.016;-34.533;-34.943
3026724.869;16.280;12.666;149.906;23.395;29.951;-16.168;-34.608;-22.054
3026724.877;14.976;9.276;150.502;24.699;33.602;-9.574;-30.547;-10.803
3026724.885;-0.857;-7.674;132.881;9.462;20.824;-12.964;-34.347;-14.529
3026724.893;-5.737;-13.001;124.015;8.643;13.411;-9.909;-27.940;-15.646
3026724.901;-5.178;-19.185;118.911;3.390;4.619;-6.855;-20.787;-13.672
3026724.909;-4.433;-9.909;113.770;5.588;9.723;-8.494;-20.079;-16.503
3026724.917;-2.570;1.527;112.988;22.836;18.030;-13.970;-23.767;-25.965
3026724.915;-4.396;0.037;107.735;23.358;9.462;-21.160;-28.498;-36.806
3026724.923;-1.080;-5.886;108.406;18.328;13.560;-20.638;-25.742;-40.196
3026724.931;-2.272;-2.980;102.744;15.534;11.250;-18.515;-25.854;-37.290
3026724.939;-7.749;0.671;94.101;19.744;11.660;-13.784;-24.363;-28.498
3026724.947;-26.301;-23.544;74.282;-6.743;1.192;-16.131;-29.877;-25.518
3026724.955;-37.439;-39.265;60.163;-29.877;-13.337;-11.027;-25.965;-17.807
3026724.963;-48.950;-50.440;48.056;-36.247;-23.656;-10.431;-26.971;-16.429
3026724.971;-53.197;-56.662;39.563;-43.586;-27.530;-15.907;-32.224;-20.377
3026724.979;-58.562;-65.081;32.932;-58.301;-33.528;-23.432;-38.259;-27.716
3026724.987;-61.318;-69.067;27.530;-51.111;-33.341;-38.035;-50.627;-43.437
3026724.995;-42.617;-47.386;42.357;-29.653;-16.019;-31.255;-41.611;-39.749
3026725.003;-29.802;-26.487;49.397;-15.609;-15.870;-23.842;-32.745;-36.843
3026725.011;-13.001;-7.860;62.771;-0.447;10.319;-11.213;-19.372;-26.673
3026725.019;-12.964;-12.964;61.877;0.149;11.064;-10.207;-18.775;-25.705
3026725.027;-36.992;-36.061;33.975;-30.212;-15.832;-20.899;-34.049;-33.006
3026725.035;-40.680;-36.545;24.289;-26.152;-16.131;-9.760;-25.332;-17.472
3026725.043;-52.117;-47.050;14.156;-34.571;-25.667;-4.880;-21.495;-8.941
3026725.051;-66.049;-61.952;-3.092;-51.372;-41.686;-10.133;-26.338;-13.113
3026725.059;-78.715;-77.412;-18.626;-70.818;-51.148;-21.048;-36.918;-24.065
3026725.067;-66.161;-64.746;-9.350;-67.092;-39.674;-20.154;-34.645;-23.209
3026725.075;-55.805;-51.819;-4.545;-50.068;-37.998;-23.432;-35.837;-26.822
3026725.083;-53.868;-50.999;-5.066;-37.812;-33.081;-30.324;-42.096;-32.522
3026725.091;-42.319;-37.886;3.427;-26.710;-21.942;-27.269;-34.831;-30.585
3026725.099;-33.006;-24.959;7.935;-22.240;-17.323;-16.578;-20.787;-25.295
3026725.111;-32.708;-29.169;4.545;-25.108;-8.121;-9.090;-14.082;-22.203
3026725.119;-43.027;-39.786;-8.158;-34.012;-21.495;-10.729;-17.621;-22.240
3026725.127;-63.777;-57.109;-29.914;-59.791;-40.047;-13.933;-24.401;-21.234
3026725.135;-77.970;-68.098;-45.709;-73.314;-52.154;-13.262;-25.891;-15.944
3026725.143;-82.441;-73.984;-53.085;-74.469;-52.154;-14.491;-27.977;-16.131
3026725.151;-94.175;-82.403;-68.806;-83.596;-68.620;-26.524;-38.147;-27.344
3026725.159;-98.161;-89.929;-77.710;-85.831;-75.884;-31.851;-42.394;-31.181
3026725.167;-93.132;-91.381;-73.984;-86.240;-65.714;-33.118;-45.300;-31.851
3026725.175;-91.232;-94.660;-74.208;-95.889;-60.275;-40.308;-53.309;-39.488
3026725.183;-80.876;-76.666;-64.746;-84.154;-49.211;-34.384;-46.417;-36.322
3026725.191;-70.445;-64.485;-58.301;-64.895;-38.967;-24.289;-34.496;-29.728
3026725.199;-74.320;-62.957;-68.508;-72.978;-49.323;-24.438;-34.273;-32.522
3026725.207;-78.194;-66.683;-72.680;-72.680;-50.142;-19.036;-29.355;-27.679
3026725.215;-85.235;-77.672;-83.074;-82.962;-45.337;-16.131;-27.344;-24.848
3026725.223;-105.351;-96.522;-105.277;-103.973;-69.812;-18.664;-32.820;-25.295
3026725.231;-116.117;-106.134;-118.986;-114.776;-88.327;-20.377;-34.533;-23.805
3026725.239;-110.380;-99.763;-116.676;-107.251;-80.504;-17.956;-29.989;-18.887
3026725.247;-109.375;-100.806;-119.880;-107.698;-81.658;-20.228;-29.989;-21.048
3026725.255;-113.845;-107.400;-125.803;-111.982;-97.677;-26.859;-36.992;-29.318
3026725.263;-103.116;-94.287;-115.968;-101.067;-80.280;-24.997;-35.353;-30.324
3026725.271;-82.850;-68.545;-98.720;-78.753;-52.378;-16.689;-26.450;-23.358
3026725.279;-70.333;-55.321;-91.530;-72.047;-42.915;-8.456;-16.727;-17.211
3026725.287;-82.366;-71.377;-105.500;-72.494;-54.426;-14.417;-21.532;-24.326
3026725.295;-87.880;-81.435;-112.392;-79.162;-55.283;-16.391;-23.916;-26.450
3026725.290;-103.004;-91.828;-127.368;-104.345;-66.608;-15.572;-24.214;-24.065
3026725.298;-120.513;-104.718;-144.392;-121.817;-85.980;-20.191;-31.255;-24.401
3026725.306;-126.995;-114.478;-152.364;-132.136;-90.748;-21.867;-33.826;-22.911
3026725.314;-136.681;-129.603;-165.701;-134.856;-93.542;-24.885;-36.508;-26.561
3026725.322;-132.918;-124.872;-166.371;-126.772;-96.448;-23.618;-34.012;-27.455
3026725.330;-122.935;-109.114;-158.027;-113.100;-87.507;-22.091;-30.994;-27.977
3026725.338;-118.874;-105.910;-157.915;-113.472;-88.438;-27.753;-37.700;-32.224
3026725.346;-110.939;-101.328;-151.545;-107.139;-85.495;-28.163;-38.594;-31.292
3026725.354;-91.642;-79.833;-134.483;-93.430;-56.922;-18.440;-27.344;-23.022
3026725.362;-83.521;-77.114;-129.007;-83.335;-41.164;-7.153;-15.683;-13.709
3026725.370;-93.952;-80.392;-138.804;-97.677;-55.209;-10.245;-20.787;-16.987
3026725.378;-105.314;-93.728;-150.800;-109.784;-72.345;-11.250;-24.624;-16.764
3026725.386;-110.790;-102.594;-158.884;-117.347;-76.219;-8.568;-21.309;-16.168
3026725.394;-118.092;-108.927;-170.991;-119.880;-84.899;-13.411;-24.065;-21.085
3026725.402;-132.546;-124.611;-188.127;-137.724;-98.348;-26.450;-36.247;-32.410
3026725.410;-127.926;-117.794;-187.159;-130.311;-93.170;-24.214;-34.943;-29.802
3026725.418;-117.384;-104.345;-178.963;-115.931;-83.223;-19.222;-30.547;-22.240
3026725.426;-115.484;-106.134;-175.461;-115.559;-73.276;-24.848;-36.620;-24.326
3026725.434;-114.292;-111.014;-173.673;-117.384;-70.632;-31.590;-44.443;-31.032
3026725.442;-103.600;-98.571;-168.644;-111.163;-63.069;-23.209;-35.353;-25.518
3026725.450;-103.675;-90.413;-173.301;-104.196;-65.081;-22.426;-31.777;-28.387
3026725.458;-105.761;-89.779;-176.914;-108.108;-67.092;-18.068;-25.183;-27.865
3026725.466;-113.361;-97.230;-185.259;-111.796;-71.675;-11.139;-18.738;-23.060
3026725.474;-120.439;-106.841;-195.466;-120.699;-83.670;-8.829;-17.434;-21.383
3026725.484;-118.725;-110.753;-196.025;-131.577;-85.048;-5.066;-15.832;-15.460
3026725.492;-114.106;-102.855;-195.131;-117.049;-82.329;-5.923;-18.068;-15.646
3026725.500;-114.813;-104.383;-195.093;-114.515;-82.962;-13.150;-25.332;-22.054
3026725.508;-120.997;-113.137;-202.730;-122.041;-88.438;-19.558;-31.777;-27.120
3026725.516;-112.131;-106.990;-196.807;-121.929;-81.286;-17.434;-30.324;-24.587
3026725.524;-102.110;-92.499;-188.015;-109.300;-66.720;-12.815;-25.891;-19.744
3026725.532;-100.769;-90.897;-186.227;-106.283;-64.634;-19.632;-31.479;-26.114
3026725.540;-107.475;-103.749;-195.205;-121.109;-68.545;-28.834;-38.296;-33.528
3026725.548;-112.131;-106.469;-204.407;-130.571;-78.939;-21.793;-30.249;-26.189
3026725.556;-125.654;-119.880;-216.775;-141.747;-89.444;-21.979;-32.187;-24.699
3026725.564;-118.203;-107.624;-211.522;-131.205;-76.965;-5.141;-18.105;-9.015
3026725.572;-110.306;-98.869;-205.599;-118.725;-70.632;6.817;-6.557;-1.714
3026725.580;-113.323;-104.494;-211.485;-122.637;-73.388;6.258;-7.115;-7.227
3026725.588;-113.957;-106.916;-214.279;-120.811;-81.398;5.327;-8.419;-10.543
3026725.596;-117.756;-110.939;-218.228;-123.419;-85.756;0.149;-14.082;-15.013
3026725.604;-99.093;-89.407;-202.507;-107.437;-69.700;11.399;-2.980;-1.490
3026725.612;-98.534;-87.805;-203.177;-112.951;-68.508;-1.043;-14.082;-9.686
3026725.620;-100.434;-90.376;-206.307;-114.404;-59.977;-17.993;-31.032;-20.973
3026725.628;-104.345;-96.001;-215.918;-113.696;-70.147;-22.016;-36.396;-18.962
3026725.636;-105.090;-100.136;-216.216;-120.439;-71.339;-15.609;-31.814;-10.133
3026725.644;-106.655;-102.185;-221.357;-122.264;-77.933;-6.072;-22.911;-0.969
3026725.652;-113.547;-104.234;-227.168;-125.058;-83.707;-7.264;-22.464;-4.694
3026725.660;-115.670;-104.457;-229.105;-131.465;-76.033;-3.837;-18.254;-5.253
3026725.668;-106.841;-98.050;-223.443;-119.321;-68.061;3.092;-10.319;-1.788
3026725.681;-104.196;-90.785;-223.294;-109.188;-67.391;3.614;-7.525;-4.172
3026725.689;-98.906;-83.037;-223.294;-105.239;-68.843;-0.969;-9.052;-8.047
3026725.697;-86.576;-76.517;-212.677;-98.050;-57.891;0.671;-5.662;-2.757
3026725.705;-90.972;-86.240;-216.663;-108.704;-63.926;-4.098;-11.139;-4.619
3026725.713;-90.152;-86.352;-218.451;-109.635;-73.239;-8.307;-15.683;-5.886
3026725.721;-84.750;-75.176;-209.324;-105.537;-50.627;-8.978;-18.664;-1.937
3026725.729;-82.292;-72.941;-206.977;-105.612;-38.482;-11.921;-23.097;-2.608
3026725.737;-77.076;-66.869;-204.444;-91.977;-36.620;-6.817;-17.732;1.155
3026725.745;-70.073;-63.814;-199.117;-90.636;-36.508;-3.353;-14.007;0.782
3026725.753;-52.042;-48.839;-182.018;-77.859;-20.079;6.631;-2.123;5.290
3026725.761;-37.178;-28.796;-166.968;-61.505;-3.874;16.280;8.605;7.339
3026725.769;-25.332;-13.411;-157.468;-46.529;4.284;17.136;12.219;3.129
3026725.777;-8.717;0.447;-142.530;-31.739;23.283;22.613;20.079;8.717
3026725.785;-5.029;-2.347;-138.134;-32.485;27.567;22.799;19.148;12.331
3026725.793;-0.224;-0.931;-133.701;-35.465;29.616;20.042;14.231;13.337
3026725.801;4.619;9.760;-126.772;-44.219;34.869;16.131;8.829;12.405
3026725.809;4.321;14.454;-130.758;-22.985;38.296;8.196;0.484;8.978
3026725.817;-3.800;4.061;-141.598;-20.117;25.779;-1.155;-8.307;2.943
3026725.825;-8.084;-0.671;-144.020;-33.155;18.887;-2.384;-10.654;1.974
3026725.833;1.900;9.388;-135.638;-33.900;41.276;7.115;-0.484;10.319
3026725.841;9.947;18.366;-126.809;-22.948;49.733;15.832;11.250;14.342
3026725.849;17.174;23.358;-120.029;-21.607;57.817;16.950;12.368;12.964
3026725.857;27.306;34.012;-113.063;-8.233;63.144;25.034;19.260;17.397
3026725.865;31.218;42.580;-110.678;-4.843;64.634;19.073;13.448;10.580
3026725.875;31.255;44.927;-111.423;-4.359;67.689;6.892;2.906;0.000
3026725.883;31.367;42.766;-112.653;-6.966;65.044;7.451;3.278;3.017
3026725.891;35.390;37.588;-109.002;-13.448;68.210;5.215;-1.453;6.892
3026725.899;26.636;35.390;-120.066;-11.250;67.577;0.000;-6.184;4.210
3026725.907;18.999;26.636;-124.946;-8.605;61.579;-0.857;-6.929;3.800
3026725.915;10.952;11.288;-133.775;-24.512;62.287;8.903;4.098;13.486
3026725.923;6.780;18.142;-139.177;-35.018;57.742;13.523;10.431;15.348
3026725.931;8.717;26.077;-141.859;-22.575;56.736;19.968;16.354;19.558
3026725.939;5.923;20.042;-148.863;-31.739;49.360;12.405;5.998;10.915
3026725.947;6.706;17.136;-149.161;-32.522;43.288;10.394;2.086;7.115
3026725.955;8.605;13.746;-149.086;-33.379;41.351;7.898;0.857;1.639
3026725.963;4.061;13.374;-156.686;-42.021;37.141;-0.708;-5.700;-8.158
3026725.971;16.280;28.126;-148.453;-13.337;46.007;6.743;4.396;-0.335
3026725.979;18.738;27.493;-145.324;-18.775;44.256;5.811;3.688;1.602
3026725.987;-0.782;4.992;-163.950;-35.614;25.295;-5.290;-7.041;-5.737
3026725.995;-10.468;-0.298;-174.418;-32.149;25.108;-6.333;-6.631;-5.327
3026726.003;-16.615;-5.662;-182.353;-48.019;16.019;-2.719;-2.012;-3.800
3026726.011;-14.119;-2.943;-182.949;-51.595;17.658;8.382;8.233;4.210
3026726.019;-15.758;-9.127;-185.370;-51.409;23.283;19.372;16.727;12.517
3026726.027;-24.065;-23.395;-194.535;-68.434;15.907;10.766;6.370;3.763
3026726.035;-20.899;-13.448;-194.274;-68.769;11.474;6.072;-0.857;0.484
3026726.043;-18.254;-9.052;-194.274;-50.962;15.907;3.502;-7.525;0.559
3026726.051;-9.984;-2.161;-188.649;-40.941;20.154;-0.149;-10.096;-1.453
3026726.059;-7.898;-0.410;-183.359;-39.861;26.152;-1.900;-8.233;-3.576
3026726.071;0.149;7.600;-178.665;-29.355;30.994;3.502;-0.820;1.006
3026726.079;1.378;11.511;-178.777;-30.994;31.851;6.221;2.123;3.763
3026726.087;-11.995;-7.823;-192.970;-51.223;16.913;-0.522;-5.476;-2.980
3026726.095;-14.007;-11.586;-195.503;-52.676;12.517;10.952;6.184;6.147
3026726.103;-16.913;-6.482;-199.564;-50.254;11.995;22.054;19.148;14.193
3026726.111;-23.879;-19.595;-211.075;-56.438;1.527;18.217;16.540;7.227
3026726.119;-20.005;-9.574;-213.124;-45.039;6.817;13.821;12.293;2.235
3026726.127;-22.426;-8.941;-209.771;-50.813;2.794;8.680;4.806;-0.559
3026726.135;-29.914;-20.377;-216.365;-64.261;3.166;1.192;-4.061;-5.923
3026726.143;-32.485;-22.575;-221.245;-64.746;1.229;4.768;-0.522;-2.012
3026726.151;-19.222;-10.878;-205.413;-53.942;11.511;12.852;7.860;7.004
3026726.159;-5.402;4.284;-193.678;-32.336;20.228;14.752;10.245;10.207
3026726.167;-17.360;-7.339;-209.138;-39.972;6.631;14.268;9.015;10.505
3026726.175;-21.271;-11.399;-217.073;-42.021;4.470;9.723;5.662;9.537
3026726.183;-21.085;-13.076;-216.365;-48.578;4.284;12.629;8.792;15.944
3026726.191;-38.296;-30.324;-234.433;-74.692;-18.477;2.719;0.931;4.396
3026726.199;-39.153;-30.883;-236.630;-64.075;-20.713;2.943;5.774;-0.782
3026726.207;-31.963;-30.063;-230.707;-53.346;-5.811;6.333;10.990;-1.676
3026726.215;-19.297;-13.523;-219.904;-48.317;2.757;20.899;24.401;12.554
3026726.223;-23.618;-7.451;-226.684;-45.039;3.055;21.979;20.228;16.615
3026726.231;-30.659;-18.775;-234.582;-52.601;-8.307;20.303;13.858;17.807
3026726.239;-32.559;-23.358;-236.258;-59.865;-7.413;22.575;14.119;22.091
3026726.247;-34.347;-28.387;-237.040;-64.373;-10.766;11.101;2.235;13.672
3026726.255;-33.416;-27.455;-238.121;-66.683;-14.454;-0.484;-8.121;3.874
3026726.250;-36.955;-31.702;-241.138;-73.314;-17.025;-10.058;-14.454;-7.190
3026726.258;-32.037;-30.510;-235.774;-74.469;-7.972;-3.166;-4.321;-2.049
3026726.266;-9.015;-11.250;-217.147;-48.503;10.170;17.881;19.930;15.981
3026726.274;-7.376;-0.112;-217.333;-25.034;7.749;21.718;24.587;16.168
3026726.282;-7.898;3.353;-219.457;-27.493;12.666;27.195;30.287;20.750
3026726.290;-19.558;-4.917;-230.595;-42.431;3.725;22.724;26.114;14.566
3026726.298;-27.604;-15.385;-238.791;-46.343;-4.843;17.919;22.165;7.264
3026726.306;-28.573;-24.885;-241.958;-56.587;-0.596;18.105;23.693;7.302
3026726.314;-25.891;-17.360;-237.115;-52.564;-4.210;15.832;18.924;8.047
3026726.322;-18.068;-7.786;-231.378;-39.898;5.625;16.540;17.397;12.815
3026726.330;-14.082;-8.233;-228.919;-45.933;8.643;18.291;16.540;18.403
3026726.338;-28.498;-27.120;-244.528;-69.663;-8.978;7.227;3.241;10.207
3026726.346;-29.877;-25.667;-246.838;-58.860;-14.007;4.433;4.359;7.488
3026726.354;-31.590;-24.959;-248.924;-53.123;-12.480;2.719;6.296;2.459
3026726.362;-26.897;-24.699;-246.353;-53.048;-7.786;8.605;12.480;6.109
3026726.370;-28.163;-28.946;-247.657;-58.264;-14.305;16.727;20.564;10.580
3026726.378;-28.014;-16.987;-250.489;-50.664;-10.319;23.991;28.200;14.976
3026726.386;-32.037;-17.025;-256.188;-48.168;-10.356;25.854;28.722;16.764
3026726.394;-40.308;-25.332;-263.005;-58.375;-27.455;17.211;17.360;12.405
3026726.402;-36.620;-30.547;-256.188;-64.149;-6.072;12.107;10.096;12.033
3026726.410;-39.786;-38.445;-260.547;-74.580;-6.296;6.072;2.943;10.654
3026726.418;-46.119;-46.454;-265.054;-80.168;-14.976;-5.886;-10.207;4.508
3026726.426;-42.580;-47.237;-259.988;-81.435;-9.947;-0.820;-6.929;12.331
3026726.434;-59.716;-64.187;-280.216;-98.832;-28.834;-14.715;-19.483;-3.166
3026726.445;-57.258;-59.605;-281.222;-88.103;-33.490;-5.178;-5.364;0.559
3026726.453;-54.277;-56.997;-279.397;-84.564;-39.600;3.837;7.302;4.694
3026726.461;-51.334;-42.133;-278.614;-74.208;-30.547;6.780;10.133;5.029
3026726.469;-50.478;-43.847;-278.726;-72.271;-18.440;10.096;12.554;8.047
3026726.477;-53.309;-50.962;-280.961;-82.925;-24.438;10.058;10.058;9.462
3026726.485;-58.673;-53.756;-287.965;-84.341;-32.559;-0.410;-2.235;1.900
3026726.493;-58.934;-56.662;-287.779;-90.152;-33.453;-3.651;-6.184;2.235
3026726.501;-59.009;-57.332;-287.034;-94.026;-38.780;-7.488;-12.778;2.943
3026726.509;-61.467;-58.003;-291.467;-90.413;-33.230;-9.909;-19.073;4.172
3026726.517;-70.259;-72.196;-296.272;-105.090;-35.949;-15.460;-26.077;-0.559
3026726.525;-69.067;-70.855;-294.596;-102.296;-28.498;-12.740;-21.309;-0.075
3026726.533;-68.359;-63.889;-296.533;-98.236;-35.577;-11.101;-15.311;-3.129
3026726.541;-71.339;-68.024;-300.519;-98.273;-42.990;-8.456;-8.382;-4.470
3026726.549;-67.204;-69.551;-296.719;-97.342;-38.967;2.608;4.843;2.347
3026726.557;-72.382;-73.500;-303.686;-96.299;-51.670;-2.570;-0.894;-4.396
3026726.565;-76.890;-75.959;-311.397;-101.067;-52.378;-8.792;-9.984;-8.754
3026726.573;-75.437;-67.949;-311.695;-101.589;-50.887;-12.331;-16.093;-10.580
3026726.581;-71.377;-61.281;-307.113;-95.889;-45.672;-14.491;-18.589;-11.399
3026726.589;-77.337;-73.649;-312.626;-100.434;-48.652;-24.512;-30.734;-16.838
3026726.597;-75.586;-77.412;-310.130;-101.551;-45.002;-24.289;-36.843;-11.213
3026726.605;-72.084;-69.365;-309.050;-100.173;-41.761;-21.346;-38.482;-4.619
3026726.613;-76.592;-74.171;-316.016;-104.606;-54.277;-22.836;-39.190;-8.717
3026726.621;-76.108;-75.772;-311.621;-107.810;-58.897;-14.789;-28.498;-5.439
3026726.629;-73.500;-75.288;-308.938;-109.635;-46.305;-11.846;-21.346;-4.992
3026726.640;-76.219;-78.976;-312.775;-104.383;-48.727;-12.368;-19.372;-7.004
3026726.648;-78.008;-79.386;-316.426;-100.099;-53.830;-12.740;-17.546;-9.313
3026726.656;-72.941;-67.316;-312.179;-94.920;-46.864;-2.421;-6.966;-1.900
3026726.664;-78.268;-71.786;-320.524;-93.803;-56.550;-4.880;-10.617;-5.923
3026726.672;-78.417;-77.337;-320.710;-96.597;-56.997;-3.725;-11.213;-4.508
3026726.680;-75.549;-73.761;-317.320;-97.938;-48.578;0.559;-9.723;-0.335
3026726.688;-81.249;-83.037;-324.845;-103.675;-60.871;-0.112;-13.001;-0.447
3026726.696;-75.065;-76.666;-318.736;-102.110;-57.891;6.594;-6.519;4.992
3026726.704;-68.098;-65.491;-314.489;-93.319;-50.366;10.394;-1.155;6.072
3026726.712;-68.098;-65.789;-315.644;-86.278;-53.793;12.480;3.688;8.754
3026726.720;-73.798;-72.531;-318.959;-97.342;-61.467;8.792;1.565;7.041
3026726.728;-81.435;-78.566;-327.453;-104.271;-71.302;1.863;-3.614;0.224
3026726.736;-83.148;-85.086;-330.433;-104.718;-71.004;2.384;-3.502;0.559
3026726.744;-75.959;-72.271;-323.504;-93.840;-59.195;1.416;-6.258;-0.037
3026726.752;-66.794;-56.624;-313.222;-78.566;-51.670;6.445;-2.496;4.768
3026726.760;-69.588;-62.734;-317.469;-83.372;-53.309;0.149;-9.499;-2.533
3026726.768;-81.025;-75.474;-332.370;-96.932;-65.230;-8.941;-17.919;-11.809
3026726.776;-77.225;-70.967;-327.267;-93.244;-61.765;2.831;-4.992;-1.863
3026726.784;-70.632;-69.402;-316.575;-89.444;-55.842;18.626;9.909;12.405
3026726.792;-73.425;-75.996;-318.326;-101.440;-53.197;20.601;13.076;13.746
3026726.800;-80.280;-77.933;-327.714;-105.165;-60.946;16.093;9.388;8.568
3026726.808;-83.633;-79.945;-330.657;-99.465;-64.559;13.784;8.233;8.643
3026726.816;-82.850;-82.664;-328.496;-103.936;-63.963;13.299;9.574;10.431
3026726.824;-80.205;-74.990;-328.645;-95.963;-66.683;9.909;8.717;8.792
3026726.834;-81.770;-73.798;-332.333;-95.628;-76.070;-0.633;1.453;-0.335
3026726.842;-83.894;-81.286;-331.774;-103.042;-72.382;-8.382;-5.737;-7.413
3026726.850;-82.403;-80.056;-329.576;-105.351;-65.714;-6.966;-6.147;-7.041
3026726.858;-74.580;-73.910;-324.249;-102.818;-56.699;1.751;0.186;-0.037
3026726.866;-74.543;-74.916;-327.229;-98.720;-62.585;7.413;4.694;4.135
3026726.874;-64.038;-59.269;-318.214;-79.088;-50.478;19.521;16.093;15.385
3026726.882;-61.803;-53.644;-312.924;-69.328;-47.088;26.077;24.438;20.377
3026726.890;-76.368;-68.657;-328.310;-83.447;-58.860;13.821;13.113;7.115
3026726.898;-80.839;-76.443;-334.159;-89.332;-65.714;13.597;11.586;8.233
3026726.906;-91.381;-91.791;-343.956;-107.735;-78.939;5.774;3.874;4.359
3026726.914;-99.242;-95.889;-351.556;-110.678;-86.091;3.874;2.421;5.439
3026726.922;-96.560;-93.803;-345.968;-107.102;-76.965;4.694;2.831;9.462
3026726.930;-88.550;-88.438;-339.560;-105.537;-71.488;6.631;5.253;13.523
3026726.938;-83.819;-82.292;-335.388;-99.503;-66.571;7.413;6.407;11.772
3026726.946;-77.374;-77.747;-327.975;-92.275;-63.255;10.543;8.941;12.033
3026726.954;-73.276;-75.139;-324.734;-95.367;-58.226;12.405;10.282;11.735
3026726.962;-74.469;-71.861;-325.963;-90.040;-54.836;12.070;8.866;11.474
3026726.970;-74.096;-68.098;-326.373;-82.590;-60.275;12.815;8.456;12.778
3026726.978;-77.523;-78.343;-330.098;-97.007;-66.198;12.405;9.164;11.623
3026726.986;-87.619;-84.639;-339.374;-106.320;-74.841;7.972;7.600;7.562
3026726.994;-82.590;-79.833;-333.451;-95.740;-69.961;8.903;10.021;12.480
3026727.002;-85.644;-83.633;-336.207;-95.703;-72.680;2.384;4.061;7.376
3026727.010;-78.753;-75.735;-330.322;-82.701;-70.482;7.264;10.133;10.505
3026727.018;-78.455;-75.474;-329.614;-84.825;-67.167;5.364;10.394;7.227
3026727.030;-76.480;-77.300;-328.831;-85.011;-68.359;0.894;7.041;1.751
3026727.038;-67.689;-68.098;-320.040;-83.409;-63.442;5.439;10.207;6.258
3026727.046;-67.540;-67.055;-318.103;-86.166;-58.264;5.290;6.482;5.700
3026727.054;-60.387;-58.375;-310.428;-81.547;-45.076;12.331;9.909;14.007
3026727.062;-68.434;-69.663;-317.581;-84.378;-51.446;6.743;3.800;9.723
3026727.070;-75.884;-79.013;-325.590;-88.848;-62.659;6.929;4.806;9.052
3026727.078;-73.873;-71.339;-326.484;-81.398;-63.106;13.113;13.821;12.815
3026727.086;-77.188;-75.959;-330.769;-84.341;-67.614;14.864;17.397;13.337
3026727.094;-82.962;-81.919;-334.010;-90.897;-74.655;12.703;14.417;11.213
3026727.102;-77.374;-74.022;-327.006;-85.644;-68.545;14.827;15.236;14.789
3026727.110;-80.019;-79.609;-328.459;-89.556;-65.938;7.786;7.637;8.829
3026727.118;-78.231;-79.907;-326.782;-92.909;-68.396;1.714;0.931;2.980
3026727.126;-74.990;-76.629;-325.441;-85.980;-68.098;0.782;2.012;2.384
3026727.134;-71.265;-74.208;-323.653;-79.274;-66.273;2.310;3.241;3.353
3026727.142;-60.871;-58.897;-311.397;-70.781;-52.080;5.551;4.657;5.364
3026727.150;-64.932;-59.158;-314.489;-72.904;-52.936;8.382;7.115;7.264
3026727.158;-64.671;-61.505;-314.638;-72.308;-55.432;16.689;16.280;15.274
3026727.166;-71.563;-72.159;-320.673;-82.925;-61.356;18.738;19.558;17.174
3026727.174;-83.037;-82.999;-331.439;-99.428;-71.935;13.821;14.715;12.890
3026727.182;-86.091;-86.762;-334.084;-101.924;-73.463;16.615;17.844;15.125
3026727.190;-77.561;-75.959;-325.367;-83.297;-60.424;21.979;23.060;18.589
3026727.198;-75.214;-73.127;-324.287;-78.008;-57.407;23.432;22.389;18.701
3026727.206;-82.813;-81.621;-329.763;-86.762;-66.124;11.362;8.047;8.456
3026727.214;-85.607;-86.613;-331.514;-92.275;-68.881;4.731;-1.416;7.600
3026727.209;-85.048;-93.468;-329.055;-96.485;-69.626;2.012;-5.253;8.754
3026727.217;-75.549;-73.947;-321.306;-81.584;-67.465;3.986;-3.614;10.878
3026727.225;-70.669;-64.000;-317.134;-73.463;-55.730;9.574;2.049;14.007
3026727.233;-72.271;-70.557;-316.836;-78.790;-48.839;12.144;7.264;14.305
3026727.241;-78.604;-80.317;-322.126;-87.395;-55.954;12.964;9.686;12.964
3026727.249;-74.208;-76.592;-317.581;-86.129;-57.593;19.893;17.732;18.589
3026727.257;-76.182;-79.647;-319.704;-92.685;-68.024;19.334;15.311;18.440
3026727.265;-73.835;-74.655;-319.518;-77.337;-72.345;26.636;20.079;25.183
3026727.273;-70.482;-69.775;-318.028;-69.551;-65.640;23.097;16.242;21.346
3026727.281;-70.408;-71.116;-315.122;-70.184;-59.605;16.652;11.288;15.385
3026727.289;-76.741;-70.110;-320.263;-74.580;-66.571;10.282;5.737;9.164
3026727.297;-80.876;-74.692;-326.484;-79.125;-71.935;5.439;-0.857;5.849
3026727.305;-79.833;-77.523;-325.479;-81.360;-70.520;9.015;0.410;10.766
3026727.313;-76.666;-73.537;-321.902;-78.827;-70.035;13.299;3.614;17.360
3026727.321;-78.902;-79.125;-325.404;-78.157;-78.231;14.193;5.960;19.111
3026727.329;-81.845;-82.292;-328.347;-85.942;-76.704;14.491;9.835;18.328
3026727.337;-85.421;-81.770;-331.253;-86.203;-74.618;7.041;6.072;8.605
3026727.345;-78.455;-74.655;-322.312;-74.320;-67.316;9.276;11.176;9.798
3026727.353;-69.104;-70.110;-314.377;-72.382;-59.158;16.093;17.025;14.715
3026727.361;-59.009;-65.640;-306.293;-63.889;-58.673;24.475;22.873;19.595
3026727.369;-63.069;-69.402;-306.554;-67.279;-63.069;24.736;20.415;19.073
3026727.377;-61.803;-61.244;-306.368;-53.756;-54.874;27.493;21.942;21.420
3026727.385;-60.424;-57.220;-303.872;-54.128;-48.093;31.330;24.550;26.450
3026727.393;-70.371;-65.640;-312.775;-63.553;-59.418;25.518;16.615;23.134
3026727.406;-73.053;-73.500;-315.644;-64.820;-60.722;22.538;12.293;24.214
3026727.414;-78.045;-79.721;-318.848;-72.792;-67.279;15.944;6.780;19.595
3026727.422;-75.549;-75.400;-317.059;-77.002;-70.818;10.319;6.072;12.703
3026727.430;-70.333;-71.153;-312.030;-72.904;-67.838;12.740;13.560;12.517
3026727.438;-61.989;-66.161;-302.605;-61.244;-52.899;19.968;24.289;15.385
3026727.446;-56.960;-60.648;-297.055;-54.576;-47.125;24.512;30.324;17.509
3026727.454;-49.025;-48.317;-291.541;-48.019;-46.194;32.447;36.694;22.165
3026727.462;-40.643;-37.700;-282.302;-36.322;-38.818;39.376;39.451;30.473
3026727.470;-40.755;-39.265;-279.397;-32.969;-33.937;41.835;38.184;35.390
3026727.478;-51.819;-50.850;-290.163;-46.268;-42.841;32.187;28.796;28.498
3026727.486;-62.846;-63.367;-301.749;-63.144;-58.673;25.593;20.862;26.263
3026727.494;-74.208;-72.606;-310.540;-73.351;-65.155;19.707;13.039;24.289
3026727.502;-79.013;-78.231;-313.632;-78.939;-66.347;12.927;5.476;20.340
3026727.510;-74.245;-77.002;-307.299;-79.833;-59.940;12.740;7.860;20.340
3026727.518;-70.259;-77.337;-305.213;-73.947;-61.058;17.062;16.652;22.501
3026727.526;-68.769;-71.675;-305.474;-71.302;-64.895;22.389;25.667;25.667
3026727.534;-52.266;-50.925;-287.555;-55.283;-45.486;37.365;40.978;37.402
3026727.542;-45.374;-43.213;-282.042;-44.778;-36.880;40.308;44.927;37.067
3026727.550;-44.368;-44.219;-283.048;-42.357;-33.826;33.379;38.706;28.685
3026727.558;-47.982;-48.093;-285.693;-47.907;-35.837;21.942;26.748;18.738
3026727.566;-51.633;-54.948;-287.667;-50.813;-40.717;12.033;14.715;11.772
3026727.574;-51.036;-52.005;-286.624;-47.460;-42.878;14.305;15.199;15.460
3026727.582;-55.395;-56.215;-291.616;-47.199;-48.019;14.044;14.044;18.887
3026727.590;-67.577;-72.569;-304.058;-65.118;-61.579;9.835;9.239;18.589
3026727.600;-85.160;-86.911;-319.928;-80.988;-79.796;-0.410;0.037;9.760
3026727.608;-81.323;-81.733;-316.277;-79.162;-71.786;-0.410;3.316;9.201
3026727.616;-65.975;-68.657;-300.147;-65.230;-54.017;13.411;20.824;18.328
3026727.624;-57.966;-55.395;-291.690;-60.312;-48.019;16.503;24.736;16.056
3026727.632;-54.613;-51.484;-289.381;-50.589;-46.566;14.976;22.873;11.064
3026727.640;-45.002;-44.629;-278.875;-40.233;-40.382;23.916;31.702;17.136
3026727.648;-34.459;-35.204;-267.290;-33.192;-31.143;30.510;37.327;25.555
3026727.656;-40.717;-42.543;-271.723;-35.018;-28.759;25.481;29.951;23.022
3026727.664;-52.191;-51.260;-282.861;-50.291;-38.296;12.591;12.927;14.789
3026727.672;-67.875;-70.110;-298.619;-66.496;-52.303;4.694;2.868;9.947
3026727.680;-85.756;-92.983;-315.011;-86.538;-69.886;-5.700;-5.700;1.118
3026727.688;-82.776;-84.639;-313.409;-85.421;-74.878;-4.247;-2.384;2.384
3026727.696;-73.873;-78.008;-304.207;-74.729;-68.434;4.843;7.674;11.921
3026727.704;-67.465;-66.422;-297.502;-67.651;-55.693;12.293;15.758;18.664
3026727.712;-67.800;-70.818;-297.539;-58.487;-55.470;10.096;15.348;14.640
3026727.720;-67.540;-72.829;-296.459;-60.834;-53.234;3.986;10.952;6.258
3026727.728;-59.418;-60.983;-285.804;-59.567;-42.804;6.147;12.740;5.253
3026727.736;-54.166;-55.917;-279.956;-53.048;-40.717;11.437;15.423;10.580
3026727.744;-59.418;-65.453;-288.002;-56.215;-47.162;8.941;8.121;11.921
3026727.752;-64.895;-66.683;-294.074;-67.167;-48.354;7.860;5.178;12.890
3026727.760;-63.889;-63.591;-290.833;-56.699;-57.518;6.966;4.657;13.262
3026727.768;-61.803;-65.044;-288.859;-47.199;-54.613;7.749;7.078;15.125
3026727.776;-72.084;-77.561;-296.943;-67.726;-54.277;3.353;5.588;10.841
3026727.784;-93.132;-96.038;-317.283;-85.868;-81.025;-14.082;-10.952;-5.029
3026727.794;-84.192;-84.899;-311.062;-74.096;-81.025;-7.562;-5.402;2.347
3026727.802;-74.022;-75.400;-300.594;-70.296;-71.935;1.900;4.098;9.127
3026727.810;-64.522;-67.912;-291.355;-56.215;-49.360;10.766;14.938;13.784
3026727.818;-60.648;-67.800;-284.240;-54.948;-44.554;12.442;18.403;11.995
3026727.826;-59.754;-69.253;-283.346;-54.725;-50.627;10.133;15.125;8.158
3026727.834;-50.217;-55.619;-273.846;-46.678;-40.308;12.442;14.491;11.735
3026727.842;-45.933;-50.589;-269.115;-47.535;-35.726;10.245;7.600;14.082
3026727.850;-53.830;-57.258;-277.460;-52.415;-43.847;4.247;-1.080;12.629
3026727.858;-62.548;-65.677;-285.581;-59.567;-51.893;4.359;1.118;13.746
3026727.866;-57.667;-63.181;-280.775;-59.642;-48.764;8.494;9.909;16.503
3026727.874;-54.389;-57.295;-280.067;-42.692;-58.301;6.221;12.368;13.225
3026727.882;-57.630;-57.109;-282.526;-36.992;-61.989;3.874;10.580;8.643
3026727.890;-53.644;-57.966;-275.187;-44.331;-50.850;6.072;11.697;7.451
3026727.898;-46.045;-52.638;-269.487;-42.357;-41.164;6.557;9.574;7.004
3026727.906;-48.541;-55.209;-272.952;-48.578;-45.449;6.594;8.978;6.370
3026727.914;-42.766;-49.397;-261.031;-41.053;-35.278;16.317;19.111;15.236
3026727.922;-42.617;-48.801;-261.627;-35.539;-34.533;20.824;22.538;21.532
3026727.930;-49.882;-54.277;-272.058;-39.972;-41.537;16.801;16.876;20.713
3026727.938;-51.074;-58.971;-272.505;-46.864;-47.386;11.660;10.878;17.583
3026727.946;-61.020;-64.000;-281.818;-55.991;-60.759;-2.980;-3.278;4.955
3026727.954;-58.673;-57.817;-279.099;-49.546;-56.960;-0.671;1.155;8.196
3026727.962;-65.565;-69.216;-284.091;-61.132;-56.215;-5.402;-1.863;2.086
3026727.970;-65.230;-69.700;-284.128;-62.287;-60.461;-7.786;-3.539;-1.378
3026727.978;-63.591;-70.445;-281.669;-59.381;-61.989;-7.339;-2.049;-2.794
3026728.004;-56.475;-60.312;-273.213;-54.352;-51.931;-5.960;0.708;-3.986
3026728.012;-50.887;-54.613;-268.742;-46.678;-57.928;-3.353;3.092;-2.123
3026728.020;-53.979;-59.791;-270.382;-43.586;-57.518;-7.153;-2.421;-4.768
3026728.028;-53.793;-60.275;-267.066;-42.245;-41.388;-5.476;-3.390;-2.272
3026728.036;-58.971;-67.241;-272.058;-51.968;-42.170;-2.421;-2.235;1.565
3026728.044;-58.413;-67.055;-273.362;-53.830;-45.747;-1.378;-2.831;4.657
3026728.052;-53.383;-58.971;-270.084;-50.887;-49.621;-0.894;-2.868;7.302
3026728.060;-58.338;-62.697;-270.307;-56.140;-53.197;-5.513;-6.072;2.310
3026728.068;-61.207;-63.069;-270.493;-54.874;-52.862;-7.078;-5.998;-1.229
3026728.076;-56.550;-61.281;-265.725;-51.484;-49.956;-3.166;-1.192;0.745
3026728.084;-57.481;-66.869;-265.874;-58.152;-50.701;-6.221;-4.359;-2.906
3026728.092;-53.272;-60.275;-262.894;-49.733;-51.148;-6.370;-6.035;-2.831
3026728.100;-55.209;-60.797;-263.974;-45.858;-53.644;-9.798;-11.809;-3.614
3026728.108;-57.779;-62.771;-264.868;-51.595;-50.999;-12.778;-14.566;-3.986
3026728.116;-54.613;-62.361;-262.894;-50.925;-54.985;-8.382;-9.052;-0.112
3026728.124;-58.115;-69.328;-267.997;-52.229;-53.048;-3.725;-3.166;1.825
3026728.132;-57.667;-59.493;-267.737;-49.919;-53.458;3.166;5.253;6.109
3026728.140;-60.312;-61.132;-267.960;-53.309;-59.009;1.453;4.917;3.874
3026728.148;-57.854;-62.361;-263.266;-53.570;-57.481;3.651;6.817;5.215
3026728.156;-52.154;-58.003;-257.269;-52.080;-50.291;6.109;7.935;6.184
3026728.164;-47.535;-52.564;-252.798;-41.649;-46.715;6.072;6.892;7.190
3026728.172;-50.627;-56.811;-258.088;-41.649;-51.633;-2.459;-0.298;-0.633
3026728.180;-52.415;-57.817;-260.994;-48.950;-55.172;-8.866;-4.657;-7.153
3026728.188;-52.266;-58.077;-259.951;-43.735;-52.229;-4.843;-0.559;-2.719
3026728.170;-48.317;-61.318;-248.812;-44.294;-42.319;4.694;8.382;6.333
3026728.178;-50.962;-59.567;-250.377;-49.025;-41.649;3.614;7.115;6.333
3026728.186;-53.793;-58.152;-255.182;-53.160;-43.958;2.645;6.296;6.929
3026728.194;-54.613;-57.444;-254.512;-49.397;-52.676;4.284;6.370;9.164
3026728.202;-54.687;-61.691;-255.518;-47.572;-50.068;3.874;6.482;10.468
3026728.210;-54.762;-61.207;-254.065;-51.558;-46.454;2.123;7.376;7.898
3026728.218;-52.676;-58.562;-253.133;-47.423;-45.970;-2.086;4.917;3.204
3026728.226;-43.772;-48.839;-244.603;-33.341;-40.643;1.267;7.972;6.407
3026728.234;-39.488;-44.852;-236.817;-32.634;-35.055;1.788;7.302;7.562
3026728.242;-48.019;-54.054;-245.459;-42.394;-45.635;-7.711;-3.092;-1.490
3026728.250;-48.056;-59.009;-245.944;-44.443;-50.254;-8.307;-2.831;-3.576
3026728.258;-49.882;-61.952;-248.551;-52.974;-57.332;-10.021;-4.396;-4.396
3026728.266;-54.874;-64.932;-252.426;-57.481;-59.158;-11.921;-6.892;-2.794
3026728.274;-55.172;-65.304;-251.681;-50.776;-53.942;-9.947;-4.694;0.782
3026728.282;-52.154;-63.702;-249.855;-46.641;-47.721;-9.798;-4.061;1.676
3026728.290;-53.644;-59.642;-252.165;-47.311;-48.876;-9.984;-3.614;2.496
3026728.298;-57.966;-59.530;-254.884;-58.413;-53.979;-12.480;-6.147;0.298
3026728.306;-51.670;-55.730;-248.328;-51.223;-50.142;-12.480;-7.004;-0.447
3026728.314;-44.703;-53.830;-237.338;-40.643;-40.904;-12.033;-5.066;-1.267
3026728.322;-46.194;-55.768;-238.568;-42.655;-40.643;-9.574;-0.820;-0.894
3026728.330;-50.105;-54.799;-244.305;-42.059;-48.429;-9.611;-0.112;-4.284
3026728.338;-57.667;-60.312;-250.936;-50.068;-56.922;-13.411;-4.210;-8.456
3026728.346;-62.250;-66.571;-254.363;-57.183;-58.934;-13.486;-5.960;-9.723
3026728.354;-61.467;-72.271;-251.867;-61.058;-58.226;-8.158;-1.453;-4.023
3026728.379;-59.083;-72.531;-247.434;-66.198;-56.960;-10.431;-4.433;-3.129
3026728.387;-60.759;-71.116;-249.259;-60.014;-60.797;-16.391;-11.399;-6.370
3026728.395;-54.128;-62.212;-243.671;-45.523;-52.936;-6.519;-1.006;3.688
3026728.403;-53.346;-62.920;-244.491;-49.211;-48.354;-3.576;3.166;5.700
3026728.411;-57.332;-67.763;-245.757;-50.515;-52.303;-9.947;-3.725;-2.868
3026728.419;-55.209;-67.912;-243.597;-51.484;-59.716;-13.225;-7.376;-8.605
3026728.427;-51.819;-60.275;-240.877;-58.450;-53.234;-7.264;-0.931;-4.582
3026728.435;-45.374;-49.844;-232.905;-39.637;-37.067;-1.714;4.955;1.006
3026728.443;-42.059;-50.329;-230.148;-37.737;-34.906;3.166;10.692;6.184
3026728.451;-50.180;-60.461;-236.481;-49.584;-46.976;-4.694;2.794;-0.298
3026728.459;-55.619;-64.708;-242.405;-44.368;-52.154;-12.629;-3.353;-6.370
3026728.467;-52.825;-61.095;-240.430;-41.276;-48.466;-12.554;-3.614;-5.662
3026728.475;-57.146;-63.032;-245.832;-45.300;-58.562;-10.356;-2.421;-0.633
3026728.483;-58.152;-66.720;-247.210;-49.584;-62.026;-5.588;1.490;4.135
3026728.491;-62.287;-76.629;-249.445;-58.450;-55.954;-8.494;-2.310;1.043
3026728.499;-58.338;-72.420;-244.081;-54.501;-57.109;-8.307;-3.166;1.453
3026728.507;-51.409;-55.097;-237.785;-43.698;-48.131;-5.178;-0.037;4.321
3026728.515;-60.946;-65.379;-246.763;-49.099;-57.817;-15.870;-10.058;-7.078
3026728.523;-61.542;-67.689;-245.422;-55.432;-58.413;-10.207;-4.284;-2.943
3026728.531;-60.983;-72.010;-244.454;-55.917;-57.630;-7.860;-0.931;0.708
3026728.539;-51.223;-57.928;-235.625;-42.096;-54.874;-2.980;4.992;6.631
3026728.547;-53.234;-57.407;-237.599;-46.939;-52.936;-6.445;1.453;2.049
3026728.555;-59.418;-69.067;-243.746;-51.446;-61.207;-15.125;-5.625;-8.941
3026728.563;-56.699;-69.626;-240.467;-51.521;-59.046;-15.870;-5.476;-10.394
3026728.562;-59.940;-62.883;-243.224;-54.091;-61.207;-17.695;-10.058;-9.499
3026728.570;-56.513;-60.126;-237.450;-45.225;-54.948;-16.876;-11.772;-4.694
3026728.578;-54.389;-60.461;-231.266;-45.300;-52.117;-9.947;-8.382;3.166
3026728.586;-55.023;-60.387;-232.123;-48.019;-51.260;-5.662;-4.768;6.370
3026728.594;-59.530;-65.304;-236.630;-58.413;-60.536;-8.233;-6.631;2.421
3026728.602;-55.507;-62.697;-232.086;-42.319;-55.246;-9.984;-7.600;-1.304
3026728.610;-57.705;-64.857;-232.570;-44.219;-52.787;-9.872;-5.364;-2.533
3026728.618;-56.364;-63.032;-230.558;-44.405;-54.725;-5.849;-1.751;1.267
3026728.626;-53.421;-59.791;-225.231;-48.019;-49.472;-6.557;-4.284;1.416
3026728.634;-52.303;-59.679;-225.939;-46.045;-49.323;-13.039;-10.878;-4.396
3026728.642;-42.766;-49.025;-218.153;-36.769;-42.766;-9.313;-3.912;-2.980
3026728.650;-40.121;-47.572;-215.024;-35.353;-40.680;-11.176;-3.390;-8.158
3026728.658;-40.159;-43.809;-213.385;-32.485;-43.139;-7.637;-1.788;-4.694
3026728.666;-37.998;-44.890;-211.522;-28.685;-41.723;0.522;5.700;3.800
3026728.674;-47.535;-52.191;-222.363;-44.070;-52.229;-2.421;2.831;1.378
3026728.682;-49.323;-51.036;-224.300;-43.400;-53.160;1.751;6.445;6.333
3026728.690;-45.076;-48.093;-220.537;-30.026;-52.229;0.075;3.204;6.296
3026728.698;-43.996;-49.174;-218.302;-26.114;-49.472;-3.912;-2.235;4.210
3026728.706;-44.703;-54.799;-216.700;-35.800;-53.085;-7.823;-7.637;1.304
3026728.714;-41.835;-49.360;-212.789;-37.886;-49.248;-9.984;-10.580;-1.714
3026728.722;-36.098;-37.514;-202.879;-29.914;-33.081;-5.178;-6.445;1.714
3026728.730;-35.167;-37.141;-201.948;-27.232;-31.516;-1.118;-1.006;3.949
3026728.738;-40.680;-47.423;-207.201;-34.161;-39.935;-3.353;-0.782;0.149
3026728.746;-46.641;-54.352;-213.869;-42.059;-42.729;-6.109;-2.645;-4.321
3026728.754;-39.637;-45.560;-206.791;-27.008;-37.551;4.992;8.456;4.396
3026728.762;-39.227;-48.280;-204.779;-34.720;-38.520;10.058;14.342;8.643
3026728.770;-35.018;-41.723;-203.289;-25.220;-38.147;16.429;20.154;15.646
3026728.778;-35.614;-37.737;-202.022;-15.609;-39.972;15.460;18.738;15.721
3026728.786;-42.208;-41.947;-207.387;-23.767;-49.695;12.629;14.007;14.715
3026728.794;-48.205;-48.317;-213.385;-34.645;-56.364;6.333;6.668;10.282
3026728.802;-47.423;-53.197;-211.336;-38.557;-51.931;1.900;2.384;5.402
3026728.810;-39.041;-50.962;-202.358;-31.926;-40.159;5.402;6.557;7.302
3026728.818;-38.110;-48.839;-199.452;-35.502;-39.302;6.855;7.302;7.451
3026728.826;-24.810;-26.077;-184.551;-15.162;-22.203;12.815;13.039;13.374
3026728.834;-13.113;-14.119;-173.785;1.378;-13.001;17.136;19.260;17.285
3026728.842;-31.441;-36.769;-190.549;-24.997;-33.043;1.490;4.508;1.453
3026728.850;-37.886;-44.815;-199.415;-33.416;-42.431;0.745;4.657;2.123
3026728.858;-33.788;-44.778;-196.360;-29.914;-43.474;6.407;10.245;8.866
3026728.866;-32.894;-37.365;-188.686;-26.263;-33.751;6.184;9.350;8.568
3026728.874;-34.496;-39.078;-189.617;-25.071;-34.533;3.092;5.104;6.221
3026728.882;-32.261;-37.476;-186.451;-25.257;-33.267;3.465;2.608;6.594
3026728.890;-22.277;-31.926;-177.287;-25.034;-23.954;10.692;8.680;13.337
3026728.898;-22.464;-33.490;-177.138;-23.171;-24.699;10.282;9.425;11.623
3026728.906;-22.836;-31.106;-176.243;-19.446;-23.805;6.258;8.680;7.786
3026728.914;-16.242;-19.632;-169.650;-12.703;-17.844;8.456;13.448;10.021
3026728.922;-20.638;-24.512;-173.822;-16.354;-21.942;8.345;12.107;10.021
3026728.930;-23.171;-29.504;-175.312;-21.271;-23.134;6.519;9.276;9.201
3026728.938;-30.883;-40.196;-180.900;-32.634;-30.771;-2.459;1.676;1.602
3026728.950;-25.108;-35.986;-174.642;-25.965;-26.226;-2.533;3.725;2.049
3026728.958;-21.197;-31.479;-172.071;-24.177;-26.450;-2.012;5.588;2.570
3026728.966;-17.919;-27.679;-166.297;-23.954;-20.973;-0.708;6.780;2.570
3026728.974;-11.027;-22.203;-158.623;-18.105;-14.491;1.043;9.611;3.539
3026728.982;1.714;-9.239;-145.510;2.198;-0.112;7.898;17.658;10.841
3026728.990;6.445;-1.863;-142.343;10.617;-2.570;5.811;14.342;12.815
3026728.998;-7.898;-17.509;-157.170;-7.749;-10.356;-7.302;1.602;1.863
3026729.006;-18.366;-26.077;-167.675;-19.558;-18.142;-12.070;-2.012;-4.768
3026729.014;-18.813;-24.736;-167.452;-13.262;-26.003;-10.878;0.671;-4.321
3026729.022;-23.097;-31.255;-169.389;-19.632;-26.114;-9.313;2.012;-4.023
3026729.030;-21.905;-35.018;-169.873;-16.615;-22.911;-5.960;7.004;-1.676
3026729.038;-16.131;-31.851;-164.248;-14.380;-17.956;-2.794;12.107;0.857
3026729.046;-11.250;-18.440;-156.909;-13.299;-13.299;-2.943;14.268;1.192
3026729.054;-6.892;-15.274;-151.135;-4.657;-14.827;-3.316;13.895;0.037
3026729.062;-4.917;-13.076;-148.974;-4.619;-6.519;-3.800;11.846;-1.453
3026729.070;-6.407;-14.938;-154.153;-3.427;-7.898;-7.190;6.333;-1.192
3026729.078;-1.974;-11.660;-148.714;3.129;-11.586;-0.149;10.468;9.872
3026729.086;-10.803;-16.354;-154.488;-10.319;-14.007;-7.451;0.708;5.104
3026729.094;-19.632;-23.730;-163.801;-17.025;-24.885;-6.482;0.261;6.184
3026729.102;-16.019;-25.854;-160.672;-14.976;-23.060;2.533;9.611;12.629
3026729.110;-9.090;-14.827;-153.817;-12.815;-18.328;4.768;11.995;10.990
3026729.118;-5.588;-9.537;-148.900;-4.880;-11.027;3.166;12.331;6.594
3026729.126;-8.903;-12.852;-150.055;-1.937;-8.456;4.582;16.429;6.296
3026729.134;-4.657;-11.176;-142.865;-5.774;-6.370;4.955;18.477;8.866
3026729.130;-0.633;-7.153;-138.879;-9.350;-6.519;0.633;15.348;8.270
3026729.138;-5.811;-11.176;-143.871;0.149;-14.454;-10.207;4.731;-0.820
3026729.146;-2.049;-7.078;-141.673;8.270;-13.188;-7.637;5.811;2.608
3026729.154;-6.966;-14.491;-145.212;-4.992;-16.391;-9.090;-0.522;1.788
3026729.162;-9.052;-22.799;-145.696;-11.399;-9.947;-11.399;-6.147;-0.075
3026729.170;-2.570;-13.784;-141.077;-6.445;-4.843;-5.402;-0.112;4.247
3026729.178;-4.806;-12.219;-142.902;-10.282;-9.499;-6.892;1.043;2.794
3026729.186;-2.123;-6.333;-138.506;2.645;-5.290;-2.831;7.078;7.004
3026729.194;-6.407;-9.127;-141.859;-1.676;-13.895;-3.763;5.178;4.657
3026729.202;-4.955;-12.033;-141.375;-1.937;-11.474;-0.335;8.382;7.078
3026729.210;-4.508;-11.511;-138.469;-6.109;-8.233;-3.465;6.072;4.210
3026729.218;-6.109;-10.729;-138.134;-8.084;-10.692;-8.233;2.347;-0.894
3026729.226;-4.284;-10.692;-136.681;-8.494;-9.350;-3.427;8.568;1.676
3026729.234;-11.697;-20.526;-143.908;-15.721;-14.380;-4.843;6.966;-0.857
3026729.242;-19.372;-29.169;-153.109;-16.280;-29.691;-9.015;2.086;-2.831
3026729.250;-15.460;-26.189;-149.272;-7.153;-27.381;-7.860;0.633;1.118
3026729.258;-12.331;-21.607;-143.908;-7.898;-19.595;-5.811;0.149;5.364
3026729.266;-10.803;-16.801;-140.890;-9.723;-16.131;-1.751;3.949;10.207
3026729.274;-12.964;-20.303;-140.816;-11.884;-15.870;-4.992;0.596;4.806
3026729.282;-8.829;-20.117;-134.371;-9.462;-9.686;-1.788;4.470;6.184
3026729.290;-7.078;-13.299;-132.360;-2.682;-6.631;0.037;7.078;6.668
3026729.298;-13.448;-22.985;-139.549;-6.631;-10.654;-7.562;0.782;-0.969
3026729.306;-20.042;-30.212;-145.137;-21.867;-22.948;-11.250;-2.421;-5.066
3026729.314;-17.956;-24.140;-142.194;-23.469;-20.228;-5.104;1.751;0.894
3026729.339;-16.391;-24.438;-140.853;-14.864;-17.025;-0.708;4.992;5.513
3026729.347;-19.483;-26.636;-143.722;-12.890;-26.003;-0.224;4.470;6.296
3026729.355;-14.566;-19.707;-139.140;-7.600;-14.678;5.253;8.494;11.623
3026729.363;-14.603;-22.687;-137.612;-10.096;-14.082;5.923;8.531;12.815
3026729.371;-22.687;-33.081;-143.871;-23.432;-25.108;1.118;1.267;9.723
3026729.379;-20.750;-28.200;-143.051;-22.054;-23.395;3.725;3.390;12.219
3026729.387;-12.554;-17.509;-134.520;-10.431;-16.578;8.866;9.984;16.429
3026729.395;-15.572;-22.240;-136.085;-13.970;-17.583;3.166;4.880;9.947
3026729.403;-15.274;-23.507;-136.644;-14.715;-14.901;0.969;3.614;6.370
3026729.411;-18.030;-28.387;-134.930;-17.583;-19.222;2.645;5.513;7.115
3026729.419;-27.418;-39.376;-142.381;-31.143;-33.714;-2.235;0.522;1.416
3026729.427;-27.791;-37.216;-144.206;-28.722;-28.573;-2.198;1.453;1.863
3026729.435;-18.962;-27.977;-137.128;-15.274;-20.266;7.041;11.772;11.101
3026729.443;-16.242;-24.587;-135.303;-16.466;-22.575;10.952;16.727;13.225
3026729.451;-8.978;-16.317;-126.846;-2.347;-13.895;16.131;20.489;16.578
3026729.459;-12.517;-17.807;-130.534;-2.980;-16.019;12.182;13.635;13.560
3026729.467;-15.870;-18.254;-133.552;-10.990;-28.089;5.662;3.278;9.127
3026729.475;-16.727;-25.630;-132.881;-19.334;-22.240;2.198;-2.347;6.631
3026729.483;-19.744;-28.647;-133.812;-22.426;-17.472;-0.559;-5.327;7.413
3026729.491;-20.079;-28.051;-134.259;-15.944;-20.340;-3.502;-8.158;6.743
3026729.499;-14.268;-21.905;-126.734;-12.554;-20.079;-3.129;-6.557;7.637
3026729.507;-14.082;-22.426;-125.058;-13.337;-19.781;-2.235;-6.184;7.562
3026729.515;-8.494;-22.091;-119.284;-9.313;-15.721;3.874;-0.373;12.554
3026729.523;-11.846;-26.822;-123.531;-17.546;-21.681;8.233;5.066;14.231
3026729.519;-22.762;-30.547;-133.440;-22.687;-27.493;3.725;2.533;7.004
3026729.527;-23.879;-26.561;-135.452;-16.429;-31.292;1.900;3.576;3.390
3026729.535;-25.369;-27.567;-137.873;-19.036;-32.149;0.410;3.465;0.186
3026729.543;-27.008;-31.739;-141.002;-16.801;-35.837;1.602;4.135;2.235
3026729.551;-26.487;-31.069;-141.039;-15.721;-31.553;2.570;3.092;5.104
3026729.559;-24.326;-29.169;-134.222;-16.205;-32.336;0.782;-1.267;5.998
3026729.567;-24.065;-28.573;-133.626;-15.497;-29.877;-3.278;-7.749;4.098
3026729.575;-29.504;-31.255;-138.134;-16.019;-36.284;-6.519;-10.915;-1.602
3026729.583;-23.879;-25.928;-132.956;-15.274;-33.453;0.112;-2.645;3.502
3026729.591;-20.899;-20.601;-131.540;-12.927;-35.875;5.476;3.986;7.600
3026729.599;-19.372;-21.085;-129.007;-12.442;-31.218;8.233;8.531;6.296
3026729.607;-9.350;-14.566;-118.576;-6.407;-20.489;8.494;11.250;3.465
3026729.615;-6.519;-10.543;-113.808;-4.098;-18.738;9.611;13.262;4.098
3026729.623;-8.754;-16.801;-115.074;-4.396;-21.830;7.302;9.201;3.651
3026729.631;-14.491;-21.569;-122.190;-6.594;-26.934;4.955;6.817;3.465
3026729.639;-17.695;-17.583;-124.238;-7.451;-31.404;2.868;5.737;1.341
3026729.647;-15.832;-13.113;-121.854;-3.874;-33.006;3.725;6.184;2.198
3026729.655;-8.494;-11.809;-112.653;-0.298;-18.813;12.480;13.299;10.170
3026729.663;-10.803;-14.007;-114.441;-6.780;-17.658;14.976;14.789;13.113
3026729.671;-17.472;-20.638;-120.327;-11.139;-27.940;5.774;5.700;3.725
3026729.679;-11.660;-14.417;-113.957;-5.886;-23.134;4.731;4.917;2.868
3026729.687;-12.740;-16.503;-116.043;-10.878;-22.165;-1.118;0.410;-0.149
3026729.695;-18.775;-25.593;-120.290;-17.360;-28.424;-7.823;-4.321;-4.321
3026729.703;-16.615;-24.922;-116.490;-17.919;-26.822;-10.245;-6.035;-5.811
3026729.714;-15.199;-14.864;-115.521;-9.798;-25.593;-7.860;-2.123;-5.029
3026729.722;-8.680;-8.978;-109.375;2.384;-21.756;-2.868;4.433;-1.676
3026729.730;-12.666;-17.434;-111.349;-2.906;-23.916;-6.743;3.092;-5.700
3026729.738;-15.050;-21.197;-114.292;-9.537;-27.828;-12.256;-1.900;-11.399
3026729.746;-8.978;-13.113;-107.922;-5.774;-24.326;-10.207;0.447;-6.855
3026729.754;-13.858;-17.993;-111.870;-9.723;-23.767;-12.182;-3.837;-4.880
3026729.762;-21.271;-24.550;-117.980;-19.334;-31.702;-11.697;-7.786;-4.582
3026729.770;-24.624;-28.647;-122.674;-19.558;-35.353;-6.035;-3.688;-0.037
3026729.778;-25.816;-29.020;-124.201;-20.675;-39.227;-3.241;-2.384;1.267
3026729.786;-27.046;-32.261;-123.680;-24.103;-33.863;-4.321;-3.055;-0.857
3026729.794;-20.489;-28.200;-116.862;-14.007;-24.438;0.224;2.906;3.465
3026729.802;-18.440;-22.762;-113.733;-16.242;-21.867;-3.986;1.714;-1.378
3026729.810;-14.342;-18.626;-110.194;-14.529;-21.830;-5.960;2.459;-3.465
3026729.818;-17.285;-23.507;-111.125;-18.366;-25.667;-11.437;-0.522;-9.574
3026729.826;-14.789;-20.787;-107.884;-13.113;-23.916;-16.913;-5.178;-16.019
3026729.834;-2.086;-8.047;-95.032;5.960;-12.778;-5.774;5.662;-7.041
3026729.842;-1.751;-5.849;-93.840;5.476;-12.890;-1.714;8.121;-3.763
3026729.850;-11.101;-16.242;-102.110;-5.141;-20.713;-5.104;1.527;-4.880
3026729.858;-16.205;-21.681;-106.916;-9.723;-21.830;-5.253;0.112;-2.868
3026729.866;-22.389;-29.430;-113.472;-18.328;-34.198;-3.874;-0.671;1.416
3026729.874;-24.997;-31.553;-114.292;-22.911;-34.422;-0.149;1.267;5.737
3026729.882;-27.753;-32.261;-116.937;-20.564;-36.657;0.559;1.900;4.768
3026729.890;-24.363;-30.287;-113.957;-17.695;-37.402;2.272;5.327;4.619
3026729.898;-17.881;-25.369;-105.575;-14.193;-24.252;-2.608;3.390;-1.565
3026729.909;-4.172;-9.611;-92.499;0.261;-11.772;-3.986;3.241;-3.353
3026729.917;4.247;2.868;-85.235;9.649;-7.935;2.235;9.798;1.565
3026729.925;1.341;-2.719;-85.533;4.210;-3.129;0.000;5.998;-1.155
3026729.933;0.820;-5.700;-85.458;0.149;-6.147;-1.006;3.949;-0.410
3026729.941;-12.293;-18.887;-99.167;-8.196;-17.919;-7.860;-3.092;-6.743
3026729.949;-18.217;-26.375;-105.537;-8.158;-25.630;-9.947;-6.929;-9.015
3026729.957;-13.523;-20.750;-102.259;-1.974;-18.254;-0.112;0.969;2.012
3026729.965;-14.454;-14.268;-102.483;-2.570;-23.581;4.768;3.800;8.419
3026729.973;-7.935;-11.064;-94.920;0.186;-19.446;10.990;8.196;15.683
3026729.981;-15.348;-23.246;-99.242;-10.468;-25.593;-0.522;-3.949;4.768
3026729.989;-24.252;-32.075;-107.028;-17.881;-31.255;-8.047;-10.021;-3.539
3026729.997;-7.004;-11.697;-87.917;-4.694;-15.311;4.098;5.066;5.737
3026730.005;6.370;2.161;-75.027;7.376;-3.353;6.855;11.064;6.147
3026730.013;4.768;-1.006;-76.070;9.462;2.012;-5.402;2.384;-6.072
3026730.021;4.061;-4.992;-75.512;8.531;4.433;-8.605;0.857;-6.855
3026730.029;-7.413;-13.523;-87.582;-8.345;-12.256;-15.534;-8.568;-11.586
3026730.037;-14.491;-17.546;-95.367;-13.672;-18.962;-14.380;-10.729;-9.909
3026730.045;-11.064;-21.122;-90.264;-6.184;-13.672;-5.998;-5.551;-1.490
3026730.053;-14.044;-26.040;-92.573;-10.729;-15.236;-5.253;-8.494;1.043
3026730.061;-17.211;-22.762;-95.069;-11.623;-21.383;-3.837;-8.829;2.906
3026730.069;-10.841;-14.938;-89.966;-1.267;-13.262;-5.700;-9.499;1.229
3026730.077;-1.900;-4.470;-79.535;8.270;-3.427;-1.825;-2.533;3.502
3026730.085;-7.637;-12.890;-84.639;2.980;-11.511;-6.184;-5.402;-2.831
3026730.093;-3.874;-9.909;-83.148;5.923;-17.807;-6.966;-5.364;-4.731
3026730.089;-7.004;-10.729;-84.117;-3.986;-13.933;-10.543;-6.706;-8.456
3026730.097;-15.758;-18.626;-91.121;-9.052;-13.597;-18.589;-15.348;-16.391
3026730.105;-14.603;-19.744;-90.301;-5.066;-18.217;-13.001;-10.841;-10.282
3026730.113;-22.016;-27.828;-95.591;-16.056;-23.507;-10.952;-9.313;-9.276
3026730.121;-26.524;-31.330;-100.024;-22.836;-29.206;-11.362;-10.543;-9.499
3026730.129;-22.873;-23.507;-98.273;-12.964;-31.590;-10.729;-11.288;-8.605
3026730.137;-16.019;-14.305;-90.562;2.645;-19.483;-6.966;-8.121;-2.980
3026730.145;-5.625;-5.178;-79.833;10.654;-10.431;-1.714;-2.272;3.576
3026730.153;-8.866;-11.548;-81.807;5.849;-16.317;-9.239;-8.605;-4.321
3026730.161;-11.325;-15.385;-84.229;0.298;-18.664;-16.727;-16.429;-12.890
3026730.169;-12.144;-15.125;-84.005;-4.433;-18.477;-16.242;-16.391;-15.162
3026730.177;-12.107;-16.652;-83.148;-5.290;-17.621;-13.150;-13.858;-14.119
3026730.185;-9.760;-14.044;-79.870;-3.651;-16.019;-10.133;-9.909;-10.952
3026730.193;-5.029;-6.147;-73.947;3.465;-14.007;-1.788;-2.533;-1.788
3026730.201;-7.600;-11.660;-77.710;0.261;-16.429;-8.978;-10.990;-7.190
3026730.209;-14.342;-18.254;-84.564;-5.960;-22.762;-13.225;-15.646;-12.666
3026730.217;-7.562;-7.376;-79.162;5.513;-19.185;-4.843;-4.806;-5.737
3026730.225;-1.751;-0.671;-72.084;10.878;-15.460;-1.341;0.559;-3.129
3026730.233;-7.488;-9.425;-74.394;1.788;-18.999;-9.649;-8.866;-10.543
3026730.241;-5.104;-9.909;-71.526;0.894;-14.491;-11.362;-13.411;-12.033
3026730.249;4.917;1.863;-61.654;8.494;-1.267;-6.407;-10.058;-7.264
3026730.257;5.849;4.992;-57.779;13.299;-4.061;-10.692;-15.497;-10.133
3026730.265;7.488;8.568;-54.874;16.429;0.186;-8.047;-14.156;-4.880
3026730.273;0.894;-1.155;-60.908;8.307;-3.092;-10.505;-16.652;-6.109
3026730.284;-8.941;-12.517;-72.047;-1.118;-18.030;-12.964;-16.391;-9.425
3026730.292;-5.439;-4.098;-68.843;6.445;-15.460;-7.711;-10.580;-7.637
3026730.300;-1.565;1.751;-64.299;11.213;-9.872;-3.465;-8.047;-4.619
3026730.308;-1.937;1.341;-65.081;12.070;-11.139;2.012;-2.421;-0.633
3026730.316;-1.416;1.341;-63.330;13.709;-10.654;6.445;2.310;-0.484
3026730.324;1.267;1.714;-59.344;16.503;-8.903;4.545;-0.782;-1.453
3026730.332;-4.917;-4.247;-64.187;8.680;-15.087;-7.935;-15.274;-9.052
3026730.340;-9.872;-6.519;-70.035;3.353;-22.203;-21.495;-30.324;-17.658
3026730.348;-4.396;-3.688;-62.957;8.158;-13.150;-21.532;-31.255;-15.758
3026730.356;-5.178;-7.786;-62.995;8.941;-11.809;-21.942;-30.957;-16.950
3026730.364;-4.880;-5.402;-62.361;8.047;-11.437;-22.091;-28.536;-18.254
3026730.372;-6.407;-4.135;-62.175;6.631;-10.952;-20.862;-25.891;-20.564
3026730.380;-6.519;-3.949;-62.399;8.792;-14.491;-19.781;-24.885;-22.724
3026730.388;1.863;3.800;-53.905;14.715;-2.682;-14.268;-18.924;-19.297
3026730.396;2.943;3.763;-52.191;18.254;-5.513;-13.523;-17.360;-17.919
3026730.404;-6.184;-6.296;-59.716;8.270;-12.740;-21.122;-27.008;-21.979
3026730.412;-14.082;-14.603;-63.889;-1.378;-11.511;-17.770;-27.046;-17.136
3026730.420;-8.866;-8.568;-57.667;3.390;-6.035;-6.221;-20.489;-3.688
3026730.428;-11.101;-14.156;-61.318;-5.774;-16.391;-5.364;-20.936;-2.645
3026730.436;-16.205;-18.179;-66.794;-3.837;-20.079;-8.009;-22.054;-8.121
3026730.444;-13.299;-16.876;-61.654;-1.565;-16.354;-3.166;-14.529;-6.296
3026730.452;-8.792;-9.984;-56.401;2.906;-12.480;-2.608;-10.170;-6.296
3026730.460;-6.557;-5.178;-55.358;10.505;-6.482;-8.866;-13.411;-12.033
3026730.468;0.522;-0.037;-46.082;15.944;-3.800;-10.356;-13.299;-13.895
3026730.479;5.327;5.923;-38.631;17.993;-3.539;-9.909;-14.156;-12.591
3026730.487;11.250;10.617;-34.533;19.222;6.966;-9.574;-15.087;-9.388
3026730.495;3.688;2.310;-41.239;15.609;3.166;-15.758;-19.521;-13.188
3026730.503;2.906;1.751;-41.984;13.039;-1.676;-18.142;-23.022;-13.150
3026730.511;4.023;2.682;-42.692;11.474;-4.582;-13.858;-22.314;-6.221
3026730.519;4.023;0.522;-43.027;11.958;-1.639;-5.625;-18.217;2.198
3026730.527;2.235;-1.937;-45.188;14.827;-4.955;-7.339;-19.781;-0.820
3026730.535;1.267;-2.757;-44.964;13.970;-5.029;-9.350;-18.813;-7.004
3026730.543;-0.671;-2.906;-46.194;8.307;-6.445;-10.058;-16.056;-11.474
3026730.551;0.671;-0.224;-44.331;10.282;-5.923;-4.098;-5.215;-8.345
3026730.559;3.204;1.639;-40.792;16.317;-1.229;-2.272;1.341;-9.015
3026730.567;8.978;6.184;-36.582;23.432;4.806;-3.874;2.608;-9.574
3026730.575;10.617;9.350;-34.533;22.389;1.155;-8.456;-2.608;-12.852
3026730.583;10.431;9.574;-32.634;21.905;-1.080;-17.621;-13.635;-19.744
3026730.591;13.150;11.884;-29.169;24.214;5.960;-16.615;-15.125;-13.970
3026730.599;5.402;1.639;-34.012;11.846;-0.186;-23.395;-26.636;-15.274
3026730.607;1.974;-3.800;-37.253;8.717;-1.937;-22.091;-27.120;-10.729
3026730.615;1.006;-2.086;-40.233;11.586;-1.527;-18.626;-23.283;-8.792
3026730.623;-0.335;-6.780;-42.021;13.113;-1.229;-13.560;-17.695;-8.419
3026730.631;4.321;0.894;-38.221;15.944;0.745;-5.178;-5.811;-5.662
3026730.639;8.643;9.388;-34.906;22.799;2.384;-3.986;-0.782;-8.643
3026730.647;15.162;17.360;-28.014;29.802;5.327;0.335;5.029;-8.196
3026730.655;18.105;20.564;-24.736;33.118;8.456;0.484;4.396;-9.537
3026730.663;11.772;10.282;-30.845;25.742;4.284;-8.903;-8.717;-13.970
3026730.674;11.213;8.233;-30.920;21.793;2.161;-11.958;-16.503;-10.617
3026730.682;7.451;4.359;-33.416;19.185;0.820;-18.664;-25.779;-10.952
3026730.690;1.863;-1.825;-38.669;10.766;-2.161;-21.122;-30.659;-10.692
3026730.698;3.576;0.633;-37.625;11.176;-1.751;-13.560;-23.283;-4.359
3026730.706;7.786;8.307;-32.969;20.713;0.745;-0.633;-9.164;6.072
3026730.714;0.671;1.937;-39.153;15.460;-6.966;-1.937;-8.419;0.708
3026730.722;3.055;0.745;-35.688;16.093;-2.198;3.241;1.267;0.484
3026730.730;11.362;9.649;-28.387;24.177;5.178;7.190;9.947;-0.373
3026730.738;12.107;12.517;-26.934;25.891;8.345;5.662;12.331;-5.215
3026730.746;13.709;15.721;-26.561;28.834;6.966;0.894;9.872;-9.015
3026730.754;13.784;15.423;-27.008;28.871;9.537;-3.986;4.731;-9.798
3026730.762;3.986;4.619;-36.210;19.222;2.012;-10.915;-6.258;-11.027
3026730.770;1.080;-0.149;-39.525;14.827;-1.118;-11.772;-12.964;-5.588
3026730.778;-3.874;-6.892;-43.027;8.233;-4.843;-8.717;-14.193;1.341
3026730.786;-0.894;-1.639;-40.084;10.058;-1.900;-0.820;-8.903;9.537
3026730.794;4.582;7.190;-34.012;16.280;3.353;3.055;-4.694;10.096
3026730.802;2.012;3.986;-35.949;17.248;-1.155;-0.857;-5.364;1.639
3026730.810;3.874;4.657;-35.651;19.521;1.788;1.676;2.831;-0.447
3026730.818;7.413;10.692;-31.367;24.661;6.072;3.278;8.829;-3.576
3026730.826;7.562;12.852;-30.845;25.593;-3.092;-1.043;6.407;-9.499
3026730.834;12.517;15.087;-26.189;26.003;3.502;6.892;14.268;-2.421
3026730.842;4.545;3.912;-31.218;16.466;4.433;2.347;8.196;-6.855
3026730.850;9.462;9.090;-27.269;24.177;7.860;1.416;2.347;-3.837
3026730.858;12.293;14.864;-24.252;28.722;10.431;5.141;-0.298;4.098
3026730.869;8.121;10.729;-28.498;22.650;5.104;4.843;-6.147;6.817
3026730.877;3.651;5.476;-33.416;14.268;-0.894;5.066;-9.164;7.972
3026730.885;-2.757;-2.459;-37.998;9.760;-1.714;6.333;-8.382;10.282
3026730.893;-10.692;-9.052;-45.337;4.321;-9.649;1.639;-10.505;5.662
3026730.901;-11.027;-10.058;-46.380;4.731;-12.778;0.447;-8.494;0.931
3026730.909;-11.437;-10.543;-47.386;3.986;-11.101;-1.267;-6.817;-3.912
3026730.917;-3.427;2.161;-40.568;11.548;-7.153;2.906;1.602;-3.427
3026730.925;7.302;9.574;-27.791;21.122;-3.502;7.488;9.201;-2.012
3026730.933;12.629;13.039;-21.122;28.647;1.863;9.984;13.262;-0.186
3026730.941;13.001;14.268;-19.446;30.771;11.139;5.588;7.637;-4.508
3026730.949;6.780;9.425;-25.891;24.140;6.855;-4.247;-6.407;-8.903
3026730.957;0.298;3.166;-32.969;17.844;2.310;-4.284;-11.958;-3.241
3026730.965;2.719;2.570;-29.095;15.311;2.496;2.310;-10.058;7.600
3026730.973;-3.278;-0.931;-35.353;8.382;-9.574;-4.470;-18.552;2.496
3026730.981;-14.789;-11.176;-46.119;0.075;-20.154;-8.009;-21.420;-2.645
3026730.989;-13.374;-11.884;-45.002;3.576;-21.011;-9.686;-19.483;-8.568
3026730.997;-8.307;-6.817;-39.712;9.649;-13.299;-7.637;-12.740;-12.144
3026731.005;-4.135;-1.788;-34.012;9.686;-6.631;1.341;-0.447;-6.631
3026731.013;-5.141;-3.949;-36.433;5.253;-9.090;4.023;3.949;-4.545
3026731.021;-5.253;-2.608;-34.533;7.637;-8.456;5.811;6.780;-5.737
3026731.029;4.284;3.763;-22.911;20.787;1.974;12.703;14.156;-1.006
3026731.037;0.633;1.602;-27.642;16.168;-3.800;5.029;2.794;-4.284
3026731.045;-13.299;-8.047;-40.717;6.184;-17.658;-6.929;-15.609;-9.239
3026731.053;-11.139;-5.774;-37.849;7.786;-14.603;-4.768;-17.770;-2.459
3026731.050;-9.090;-5.402;-35.167;7.190;-9.201;1.155;-12.740;2.794
3026731.058;-12.107;-12.219;-38.520;0.112;-13.150;-3.129;-14.529;-3.651
3026731.066;-13.821;-15.162;-39.600;0.931;-15.832;-3.390;-9.760;-9.723
3026731.074;-6.072;-5.960;-30.808;10.580;-3.614;1.080;-0.224;-11.995
3026731.082;2.831;5.327;-23.209;18.589;5.066;6.631;8.568;-7.488
3026731.090;-5.476;-2.496;-29.989;10.692;-2.459;-0.931;2.868;-15.646
3026731.098;-5.104;-1.788;-28.983;8.009;-1.453;-3.725;-1.639;-17.136
3026731.106;-7.376;-2.496;-31.590;11.139;-6.296;-5.215;-8.941;-13.411
3026731.114;-13.970;-11.101;-38.967;5.811;-14.417;-12.144;-21.420;-13.970
3026731.122;-16.056;-13.039;-39.600;-1.006;-17.285;-12.517;-27.530;-9.388
3026731.130;-17.211;-15.087;-37.141;-4.731;-17.621;-9.015;-28.051;-5.774
3026731.138;-18.440;-17.472;-40.010;-4.247;-21.122;-6.780;-24.550;-3.837
3026731.146;-11.995;-9.350;-33.751;2.235;-12.182;1.565;-10.729;0.596
3026731.154;-16.652;-14.342;-38.892;3.055;-15.609;-5.215;-12.517;-10.319
3026731.162;-15.087;-12.293;-39.376;4.806;-18.589;-7.898;-12.256;-13.597
3026731.170;-11.772;-8.419;-35.241;7.972;-13.150;-7.302;-10.394;-15.534
3026731.178;-7.860;-5.215;-29.840;8.680;-12.256;-7.786;-10.654;-17.472
3026731.186;-3.949;-0.708;-25.444;8.382;-8.345;-7.004;-10.133;-16.354
3026731.194;-11.772;-6.631;-32.336;2.831;-15.944;-6.929;-12.517;-14.454
3026731.202;-16.838;-11.176;-37.998;-0.261;-19.334;-2.645;-12.927;-7.227
3026731.210;-20.340;-14.789;-40.643;0.931;-18.589;-2.384;-15.944;-2.980
3026731.218;-24.103;-18.850;-44.927;-4.880;-25.444;-3.353;-17.956;-2.608
3026731.226;-24.624;-19.297;-43.921;-8.829;-25.816;-3.651;-17.099;-3.055
3026731.234;-23.730;-21.830;-40.829;-11.697;-24.065;-6.855;-17.397;-8.792
3026731.259;-12.815;-11.772;-30.212;-0.298;-16.242;-3.725;-12.107;-8.680
3026731.267;-1.453;-1.676;-18.328;10.654;-4.768;1.714;-3.539;-6.557
3026731.275;5.811;9.537;-11.399;18.664;1.155;1.378;-0.298;-9.201
3026731.283;10.282;13.970;-7.637;20.191;3.576;1.043;1.714;-10.431
3026731.291;6.743;8.680;-10.692;14.901;5.960;-1.267;-0.857;-13.448
3026731.299;9.984;11.250;-7.264;19.297;9.313;3.129;1.043;-7.637
3026731.307;6.333;7.376;-11.101;18.366;5.104;1.490;-2.906;-3.837
3026731.315;1.714;1.825;-16.540;14.305;-2.310;-3.576;-9.313;-4.731
3026731.323;0.931;0.745;-17.919;9.239;-6.221;-7.972;-13.374;-7.190
3026731.331;-2.794;0.484;-21.011;7.749;-7.339;-12.219;-17.323;-10.282
3026731.339;0.484;4.061;-17.732;9.499;-4.284;-5.066;-10.617;-3.763
3026731.347;7.302;9.537;-6.743;16.019;3.837;3.316;-1.416;3.390
3026731.355;-1.565;1.565;-15.162;9.537;-5.551;-5.215;-8.568;-4.768
3026731.363;0.745;4.657;-13.635;12.815;-4.880;-6.221;-6.706;-8.307
3026731.371;10.356;15.311;-4.508;20.713;6.333;-3.614;-0.522;-9.649
3026731.379;15.907;18.366;0.261;25.444;10.058;-3.912;1.453;-11.139
3026731.387;19.372;21.718;2.943;30.100;15.125;-6.258;-2.757;-11.884
3026731.395;21.309;26.301;3.651;29.951;21.532;-3.800;-3.427;-5.662
3026731.403;10.319;15.385;-7.078;19.036;9.015;-7.376;-10.207;-5.700
3026731.411;0.186;2.943;-15.050;9.760;-1.527;-9.388;-16.242;-4.731
3026731.419;-6.668;-4.917;-21.905;3.166;-7.823;-12.778;-21.011;-5.998
3026731.427;-1.676;0.373;-15.721;5.439;-1.602;-10.133;-16.429;-3.390
3026731.435;0.335;2.384;-14.044;10.431;-4.135;-11.846;-13.895;-9.425
3026731.443;17.583;18.068;1.825;26.487;12.703;-0.037;2.794;-5.402
3026731.440;23.507;23.097;6.482;30.249;21.793;4.694;9.276;-5.811
3026731.448;12.293;13.262;-2.049;21.420;8.047;-1.974;3.465;-13.039
3026731.456;9.909;12.517;-2.384;18.962;10.021;0.224;5.439;-9.611
3026731.464;11.660;13.113;-1.192;17.919;15.013;2.384;4.880;-2.384
3026731.472;8.568;10.729;-5.700;19.930;8.494;7.972;5.886;8.494
3026731.480;0.112;1.863;-12.219;8.866;2.235;8.643;4.396;10.952
3026731.488;6.482;9.350;-5.849;11.511;6.221;11.027;5.998;12.964
3026731.496;8.717;11.362;-3.725;16.205;6.445;4.508;-1.267;5.215
3026731.504;15.497;13.784;3.502;16.876;17.285;-0.522;-5.700;-0.596
3026731.512;21.309;23.209;7.786;29.802;22.091;-5.439;-6.519;-7.153
3026731.520;18.701;20.936;4.955;32.894;19.707;-7.078;-4.582;-10.766
3026731.528;21.718;23.320;7.302;30.026;16.987;-0.410;3.204;-5.476
3026731.536;25.108;26.934;13.523;30.808;19.968;3.316;6.855;-2.347
3026731.544;7.786;11.250;-2.906;14.827;14.901;-7.115;-4.694;-11.027
3026731.552;8.233;12.815;-3.316;16.093;11.548;-0.708;0.149;-3.204
3026731.560;8.866;12.554;-4.247;16.056;8.754;0.075;-0.037;-1.863
3026731.568;12.815;15.646;-1.676;21.756;8.903;2.347;-0.186;1.937
3026731.576;12.070;14.305;-2.347;21.756;7.674;7.451;3.129;6.966
3026731.584;11.474;14.305;-0.671;18.962;8.866;7.339;2.012;8.382
3026731.592;18.254;20.452;7.376;25.444;22.575;9.872;5.476;9.425
3026731.600;19.260;20.079;7.898;25.518;21.532;13.858;10.841;11.735
3026731.608;15.497;20.415;1.714;23.693;13.374;9.760;8.754;7.302
3026731.616;23.730;30.436;11.586;34.496;27.195;17.323;16.391;13.933
3026731.624;21.122;24.922;8.903;31.330;21.532;17.360;14.491;12.927
3026731.635;16.578;19.222;3.166;24.848;14.044;15.534;11.176;10.654
3026731.643;8.456;11.921;-3.874;14.789;10.394;9.313;1.080;6.035
3026731.651;-4.917;-4.172;-15.907;-2.235;-1.304;1.229;-9.611;0.410
3026731.659;-1.304;0.373;-11.288;4.731;0.931;8.531;-0.261;6.817
3026731.667;10.543;9.313;0.149;11.735;8.307;13.560;8.158;11.399
3026731.675;14.380;11.511;3.055;12.107;8.233;12.890;9.686;11.921
3026731.683;20.005;19.670;8.568;25.444;19.222;10.431;8.233;7.823
3026731.691;24.587;29.020;12.778;31.553;21.048;8.009;7.711;2.198
3026731.699;15.609;19.819;5.513;26.263;13.821;7.041;7.451;-1.788
3026731.707;11.995;17.136;3.502;23.842;14.529;9.425;10.543;1.267
3026731.715;9.909;13.933;1.229;20.117;10.803;15.013;13.448;6.743
3026731.723;0.261;3.055;-10.319;8.456;0.335;11.809;4.172;6.370
3026731.731;0.931;3.390;-10.952;6.631;-0.894;16.913;4.731;17.360
3026731.739;-4.731;-5.066;-13.709;-0.745;-7.600;12.740;-2.682;15.162
3026731.747;-6.631;-5.364;-14.193;-3.353;-4.359;5.327;-11.437;7.004
3026731.755;-1.453;1.416;-10.319;2.645;1.341;4.843;-8.121;3.353
3026731.763;1.863;2.086;-8.158;10.170;5.364;4.880;-3.204;-1.341
3026731.771;17.025;16.689;10.319;22.277;20.415;16.727;12.666;6.855
3026731.779;19.260;22.277;14.007;23.805;19.148;14.789;12.666;3.800
3026731.787;19.670;22.911;11.399;26.412;18.962;9.537;7.860;-0.298
3026731.795;18.850;22.016;10.841;25.667;16.168;6.892;5.253;-1.341
3026731.803;17.099;20.750;11.362;23.991;18.738;8.345;3.316;0.373
3026731.811;16.131;16.615;10.356;22.501;17.732;11.995;0.633;8.196
3026731.819;-9.499;-6.184;-14.044;-3.651;-4.396;-6.296;-24.773;-4.768
3026731.829;-17.621;-13.299;-22.314;-15.162;-12.554;-8.754;-31.255;-4.135
3026731.837;-13.076;-12.666;-18.328;-9.015;-9.798;3.316;-18.738;6.370
3026731.845;-8.233;-12.219;-13.225;-2.161;-0.969;8.121;-11.064;8.121
3026731.853;3.316;0.857;0.224;5.923;9.760;13.113;-0.894;8.680
3026731.861;10.543;16.540;5.811;16.354;12.405;19.372;12.293;8.717
3026731.869;18.589;26.599;12.852;34.347;19.297;23.022;23.134;8.382
3026731.877;25.481;30.212;20.787;35.949;25.406;25.928;27.567;11.213
3026731.885;16.652;18.664;12.964;23.618;14.305;15.534;14.752;2.831
3026731.893;12.405;17.397;6.482;24.103;6.109;11.325;9.015;0.298
3026731.901;10.878;15.013;4.806;20.079;1.788;9.611;2.943;3.017
3026731.909;-0.671;3.092;-4.023;7.525;0.559;-2.719;-18.366;-2.459
3026731.917;1.155;2.645;-3.390;7.786;1.378;4.843;-17.956;9.574
3026731.925;2.943;3.465;2.161;7.153;4.731;17.099;-9.499;21.681
3026731.933;6.519;7.674;6.072;7.749;6.072;25.705;2.645;27.008
3026731.941;11.623;15.087;9.649;15.274;15.534;33.081;15.907;26.599
3026731.949;13.560;18.068;11.325;21.942;15.497;33.602;23.395;17.434
3026731.957;25.295;31.218;22.762;35.353;24.773;37.216;34.869;13.746
3026731.965;28.200;34.273;26.897;38.855;27.530;36.322;37.663;10.543
3026731.973;30.957;35.278;28.983;40.755;30.175;36.210;38.631;13.448
3026731.981;22.091;25.034;21.048;29.467;18.142;25.108;26.375;7.376
3026731.989;9.649;10.803;9.723;14.715;8.419;15.125;10.617;3.316
3026731.997;13.486;16.876;13.113;18.999;12.740;18.626;8.568;12.182
3026732.005;12.368;17.211;10.692;21.160;9.239;16.429;1.267;13.709
3026732.013;12.740;17.323;13.523;21.085;11.213;17.881;-0.410;15.646
3026732.023;11.064;16.168;12.480;18.440;6.221;19.148;1.118;15.758
3026732.031;12.740;19.670;13.188;25.555;5.700;15.311;2.086;11.101
3026732.039;22.836;28.536;23.469;34.273;23.544;20.936;12.629;13.001
3026732.047;29.877;35.837;32.410;37.067;31.181;27.418;22.911;13.933
3026732.055;26.897;33.341;27.791;34.794;23.246;23.060;21.271;3.204
3026732.063;29.691;36.061;30.324;41.425;27.344;29.467;29.877;5.774
3026732.071;29.579;39.302;30.063;39.116;25.891;29.281;29.318;7.153
3026732.079;23.954;33.975;22.464;33.490;18.142;28.461;26.301;10.058
3026732.087;16.950;24.252;17.546;25.146;10.468;22.016;17.211;9.425
3026732.095;13.337;17.025;16.019;15.758;8.829;16.280;8.680;10.990
3026732.103;10.729;9.313;15.050;12.182;6.221;16.056;2.906;14.454
3026732.111;13.262;17.099;17.174;12.144;13.821;14.193;-2.645;15.758
3026732.119;15.758;19.930;18.179;13.225;12.703;12.405;-4.023;15.162
3026732.127;14.529;17.993;17.546;17.062;14.231;9.015;-5.551;10.915
3026732.135;15.050;17.993;17.472;15.907;16.987;9.835;-1.229;8.531
3026732.143;31.218;39.078;29.989;37.290;21.644;14.193;10.245;7.041
3026732.151;43.549;51.148;41.835;49.435;33.528;20.228;21.160;9.239
3026732.159;47.088;51.185;46.492;45.300;40.457;21.867;24.401;8.792
3026732.167;43.474;45.747;46.864;38.818;40.643;24.214;26.263;11.548
3026732.175;30.771;33.826;34.682;28.871;29.653;24.363;23.395;14.976
3026732.183;16.838;18.701;20.452;15.125;16.354;22.128;14.827;17.099
3026732.191;8.158;8.605;11.511;5.141;9.164;18.142;5.141;17.770
3026732.199;-0.633;4.210;1.490;-1.527;-0.112;8.792;-5.364;11.586
3026732.207;-0.857;4.023;0.633;2.906;-3.166;6.109;-7.525;11.139
3026732.205;12.591;16.540;15.497;14.305;16.242;11.250;-0.037;16.838
3026732.213;10.133;13.635;13.039;9.686;17.285;5.364;-0.335;6.929
3026732.221;9.425;14.380;11.958;10.282;13.337;3.763;4.917;0.298
3026732.229;25.854;33.081;26.524;28.238;26.636;16.764;24.661;7.749
3026732.237;33.416;39.004;33.565;38.818;32.485;20.787;31.963;9.276
3026732.245;25.071;29.765;27.195;25.630;22.352;11.809;20.787;2.161
3026732.253;25.369;29.281;28.759;25.630;22.240;13.001;18.515;7.264
3026732.261;26.077;24.103;29.132;22.538;22.277;15.646;17.434;15.125
3026732.269;20.005;19.595;23.395;17.881;18.962;15.385;11.101;19.856
3026732.277;9.462;15.460;12.442;7.786;9.127;11.660;1.825;18.328
3026732.285;10.096;15.311;9.909;9.947;7.190;11.995;1.118;18.030
3026732.293;13.858;20.266;14.640;16.093;14.454;14.342;6.072;17.956
3026732.301;18.701;21.309;20.452;16.429;22.724;11.437;6.445;14.305
3026732.309;19.968;23.544;21.979;16.838;23.767;6.668;5.290;8.866
3026732.317;13.001;15.050;16.652;10.952;18.738;2.310;4.247;4.135
3026732.325;12.480;17.658;17.509;8.270;17.174;6.594;10.878;7.898
3026732.333;13.523;15.683;17.583;8.307;16.466;7.935;14.380;8.941
3026732.341;10.170;9.798;13.299;3.986;10.692;4.210;10.617;6.184
3026732.349;11.027;18.217;13.486;8.345;11.623;5.066;9.611;7.749
3026732.357;9.201;17.695;10.915;10.692;8.754;9.015;8.345;13.262
3026732.365;5.662;9.537;7.711;1.900;4.247;13.225;6.407;19.222
3026732.373;-3.278;-1.788;0.075;-6.817;0.559;7.264;-1.937;13.486
3026732.381;1.676;4.396;5.700;0.186;3.055;9.462;0.559;14.566
3026732.389;7.302;16.280;8.531;5.662;13.672;12.331;6.258;16.838
3026732.400;10.766;19.707;11.623;12.740;16.652;7.860;6.035;11.437
3026732.408;8.680;12.144;11.958;10.319;13.709;2.421;3.204;5.737
3026732.416;3.912;7.600;9.090;3.763;10.319;-2.049;2.347;1.714
3026732.424;8.866;13.523;13.746;7.302;14.864;2.459;9.611;5.625
3026732.432;10.394;14.082;13.150;5.960;14.119;3.539;10.170;6.184
3026732.440;7.302;12.070;10.952;4.396;8.829;3.055;8.456;6.557
3026732.448;4.582;10.170;7.302;3.763;3.129;6.072;8.605;9.425
3026732.456;1.229;4.768;4.321;-2.012;3.986;3.427;1.080;8.382
3026732.464;6.445;10.096;9.350;5.774;9.499;3.874;-0.857;11.809
3026732.472;10.356;14.082;11.027;8.717;7.413;6.557;2.049;13.262
3026732.480;9.462;11.884;13.448;7.600;13.821;8.009;4.880;9.760
3026732.488;16.019;23.469;19.893;19.185;20.005;9.947;10.021;10.058
3026732.496;17.285;25.779;20.526;21.942;19.595;5.066;7.376;5.625
3026732.504;17.732;22.538;21.569;16.689;18.813;2.719;6.407;2.421
3026732.512;23.693;25.742;29.169;21.048;27.455;7.823;12.331;7.227
3026732.520;15.162;19.446;22.426;13.299;20.638;4.433;9.835;4.247
3026732.528;15.199;20.973;20.824;12.554;16.317;8.754;12.591;10.282
3026732.536;10.096;12.815;15.460;4.657;10.580;12.331;12.405;18.589
3026732.544;3.055;5.141;9.052;-2.980;4.694;6.407;2.608;17.285
3026732.552;5.029;4.806;10.021;-2.123;8.866;5.066;-3.055;15.870
3026732.560;6.743;7.525;14.529;-2.831;11.027;5.215;-3.204;12.442
3026732.568;21.867;25.146;28.200;12.293;19.483;14.603;9.760;17.695
3026732.576;28.424;33.118;34.720;21.495;24.587;16.242;14.156;15.870
3026732.584;26.077;31.479;31.367;24.326;26.263;9.090;10.394;6.557
3026732.611;25.816;30.585;30.957;23.656;25.667;6.333;11.064;2.421
3026732.619;22.277;27.455;28.051;18.403;18.366;7.302;13.039;3.316
3026732.627;17.397;23.469;21.309;11.288;13.970;10.766;15.944;10.133
3026732.635;11.399;14.976;15.870;3.502;9.798;7.339;10.915;10.543
3026732.643;10.766;13.597;17.881;8.978;7.749;6.109;6.557;13.299
3026732.651;6.706;11.176;13.523;5.066;8.978;5.849;2.570;14.976
3026732.659;-1.639;5.774;3.912;-2.198;0.000;-2.645;-8.717;6.445
3026732.667;5.476;10.617;9.835;1.192;0.373;-1.155;-7.525;7.823
3026732.675;5.886;7.525;11.325;-1.490;3.204;-1.676;-8.866;4.284
3026732.683;12.256;16.019;18.254;9.909;15.683;3.278;-2.086;3.800
3026732.691;17.732;25.742;23.134;16.205;18.254;5.029;4.396;2.384
3026732.699;20.117;28.573;24.885;21.942;18.068;4.768;8.605;-0.559
3026732.707;21.048;26.263;23.916;25.034;16.913;9.127;15.050;2.198
3026732.715;30.957;32.559;37.141;30.100;27.753;19.409;26.263;12.144
3026732.723;20.042;25.071;26.934;19.148;18.030;10.803;16.391;4.545
3026732.731;2.794;11.735;9.350;5.178;-0.969;4.806;6.855;4.619
3026732.739;-2.384;7.637;2.831;1.751;-3.539;5.625;3.129;12.182
3026732.747;-9.798;-2.980;-4.210;-8.643;-12.554;-0.224;-6.929;10.356
3026732.755;-4.731;1.043;2.533;-3.725;-8.084;3.204;-6.258;13.895
3026732.763;6.333;13.337;12.480;9.425;0.447;8.047;-0.969;15.013
3026732.771;10.803;17.956;17.993;11.101;9.649;10.356;2.980;11.660
3026732.779;13.784;19.632;21.681;15.125;13.709;12.666;6.258;8.866
3026732.787;14.044;20.750;23.879;14.752;10.505;13.672;8.866;7.078
3026732.795;14.640;19.036;24.773;7.190;11.884;16.838;13.523;9.909
3026732.790;14.342;17.397;23.507;3.874;18.813;16.317;15.497;10.692
3026732.798;9.909;15.348;19.073;11.362;16.168;12.629;13.299;9.388
3026732.806;8.084;12.517;16.503;11.399;12.293;11.139;9.909;12.927
3026732.814;-1.453;-0.261;8.643;-4.135;-2.012;1.937;-1.751;8.084
3026732.822;-3.092;-1.304;9.276;-2.868;2.235;-2.049;-6.407;7.264
3026732.830;-1.378;-1.565;10.282;-2.645;5.327;-5.513;-10.431;4.284
3026732.838;0.335;2.533;9.127;-0.633;0.931;0.186;-6.184;6.706
3026732.846;5.439;6.892;15.907;4.508;3.837;7.823;0.559;9.425
3026732.854;11.213;16.354;21.718;9.462;11.586;13.635;7.376;11.101
3026732.862;10.170;18.962;19.222;12.070;6.072;14.603;9.462;7.525
3026732.870;15.236;20.117;24.401;18.515;12.554;18.701;16.764;9.201
3026732.878;9.015;14.268;19.222;9.872;9.947;11.586;11.139;2.645
3026732.886;8.903;17.062;18.366;9.425;12.666;9.686;10.245;3.763
3026732.894;12.144;17.025;21.122;11.027;11.437;9.723;9.350;7.898
3026732.902;8.270;13.709;18.887;4.433;8.196;2.831;0.037;5.364
3026732.910;-2.049;2.198;7.413;-6.929;0.596;-7.898;-11.995;-0.335
3026732.918;-3.241;3.241;5.178;-6.966;-4.098;-11.139;-16.317;-2.086
3026732.926;-5.066;2.719;4.880;-7.302;-6.780;-11.101;-17.658;-4.768
3026732.934;4.917;12.852;13.486;3.986;-2.272;-0.745;-7.339;1.639
3026732.942;10.878;17.472;19.409;9.723;3.576;8.680;4.396;6.743
3026732.950;13.188;16.056;21.495;10.878;9.798;9.127;8.345;4.284
3026732.958;19.632;23.507;25.742;17.770;13.672;15.460;15.832;8.084
3026732.966;24.550;33.379;30.734;22.575;17.919;21.607;22.352;12.256
3026732.974;20.787;28.424;29.504;16.876;19.707;13.486;15.870;6.855
3026732.985;20.713;27.753;26.710;17.285;17.397;5.625;9.313;4.135
3026732.993;14.976;23.879;21.048;14.901;8.494;0.708;3.427;3.390
3026733.001;8.121;14.380;17.807;4.321;6.184;1.341;0.894;7.004
3026733.009;1.639;8.084;11.846;-0.857;-1.974;-1.416;-1.751;4.433
3026733.017;6.109;12.778;14.529;6.966;4.061;4.396;6.184;8.419
3026733.025;10.952;15.721;20.191;9.052;12.517;13.784;14.268;15.683
3026733.033;4.433;10.170;14.752;1.304;3.204;8.419;8.307;10.319
3026733.041;5.513;10.841;17.025;1.825;3.800;6.407;7.115;6.407
3026733.049;16.764;20.266;30.026;10.468;20.750;10.282;12.107;6.445
3026733.057;17.472;23.060;29.393;15.758;22.016;6.184;10.096;-1.490
3026733.065;17.397;20.303;29.877;16.131;18.366;1.229;8.196;-9.984
3026733.073;21.011;21.756;35.092;20.973;21.234;0.708;8.121;-9.947
3026733.081;24.065;25.108;37.663;21.271;29.169;-0.671;5.625;-5.886
3026733.089;13.895;15.385;26.077;11.511;16.950;-13.001;-8.941;-11.846
3026733.097;5.290;10.021;15.162;4.917;7.413;-13.411;-13.225;-6.445
3026733.105;5.923;11.697;14.789;4.731;8.121;0.000;-1.565;7.674
3026733.113;2.794;9.015;11.623;-1.304;4.023;7.376;7.004;11.288
3026733.121;0.261;3.390;8.903;-4.396;2.906;7.972;8.829;9.686
3026733.129;1.863;3.092;9.388;-1.788;3.241;5.774;8.456;7.078
3026733.137;12.517;15.944;19.670;7.525;5.998;7.525;12.591;6.482
3026733.145;15.274;18.924;21.979;6.817;8.233;6.817;13.784;2.794
3026733.153;19.036;23.358;24.475;13.970;16.876;6.296;14.380;1.453
3026733.161;22.277;25.705;28.312;18.664;20.638;8.605;15.870;6.072
3026733.169;16.280;16.764;23.730;9.723;14.752;-0.484;6.296;4.359
3026733.165;9.127;12.405;15.348;2.906;5.290;-3.316;0.969;6.445
3026733.173;6.557;8.866;13.448;-0.447;1.602;0.000;1.751;10.356
3026733.181;1.267;3.502;9.537;-7.972;-0.335;-1.416;-0.820;8.121
3026733.189;-2.421;-0.335;4.098;-7.786;-5.700;2.161;2.384;11.213
3026733.197;-16.540;-13.746;-7.413;-25.667;-12.852;-5.402;-5.327;2.310
3026733.205;-12.144;-13.113;-2.533;-21.756;-5.960;1.565;2.496;7.227
3026733.213;-10.133;-12.256;-1.527;-21.309;-9.164;3.427;6.557;6.370
3026733.221;6.817;13.858;13.746;6.221;5.104;10.654;16.987;11.101
3026733.229;16.876;24.289;23.656;17.658;18.962;11.586;19.446;9.425
3026733.237;21.644;26.375;28.908;17.136;23.469;8.978;15.758;5.849
3026733.245;18.030;20.601;24.624;10.245;17.770;-0.559;3.576;1.229
3026733.253;5.513;5.029;11.511;-2.943;7.041;-11.511;-9.276;-2.980
3026733.261;-4.023;-3.129;3.092;-10.654;-2.980;-13.448;-14.417;-1.229
3026733.269;-4.806;-3.688;5.849;-13.858;-2.123;-8.903;-11.064;4.135
3026733.277;-7.711;-5.215;1.825;-16.764;-5.923;-7.749;-9.350;2.123
3026733.285;-15.795;-13.039;-7.935;-23.171;-15.944;-8.233;-9.388;-1.080
3026733.293;-22.240;-21.271;-13.895;-27.195;-24.028;-7.376;-8.978;0.000
3026733.301;-10.692;-11.437;-1.676;-18.477;-13.076;-0.224;-1.527;5.364
3026733.309;0.261;1.341;8.233;-8.456;-1.788;2.310;3.278;5.774
3026733.317;8.084;9.276;15.236;0.708;10.096;2.570;5.737;4.023
3026733.325;11.250;12.815;17.807;5.923;11.697;-4.992;-0.745;-1.714
3026733.333;7.190;10.021;13.895;-1.267;3.688;-10.133;-7.898;-4.731
3026733.341;0.298;-1.416;7.451;-9.499;-2.086;-16.876;-17.248;-8.829
3026733.349;-2.533;-1.602;6.407;-8.866;0.298;-17.025;-19.111;-6.668
3026733.360;-5.253;-3.017;3.763;-11.511;-1.714;-15.385;-18.328;-5.178
3026733.368;-6.668;-5.849;2.086;-13.895;-4.955;-12.964;-15.311;-4.843
3026733.376;-1.602;1.304;7.004;-6.221;-2.980;-7.749;-8.047;-2.943
3026733.384;-2.831;-1.639;4.806;-9.052;-4.508;-8.121;-9.090;-6.147
3026733.392;-0.186;0.820;8.531;-6.072;0.261;-1.974;-3.055;-2.123
3026733.400;15.646;17.919;26.152;11.623;14.976;11.548;10.133;10.282
3026733.408;6.966;8.754;17.509;0.447;6.892;1.714;1.565;0.037
3026733.416;-4.917;-1.378;5.439;-10.058;-0.075;-9.462;-8.494;-10.878
3026733.424;-2.123;0.782;6.296;-10.021;-2.384;-11.884;-10.803;-9.947
3026733.432;-2.496;-1.639;7.078;-8.643;-7.190;-16.503;-15.981;-11.697
3026733.440;-2.496;-2.235;6.445;-6.407;-11.213;-16.429;-16.168;-10.878
3026733.448;1.974;2.943;12.219;-2.384;-2.459;-7.376;-7.749;-3.651
3026733.456;-0.782;-1.118;11.437;-3.614;3.092;-6.333;-7.600;-5.551
3026733.464;-2.012;-2.012;9.574;-5.215;2.198;-4.508;-6.258;-7.451
3026733.472;6.668;11.772;15.981;2.272;5.439;4.880;1.937;0.112
3026733.480;7.749;11.288;15.460;3.241;-1.304;9.350;4.843;4.098
3026733.488;2.570;6.221;9.872;0.224;1.714;9.499;5.700;4.321
3026733.496;7.339;11.586;17.956;5.849;8.903;12.740;9.686;5.402
3026733.504;8.829;11.809;21.160;5.700;7.935;10.654;8.754;3.427
3026733.512;0.931;3.316;13.150;-2.570;-1.825;-0.447;-1.416;-5.625
3026733.520;-7.674;-6.333;4.992;-11.064;-6.258;-5.662;-7.674;-8.643
3026733.528;-5.551;-3.651;6.147;-8.568;-4.657;-4.284;-6.594;-5.290
3026733.536;-4.172;-3.465;7.115;-7.376;-6.370;-9.127;-11.772;-10.021
3026733.544;-0.708;0.186;12.219;-7.935;-5.253;-11.362;-13.784;-12.740
3026733.555;6.445;8.941;20.266;1.974;2.347;-8.792;-11.176;-12.331
3026733.563;20.340;21.718;33.975;14.566;18.701;0.224;-3.204;-5.662
3026733.571;19.185;19.595;31.479;10.021;14.827;-3.800;-8.792;-9.090
3026733.579;20.713;23.432;33.267;19.372;14.156;-4.396;-9.239;-10.952
3026733.587;24.177;29.653;36.247;22.501;16.838;0.596;-1.974;-7.041
3026733.595;23.209;30.771;35.167;18.999;11.101;2.906;3.465;-5.998
3026733.603;16.913;23.842;29.877;11.660;10.058;2.794;3.986;-5.253
3026733.611;16.429;20.266;30.026;9.872;14.752;0.037;1.788;-3.166
3026733.619;17.770;20.638;31.367;14.082;14.752;1.080;1.676;1.267
3026733.627;13.523;17.546;25.183;10.990;10.021;-0.075;-2.533;2.272
3026733.635;15.795;15.423;29.653;9.462;12.033;-0.298;-3.912;2.794
3026733.643;20.377;21.830;34.980;15.162;15.721;0.745;-1.527;3.166
3026733.651;27.902;34.310;39.972;22.054;20.862;2.421;-0.522;4.396
3026733.659;26.859;34.459;39.488;23.022;19.222;1.155;-2.719;2.198
3026733.667;25.034;29.914;36.471;20.787;18.068;3.614;-0.186;1.490
3026733.675;22.985;28.908;35.278;14.640;13.411;7.562;6.817;0.931
3026733.683;18.552;22.240;33.379;11.362;12.144;7.898;8.568;-0.298
3026733.691;17.509;21.867;31.553;17.658;13.188;10.021;9.835;3.688
3026733.699;17.583;22.985;31.628;14.417;13.448;11.101;9.462;8.084
3026733.707;12.629;17.248;26.263;6.333;11.213;1.453;-0.373;1.788
3026733.715;7.376;11.548;20.675;0.186;6.147;-2.086;-4.917;-0.335
3026733.723;4.806;6.966;18.179;0.112;1.937;-2.682;-7.264;-0.186
3026733.731;16.540;19.073;29.169;11.101;12.182;3.390;-2.570;5.923
3026733.739;19.483;22.575;31.441;12.852;13.672;6.743;1.714;8.233
3026733.751;23.916;28.908;37.029;14.603;14.566;5.253;2.012;4.694
3026733.759;30.436;35.763;44.592;25.108;20.973;7.488;6.743;4.843
3026733.767;32.000;36.024;46.715;25.071;31.106;6.035;8.903;0.782
3026733.775;25.667;31.330;40.978;19.521;27.046;-0.671;4.657;-7.525
3026733.783;10.468;16.168;24.550;2.645;11.586;-9.649;-6.221;-14.454
3026733.791;7.823;9.462;20.340;-2.310;3.986;-7.115;-6.892;-5.811
3026733.799;14.231;14.007;26.599;5.402;7.972;3.204;1.676;7.637
3026733.807;6.221;8.009;19.930;1.006;2.682;2.347;-0.522;8.233
3026733.815;-0.373;0.596;14.119;-6.780;-0.671;-3.353;-6.258;3.986
3026733.823;0.894;3.688;15.125;-7.451;4.210;-6.445;-10.058;0.596
3026733.831;9.127;11.511;21.942;0.596;13.039;-4.210;-8.382;3.539
3026733.839;12.144;12.368;27.381;2.198;11.213;-9.798;-12.778;-0.522
3026733.847;11.921;14.566;25.555;-1.043;11.846;-18.440;-19.297;-9.611
3026733.855;17.323;21.569;29.616;12.591;17.397;-17.211;-14.864;-9.984
3026733.863;13.411;18.775;25.034;8.903;13.150;-19.446;-13.448;-16.280
3026733.871;20.862;22.314;31.851;12.368;20.340;-11.362;-3.539;-12.852
3026733.879;23.693;26.301;33.416;14.827;17.472;-3.017;3.092;-6.109
3026733.887;16.503;19.670;27.418;9.984;11.027;-2.608;-0.559;-3.204
3026733.895;2.682;5.998;15.087;-1.639;1.900;-6.296;-8.494;-3.129
3026733.903;-4.657;-3.800;8.307;-10.356;-2.012;-6.557;-12.778;-1.229
3026733.911;-8.382;-11.139;4.619;-17.472;-3.837;-11.697;-19.483;-4.061
3026733.919;1.863;3.166;15.050;-11.735;9.015;-15.385;-19.930;-6.072
3026733.927;7.041;9.611;20.452;-1.751;11.884;-19.670;-19.222;-11.027
3026733.935;15.497;20.638;27.604;10.654;15.087;-17.472;-14.007;-11.325
3026733.943;22.203;24.810;33.975;16.615;19.483;-14.119;-10.319;-8.680
3026733.951;19.595;21.160;31.367;12.927;19.856;-14.901;-10.058;-9.909
3026733.959;14.193;15.795;24.736;3.763;15.758;-13.225;-8.084;-11.437
3026733.967;11.548;11.660;22.575;4.731;9.388;-11.772;-9.425;-11.362
3026733.975;12.629;11.139;26.077;3.837;9.984;-9.537;-8.754;-7.302
3026733.983;7.786;8.717;19.409;0.075;9.537;-11.735;-11.250;-8.084
3026733.991;8.345;9.462;18.217;2.123;7.749;-12.331;-11.325;-6.817
3026733.999;12.256;14.789;25.295;3.017;15.311;-8.903;-6.966;-3.651
3026734.007;5.327;8.382;18.589;-2.161;8.233;-16.950;-16.950;-11.213
3026734.015;-0.894;-2.496;12.144;-14.268;1.118;-21.569;-22.501;-14.268
3026734.023;0.075;-1.974;13.076;-18.477;4.023;-20.601;-21.569;-13.448
3026734.031;10.803;11.884;23.507;-6.482;20.303;-12.256;-15.311;-5.178
3026734.039;11.064;9.313;24.810;-5.700;20.452;-9.947;-15.907;-3.576
3026734.047;7.339;4.768;21.756;-10.617;17.546;-12.107;-17.211;-6.631
3026734.055;10.617;11.660;22.054;-2.496;14.603;-14.715;-15.832;-10.245
3026734.063;16.093;17.658;27.493;7.711;18.999;-9.425;-9.015;-6.594
3026734.071;3.949;1.751;17.248;-2.198;9.052;-16.764;-15.646;-12.517
3026734.079;1.229;1.080;13.188;-7.749;5.923;-16.391;-14.603;-9.947
3026734.087;-0.708;3.502;8.941;-7.711;0.149;-17.695;-15.348;-11.064
3026734.095;3.912;7.264;13.448;-3.353;6.184;-11.101;-6.966;-5.625
3026734.103;1.192;4.172;12.182;-4.992;2.719;-12.740;-7.786;-8.196
3026734.111;10.356;14.231;22.277;2.198;13.560;-6.855;-3.204;-3.316
3026734.119;11.846;10.803;22.762;0.522;15.050;-8.978;-9.052;-8.084
3026734.127;10.841;8.009;21.569;-5.402;15.236;-10.543;-14.603;-12.182
