Timestamp,AFz,AF3,AF4,AF7,AF8,Pz,P3,P4,2024-04-10 12:52:51.820,fs=125
2338688.195;-5.253;1.118;-10.803;6.855;-13.299;7.674;10.431;2.980
2338688.203;-12.666;-7.860;-16.540;-2.794;-18.179;3.241;5.513;-0.186
2338688.211;-14.305;-10.431;-17.621;-6.519;-18.366;2.421;5.029;0.298
2338688.219;-19.185;-14.491;-21.830;-10.729;-23.134;1.080;2.384;-0.820
2338688.227;-19.744;-13.411;-22.724;-9.425;-25.220;6.072;6.333;3.241
2338688.235;-23.246;-17.062;-25.630;-12.144;-26.897;5.551;5.737;1.416
2338688.243;-26.673;-21.756;-27.604;-16.615;-29.057;2.719;3.278;-2.459
2338688.251;-30.734;-27.232;-31.069;-21.495;-31.963;1.267;0.373;-3.278
2338688.259;-33.937;-31.963;-33.677;-26.673;-32.969;-0.224;-1.565;-3.651
2338688.267;-36.471;-34.086;-35.763;-28.349;-35.949;-3.278;-4.247;-5.402
2338688.275;-37.476;-34.347;-36.061;-28.238;-33.788;-6.557;-6.817;-6.370
2338688.283;-41.015;-37.812;-40.010;-31.479;-38.892;-8.270;-7.711;-6.966
2338688.291;-40.457;-38.408;-38.855;-32.671;-39.563;-6.035;-6.594;-3.763
2338688.299;-39.861;-38.818;-38.035;-33.639;-39.488;-6.482;-7.227;-5.215
2338688.307;-40.568;-41.053;-39.153;-35.986;-37.402;-7.860;-9.462;-7.264
2338688.315;-43.660;-45.151;-42.208;-39.525;-39.041;-10.543;-13.076;-10.207
2338688.323;-46.082;-47.311;-44.964;-40.382;-42.655;-9.947;-11.101;-11.250
2338688.331;-50.031;-51.111;-49.733;-43.549;-48.243;-11.511;-13.001;-12.964
2338688.339;-50.962;-50.925;-49.137;-45.747;-48.615;-12.666;-14.268;-13.076
2338688.347;-48.764;-48.950;-45.747;-45.896;-45.635;-10.654;-13.597;-10.543
2338688.355;-50.515;-51.484;-47.199;-48.056;-45.262;-9.835;-12.740;-7.972
2338688.363;-50.962;-52.229;-47.348;-48.019;-43.921;-10.766;-12.368;-7.972
2338688.371;-47.311;-48.280;-45.113;-42.878;-44.145;-9.164;-9.499;-7.525
2338688.379;-46.231;-46.752;-44.852;-39.451;-48.578;-9.872;-8.121;-9.313
2338688.360;-44.331;-45.672;-43.474;-37.961;-47.348;-10.617;-8.531;-10.878
2338688.368;-47.684;-48.988;-47.386;-40.792;-52.713;-11.176;-10.766;-11.697
2338688.376;-46.529;-46.641;-44.592;-37.774;-49.174;-5.551;-5.662;-7.376
2338688.384;-41.500;-41.500;-39.674;-32.000;-44.145;-5.662;-5.551;-7.711
2338688.392;-43.064;-43.251;-41.984;-33.230;-45.225;-10.915;-10.282;-12.144
2338688.400;-43.064;-43.213;-42.990;-34.012;-45.337;-9.462;-8.345;-10.468
2338688.408;-41.276;-42.245;-41.798;-32.671;-44.890;-6.855;-6.258;-8.717
2338688.416;-46.417;-47.758;-45.672;-38.184;-48.690;-11.101;-10.245;-12.591
2338688.424;-43.176;-44.554;-41.537;-35.092;-44.554;-10.058;-8.196;-12.740
2338688.432;-35.949;-36.433;-32.447;-28.089;-37.849;-4.806;-3.837;-8.605
2338688.440;-34.571;-36.135;-31.069;-27.344;-38.631;-6.631;-4.433;-12.740
2338688.448;-37.067;-39.898;-33.490;-31.628;-40.904;-9.611;-7.302;-15.609
2338688.456;-38.967;-42.096;-35.539;-32.149;-41.872;-6.668;-4.917;-11.623
2338688.464;-37.737;-41.425;-34.757;-31.367;-41.053;-1.155;-0.186;-5.178
2338688.472;-43.325;-47.088;-40.159;-37.141;-46.641;-4.470;-2.757;-7.264
2338688.480;-48.280;-50.887;-45.411;-40.010;-51.893;-7.823;-7.637;-8.941
2338688.488;-43.549;-47.088;-40.643;-36.210;-47.125;-4.992;-6.333;-4.210
2338688.496;-41.388;-45.896;-37.290;-35.204;-41.761;-5.253;-5.737;-6.333
2338688.504;-39.637;-45.635;-33.677;-35.316;-34.422;-4.731;-5.178;-7.562
2338688.512;-47.535;-52.750;-43.027;-40.419;-47.870;-5.998;-5.066;-9.574
2338688.520;-44.890;-48.876;-39.488;-36.061;-43.847;-7.898;-6.184;-11.213
2338688.528;-36.024;-42.915;-29.579;-29.840;-33.528;-14.976;-12.368;-15.944
2338688.536;-36.061;-42.804;-29.728;-30.100;-33.006;-17.360;-14.380;-18.105
2338688.544;-39.674;-46.715;-34.384;-33.267;-38.221;-15.832;-12.778;-17.211
2338688.507;-46.305;-52.601;-40.308;-38.408;-42.915;-16.876;-15.646;-17.025
2338688.515;-46.007;-52.005;-39.116;-37.290;-40.941;-14.491;-13.709;-13.672
2338688.523;-46.082;-52.080;-40.159;-37.141;-45.002;-14.268;-13.448;-13.225
2338688.531;-46.752;-52.787;-40.941;-39.563;-44.815;-14.864;-12.405;-15.199
2338688.539;-49.509;-55.134;-44.778;-43.772;-47.721;-18.701;-13.411;-20.340
2338688.547;-47.646;-52.452;-44.517;-42.059;-49.733;-19.260;-14.193;-20.601
2338688.555;-41.500;-45.747;-40.978;-37.104;-45.635;-12.182;-8.792;-12.890
2338688.563;-40.792;-44.517;-42.692;-37.290;-43.288;-9.015;-6.258;-10.096
2338688.571;-46.603;-50.217;-49.435;-42.953;-46.007;-9.760;-6.407;-11.325
2338688.579;-54.762;-56.885;-57.183;-49.844;-50.850;-12.256;-10.543;-13.523
2338688.587;-55.023;-56.513;-57.369;-48.839;-48.727;-8.307;-7.860;-8.307
2338688.595;-55.544;-56.550;-58.599;-47.944;-50.068;-6.370;-5.029;-6.445
2338688.603;-55.842;-56.699;-59.232;-47.982;-49.844;-6.072;-4.061;-5.104
2338688.611;-58.226;-58.599;-61.579;-49.099;-52.080;-9.835;-7.004;-6.966
2338688.619;-57.593;-57.444;-58.860;-48.354;-48.503;-11.362;-8.754;-8.792
2338688.627;-57.593;-58.562;-58.152;-49.509;-48.801;-11.511;-10.394;-7.562
2338688.635;-52.415;-54.501;-53.756;-45.411;-45.896;-8.345;-8.829;-5.923
2338688.643;-50.254;-53.085;-50.515;-41.537;-41.164;-8.829;-8.419;-8.084
2338688.651;-46.268;-46.268;-46.156;-37.588;-39.749;-7.264;-7.600;-7.264
2338688.659;-48.392;-49.472;-46.790;-41.425;-38.855;-10.766;-13.635;-9.984
2338688.667;-46.380;-48.280;-43.027;-38.892;-32.708;-9.947;-13.225;-8.009
2338688.675;-45.560;-47.758;-42.841;-35.241;-33.677;-6.780;-8.531;-5.253
2338688.683;-47.497;-48.131;-46.529;-34.720;-40.866;-5.104;-5.960;-4.731
2338688.691;-47.311;-47.050;-46.529;-36.992;-40.904;-4.694;-4.172;-4.806
2338688.660;-44.443;-43.735;-44.368;-36.210;-40.866;-2.719;-0.447;-3.092
2338688.668;-41.872;-42.096;-42.319;-34.198;-39.823;-1.453;0.671;-1.378
2338688.676;-41.425;-41.723;-40.084;-34.049;-36.582;-2.272;-1.080;-1.341
2338688.684;-39.190;-39.786;-37.588;-32.708;-32.596;-2.161;-1.900;-1.416
2338688.692;-38.333;-38.706;-36.247;-31.032;-31.963;-2.086;-2.682;-2.384
2338688.700;-38.818;-40.494;-37.514;-31.888;-33.304;-3.763;-5.551;-4.657
2338688.708;-42.468;-40.978;-42.431;-32.410;-40.643;-5.551;-7.898;-6.296
2338688.716;-38.706;-37.663;-39.078;-28.126;-36.024;-2.980;-5.290;-2.868
2338688.724;-35.651;-35.129;-35.390;-25.555;-32.075;-2.310;-2.161;-2.049
2338688.732;-34.794;-34.012;-33.379;-25.816;-30.734;-2.198;-1.267;-2.868
2338688.740;-34.533;-34.533;-31.181;-27.008;-30.771;-6.035;-4.657;-7.004
2338688.748;-30.510;-33.304;-27.008;-25.444;-27.083;-6.147;-4.023;-7.711
2338688.756;-25.332;-28.536;-23.209;-20.377;-24.214;-2.123;0.075;-3.725
2338688.764;-24.103;-27.753;-22.836;-21.122;-23.432;0.373;2.198;-1.900
2338688.772;-24.736;-28.051;-22.165;-21.607;-20.228;3.688;5.774;-0.745
2338688.780;-22.985;-24.363;-20.787;-18.924;-18.664;7.488;8.792;1.900
2338688.788;-20.117;-20.489;-18.813;-14.864;-18.440;4.247;5.551;0.894
2338688.796;-22.352;-21.495;-23.134;-16.205;-23.432;-2.645;-1.676;-3.353
2338688.804;-23.805;-22.724;-25.406;-17.770;-25.816;-3.316;-3.166;-3.166
2338688.812;-23.209;-22.687;-24.810;-17.174;-24.997;-2.384;-1.378;-1.900
2338688.820;-21.458;-21.234;-22.426;-15.311;-23.022;-1.267;0.820;-0.373
2338688.828;-21.458;-21.085;-21.979;-14.715;-22.985;-0.931;0.782;-1.043
2338688.836;-24.363;-23.432;-25.965;-16.503;-29.430;-2.421;-0.894;-3.688
2338688.844;-21.793;-20.601;-22.501;-12.480;-22.240;-1.006;2.198;-3.427
2338688.839;-19.856;-18.030;-21.495;-10.096;-23.507;2.831;7.264;-1.639
2338688.847;-19.744;-17.956;-21.420;-10.766;-24.885;3.316;8.121;-0.857
2338688.855;-21.830;-21.569;-22.724;-13.970;-24.661;3.017;5.737;0.782
2338688.863;-23.544;-22.426;-23.283;-16.727;-24.773;2.049;0.335;1.192
2338688.871;-26.450;-26.412;-25.220;-21.122;-26.748;-0.782;-4.955;0.894
2338688.879;-25.630;-25.742;-25.854;-18.664;-30.622;-0.335;-3.800;1.453
2338688.887;-17.807;-19.260;-16.764;-12.368;-18.887;4.210;2.123;4.582
2338688.895;-16.056;-18.738;-13.784;-12.554;-14.342;5.253;3.427;4.768
2338688.903;-21.048;-23.656;-17.732;-17.919;-21.979;2.086;-0.298;2.123
2338688.911;-23.283;-26.338;-21.085;-19.670;-25.593;-0.075;-2.012;-0.522
2338688.919;-23.022;-24.214;-21.309;-17.509;-26.301;2.347;1.155;0.820
2338688.927;-21.607;-22.165;-21.309;-13.709;-28.349;6.296;7.451;2.049
2338688.935;-16.615;-17.807;-16.503;-7.898;-23.544;9.201;12.442;4.582
2338688.943;-15.572;-16.652;-15.423;-6.929;-22.464;10.468;13.486;6.519
2338688.951;-19.222;-20.899;-17.881;-10.729;-24.214;12.480;14.119;9.686
2338688.959;-24.289;-26.524;-21.681;-17.472;-27.493;14.082;14.305;11.362
2338688.967;-19.744;-23.060;-17.658;-14.715;-24.773;17.993;17.881;14.417
2338688.975;-21.085;-22.464;-19.968;-14.715;-30.212;19.222;18.142;15.050
2338688.983;-22.799;-24.326;-20.862;-16.056;-30.063;17.509;14.715;14.789
2338688.991;-26.301;-28.722;-23.469;-20.340;-32.634;13.560;10.803;11.623
2338688.999;-23.618;-28.424;-20.824;-19.446;-32.000;16.205;14.082;13.933
2338689.007;-19.893;-26.114;-16.056;-16.578;-26.673;15.870;14.305;11.511
2338689.015;-18.552;-22.464;-14.938;-15.981;-25.034;13.523;11.809;8.158
2338689.023;-14.789;-19.893;-10.692;-13.784;-21.234;18.477;15.795;12.368
2338688.977;-17.807;-22.240;-13.895;-15.795;-24.773;17.360;13.597;12.405
2338688.985;-18.403;-22.426;-14.417;-16.019;-24.959;15.050;12.107;10.915
2338688.993;-15.311;-19.297;-10.841;-11.809;-20.675;13.672;9.276;9.723
2338689.001;-14.417;-17.770;-10.505;-9.090;-23.842;12.740;6.557;8.643
2338689.009;-12.182;-17.397;-8.345;-8.903;-20.005;14.715;7.674;11.884
2338689.017;-13.113;-19.521;-10.543;-10.654;-24.624;16.056;9.947;13.672
2338689.025;-12.144;-19.222;-10.096;-10.319;-24.065;18.924;13.001;15.162
2338689.033;-10.245;-17.136;-7.749;-8.494;-20.191;18.589;12.778;14.454
2338689.041;-6.557;-12.368;-5.215;-2.570;-18.738;18.142;14.938;13.560
2338689.049;-5.625;-10.952;-3.092;-0.969;-17.323;19.744;17.770;13.448
2338689.057;-6.706;-13.299;-3.539;-2.868;-16.876;17.695;15.311;11.548
2338689.065;-5.774;-13.225;-1.378;-3.465;-13.225;16.391;13.523;10.952
2338689.073;-3.986;-11.809;-0.484;-1.863;-12.890;15.385;12.480;9.686
2338689.081;-4.917;-12.033;-1.043;-1.080;-14.417;14.827;9.723;10.245
2338689.089;-12.182;-18.850;-8.084;-8.121;-22.948;12.517;5.700;7.041
2338689.097;-12.331;-19.595;-9.425;-9.388;-24.512;15.683;9.015;8.717
2338689.105;-12.331;-19.521;-10.394;-8.456;-26.263;16.652;11.995;7.860
2338689.113;-10.654;-16.913;-8.754;-6.370;-23.916;14.342;11.809;6.333
2338689.121;-13.225;-19.632;-11.884;-7.004;-26.748;11.139;10.543;3.614
2338689.129;-9.425;-16.242;-9.015;-3.241;-24.959;9.462;8.866;4.359
2338689.137;-5.998;-13.337;-4.359;-0.335;-20.191;10.505;9.164;6.407
2338689.145;-6.370;-14.342;-3.390;-1.639;-18.850;11.958;11.437;7.004
2338689.153;-0.186;-8.717;3.651;3.427;-11.288;17.993;16.950;14.268
2338689.161;-3.465;-11.362;2.235;-0.410;-11.213;11.139;6.296;10.841
2338689.124;-5.476;-13.262;0.745;-2.496;-14.976;9.835;6.370;6.966
2338689.132;-0.186;-7.674;5.402;2.719;-11.101;16.093;12.778;12.182
2338689.140;-4.731;-12.554;-0.298;-0.969;-17.025;10.319;7.972;5.141
2338689.148;-7.376;-14.789;-2.831;-3.763;-17.770;5.811;3.055;-0.149
2338689.156;-3.614;-10.021;0.782;1.453;-13.858;6.892;3.837;0.671
2338689.164;-4.433;-9.798;-0.335;3.241;-18.254;6.445;3.763;1.602
2338689.172;-6.109;-11.139;-2.570;2.347;-18.366;7.004;2.570;2.384
2338689.180;-7.078;-11.846;-3.427;0.857;-19.707;6.780;2.161;1.490
2338689.188;-6.966;-12.852;-1.751;-0.633;-16.950;5.476;1.378;-0.596
2338689.196;-9.537;-15.423;-3.949;-2.608;-20.973;1.714;-1.751;-3.614
2338689.204;-4.768;-10.245;0.708;2.608;-17.732;6.370;4.172;0.447
2338689.212;-3.614;-8.270;2.161;4.172;-15.944;7.786;6.706;1.714
2338689.220;-2.459;-7.898;4.396;4.806;-12.368;7.115;5.253;0.931
2338689.228;-0.559;-7.227;6.855;5.700;-9.909;6.296;3.316;0.671
2338689.236;0.931;-4.210;7.041;7.823;-11.697;7.488;4.843;0.410
2338689.244;0.298;-4.694;6.557;5.886;-12.219;8.084;6.743;-0.671
2338689.252;0.373;-4.470;7.041;5.402;-12.740;9.388;8.717;-0.261
2338689.260;3.129;-1.937;8.680;7.227;-12.703;15.795;14.268;6.817
2338689.268;3.465;-1.229;7.860;4.023;-10.729;16.466;14.044;8.978
2338689.276;-5.811;-11.399;-3.241;-8.456;-19.707;8.456;4.098;4.023
2338689.284;-7.600;-13.448;-5.625;-12.554;-19.446;6.296;1.155;3.874
2338689.292;-10.729;-15.683;-9.798;-16.354;-23.693;4.210;-0.522;3.017
2338689.300;-11.846;-16.168;-12.815;-16.727;-23.134;5.364;2.123;3.465
2338689.308;-8.158;-12.293;-10.543;-13.150;-20.489;7.376;2.868;5.774
2338689.303;-4.210;-8.382;-5.253;-10.096;-12.331;7.376;3.763;8.233
2338689.311;-10.245;-13.113;-11.921;-15.683;-19.409;0.112;-3.241;-0.633
2338689.319;-13.635;-15.683;-14.752;-17.397;-21.420;-1.602;-4.023;-4.061
2338689.327;-15.274;-16.689;-14.752;-18.328;-21.942;-4.619;-5.439;-7.376
2338689.335;-6.743;-7.190;-5.886;-7.972;-12.219;1.118;-0.149;-2.533
2338689.343;4.321;4.657;3.949;4.694;-4.508;12.033;11.288;5.253
2338689.351;0.969;2.868;-0.112;1.676;-9.350;13.895;12.852;4.657
2338689.359;-0.522;3.465;-2.645;1.192;-12.033;15.870;15.162;5.588
2338689.367;-3.614;-1.118;-6.407;-2.123;-16.354;12.293;11.325;2.719
2338689.375;-4.768;-3.688;-7.637;-3.725;-17.248;8.680;5.886;2.421
2338689.383;-8.754;-8.196;-11.437;-7.264;-23.209;4.359;-0.149;-0.224
2338689.391;-5.923;-5.029;-5.476;-3.129;-12.480;8.233;2.906;4.619
2338689.399;-9.350;-8.196;-5.588;-7.115;-12.070;7.339;2.719;3.278
2338689.407;-10.841;-10.990;-7.413;-9.537;-16.578;8.680;5.141;4.321
2338689.415;-10.431;-11.548;-6.855;-10.133;-14.454;10.245;5.849;5.178
2338689.423;-8.866;-11.511;-4.619;-10.766;-11.176;10.431;5.774;5.886
2338689.431;-9.723;-12.182;-7.227;-11.623;-16.168;8.568;3.688;5.364
2338689.439;-7.674;-10.878;-6.072;-10.729;-16.317;8.158;2.608;4.917
2338689.447;-11.176;-15.236;-9.611;-13.672;-21.495;2.719;-1.118;0.335
2338689.455;-15.162;-19.260;-12.554;-15.721;-24.959;-2.496;-5.551;-5.551
2338689.463;-12.219;-15.534;-9.984;-10.207;-21.718;0.373;-2.347;-3.390
2338689.471;-19.036;-20.899;-16.578;-15.572;-28.908;-1.490;-4.619;-4.098
2338689.479;-21.420;-22.799;-18.068;-18.105;-29.728;-3.092;-6.743;-3.874
2338689.487;-15.907;-17.509;-11.809;-11.735;-25.034;-1.937;-5.364;-1.602
2338689.485;-13.337;-16.093;-9.462;-11.101;-23.209;-0.149;-4.433;-1.751
2338689.493;-16.466;-19.036;-12.368;-13.746;-26.971;-0.894;-4.359;-4.731
2338689.501;-12.293;-15.497;-9.947;-10.729;-25.146;0.596;-1.788;-5.327
2338689.509;-7.488;-10.617;-7.190;-6.594;-23.432;0.782;0.447;-5.327
2338689.517;-6.855;-9.015;-5.104;-4.917;-19.781;-1.490;-1.565;-7.749
2338689.525;-5.774;-6.780;-5.066;-1.974;-20.079;1.341;-1.378;-3.316
2338689.533;-4.843;-4.172;-4.508;1.788;-21.346;4.806;1.974;1.229
2338689.541;0.373;1.267;1.155;6.072;-15.795;9.239;5.029;5.327
2338689.549;0.596;0.335;0.373;3.129;-16.429;6.184;1.304;1.937
2338689.557;3.912;1.006;3.539;1.676;-13.337;2.794;-1.416;-0.857
2338689.565;7.041;2.049;8.047;0.745;-7.674;3.316;-1.304;1.267
2338689.573;5.700;0.559;8.494;-0.671;-6.072;3.800;-2.272;2.906
2338689.581;3.949;-2.086;7.376;-1.378;-7.637;0.931;-5.364;0.708
2338689.589;2.496;-3.092;6.557;-1.155;-6.817;-4.731;-10.803;-3.874
2338689.597;1.006;-3.055;4.917;-0.186;-8.866;-4.098;-9.611;-4.545
2338689.605;0.894;-3.614;4.843;0.261;-7.190;-0.484;-6.594;-3.874
2338689.613;-2.533;-6.929;0.261;-1.974;-13.597;1.378;-6.072;-3.763
2338689.621;-5.849;-8.568;-4.247;-2.198;-19.930;0.000;-6.780;-7.115
2338689.629;-1.565;-3.688;-0.596;3.017;-16.540;1.155;-4.359;-5.849
2338689.637;0.224;-2.012;2.235;4.396;-13.933;-2.086;-7.190;-7.451
2338689.645;1.229;-2.272;3.725;3.576;-13.448;-5.178;-8.605;-9.686
2338689.653;-3.688;-8.196;-0.671;-3.278;-14.752;-13.858;-14.901;-17.695
2338689.661;-2.272;-6.892;-0.261;-2.533;-14.491;-15.832;-16.913;-19.446
2338689.669;3.017;-2.421;4.321;2.682;-10.692;-11.623;-15.311;-13.374
2338689.664;-0.447;-5.215;1.267;-0.596;-14.342;-11.623;-17.360;-12.256
2338689.672;-1.080;-6.147;-0.037;-1.639;-14.491;-9.649;-17.434;-9.835
2338689.680;-7.600;-11.995;-8.009;-6.333;-23.134;-9.537;-18.142;-9.574
2338689.688;-10.803;-15.236;-11.958;-8.903;-27.940;-9.350;-15.981;-13.225
2338689.696;-8.121;-12.778;-8.792;-7.041;-25.518;-7.004;-10.394;-14.193
2338689.704;-4.619;-8.643;-4.843;-2.384;-22.165;-4.880;-6.407;-12.740
2338689.712;4.359;1.229;5.215;8.754;-12.964;3.129;4.023;-5.551
2338689.720;-0.820;-3.390;-0.335;4.582;-18.515;-1.453;-0.298;-11.101
2338689.728;-3.874;-7.227;-4.321;0.522;-22.724;-2.868;-3.949;-12.666
2338689.736;-1.863;-6.780;-1.453;1.565;-22.836;-0.298;-5.700;-8.196
2338689.744;1.267;-4.098;1.751;4.731;-19.148;2.794;-5.178;-1.304
2338689.752;2.794;-2.868;5.476;5.662;-12.405;1.527;-7.413;0.857
2338689.760;1.825;-4.247;4.470;3.278;-14.491;-3.651;-10.803;-3.241
2338689.768;12.368;7.115;14.305;13.411;-7.711;3.427;-2.384;4.023
2338689.776;1.714;-3.651;3.837;3.241;-16.652;-8.419;-13.039;-7.227
2338689.784;-2.347;-6.817;-1.378;1.974;-23.507;-7.525;-11.697;-7.898
2338689.792;0.559;-4.210;3.725;5.290;-16.838;-2.868;-6.333;-4.396
2338689.800;-6.668;-11.735;-2.533;-1.676;-22.911;-8.568;-10.803;-10.617
2338689.808;-4.396;-10.319;-0.075;0.224;-18.030;-5.625;-8.419;-7.525
2338689.816;-1.192;-7.302;2.272;3.278;-15.423;-2.123;-7.041;-1.863
2338689.824;-1.751;-7.860;2.012;1.229;-12.703;-2.235;-8.643;0.000
2338689.832;-10.952;-17.732;-6.631;-7.860;-23.432;-7.190;-15.050;-4.545
2338689.840;-11.362;-18.589;-5.513;-7.786;-20.862;-6.407;-15.013;-5.327
2338689.848;-10.692;-15.795;-6.221;-5.849;-22.352;-8.307;-15.274;-8.121
2338689.875;-5.104;-10.133;-0.671;1.080;-16.019;-4.545;-11.027;-5.215
2338689.883;-4.955;-10.841;-0.522;1.788;-17.099;-2.459;-5.886;-4.806
2338689.891;-18.068;-24.736;-13.858;-12.182;-30.287;-15.348;-18.515;-17.323
2338689.899;-18.179;-25.854;-12.144;-13.597;-27.418;-12.070;-16.019;-13.001
2338689.907;-16.131;-22.873;-8.903;-10.468;-23.656;-7.227;-11.548;-9.313
2338689.915;-12.852;-17.248;-7.376;-3.576;-23.842;-3.688;-7.972;-7.041
2338689.923;-11.139;-15.274;-6.035;-2.235;-23.432;-3.763;-8.084;-8.158
2338689.931;-13.560;-18.813;-7.190;-6.631;-22.054;-3.614;-8.196;-7.898
2338689.939;-17.434;-21.718;-11.250;-9.201;-25.854;-2.831;-6.817;-5.402
2338689.947;-10.952;-15.274;-5.588;-2.645;-19.595;4.508;0.261;2.496
2338689.955;-12.219;-17.136;-6.370;-5.364;-21.271;0.224;-4.023;-2.235
2338689.963;-13.895;-18.366;-9.425;-6.892;-26.822;-4.284;-6.929;-7.190
2338689.971;-11.884;-15.199;-7.674;-3.129;-23.879;-6.072;-6.519;-9.127
2338689.979;-11.735;-16.131;-7.078;-3.986;-21.942;-9.388;-10.282;-11.027
2338689.987;-11.921;-16.876;-8.456;-3.725;-24.401;-9.760;-10.878;-10.803
2338689.995;-11.213;-15.907;-7.078;-0.671;-23.432;-8.456;-11.027;-10.468
2338690.003;-10.952;-15.758;-5.327;-0.112;-22.165;-4.657;-7.674;-6.855
2338690.011;-11.399;-16.913;-5.364;-2.496;-20.005;-6.557;-9.052;-7.190
2338690.019;-9.947;-15.683;-3.763;-1.900;-20.415;-9.164;-11.437;-9.574
2338690.027;-11.139;-17.397;-5.066;-2.831;-24.065;-13.597;-14.417;-13.933
2338690.035;-6.035;-13.448;-0.671;0.708;-19.781;-13.262;-13.523;-14.193
2338690.043;-0.447;-8.978;4.545;4.396;-12.517;-9.984;-9.425;-12.815
2338690.051;5.290;-2.012;9.127;10.356;-9.872;-1.453;-2.198;-4.880
2338690.059;1.825;-4.508;4.917;6.929;-12.591;-1.341;-3.837;-4.247
2338690.039;-8.568;-15.534;-6.817;-4.061;-23.469;-12.554;-14.827;-13.113
2338690.047;-7.339;-14.752;-5.700;-3.092;-21.346;-13.039;-15.423;-12.629
2338690.055;-2.459;-8.829;-1.937;0.782;-15.162;-9.425;-12.293;-11.027
2338690.063;0.373;-4.955;-1.863;3.166;-13.374;-6.221;-9.574;-9.127
2338690.071;-6.370;-9.760;-9.947;-1.714;-24.438;-8.121;-12.368;-10.692
2338690.079;-4.247;-7.488;-6.147;-0.857;-18.030;-3.316;-7.786;-5.662
2338690.087;3.129;0.298;-1.714;6.221;-14.640;1.825;-2.086;-0.261
2338690.095;7.823;4.359;1.974;9.537;-11.772;5.849;2.608;3.725
2338690.103;13.374;9.872;7.041;15.944;-6.817;11.809;7.488;8.196
2338690.111;11.176;8.009;5.253;13.113;-7.488;10.319;4.880;7.115
2338690.119;7.674;4.955;2.049;9.760;-10.170;6.594;2.831;3.278
2338690.127;8.158;5.998;2.272;10.543;-9.537;5.588;4.657;2.943
2338690.135;4.172;2.161;-0.671;7.264;-12.442;1.341;2.347;-1.937
2338690.143;2.123;-2.123;-0.559;4.843;-10.878;0.000;-1.565;-2.831
2338690.151;3.204;-0.149;0.931;6.668;-12.480;-0.075;-3.725;-3.353
2338690.159;2.496;-1.006;0.633;6.072;-12.890;0.335;-2.459;-4.396
2338690.167;1.341;-0.820;0.782;6.631;-10.580;2.719;0.894;-2.310
2338690.175;-7.227;-9.201;-7.376;-0.522;-20.154;-4.098;-6.184;-8.903
2338690.183;-10.356;-12.927;-10.133;-2.533;-23.134;-8.568;-9.425;-12.554
2338690.191;-8.158;-11.250;-7.525;-0.820;-20.228;-9.686;-10.803;-13.597
2338690.199;-5.774;-9.015;-5.066;0.857;-15.758;-7.786;-9.425;-12.256
2338690.207;-1.825;-6.407;-2.161;4.582;-12.890;-1.937;-4.098;-7.451
2338690.215;3.763;-1.676;2.645;8.717;-7.488;7.227;4.135;0.782
2338690.223;4.917;1.378;3.874;11.697;-8.419;13.076;9.425;5.886
2338690.190;2.980;-1.304;3.986;9.760;-5.811;12.517;8.419;5.104
2338690.198;-15.162;-19.334;-15.311;-8.829;-27.604;-6.519;-10.841;-11.511
2338690.206;-10.617;-14.231;-9.835;-4.843;-22.240;-4.768;-8.531;-8.680
2338690.214;-2.421;-6.631;-1.378;2.347;-13.188;3.651;0.820;-1.118
2338690.222;8.307;3.427;8.047;13.262;-3.427;13.001;11.325;8.382
2338690.230;8.345;3.427;7.786;12.778;-4.582;11.399;10.915;7.786
2338690.238;-7.711;-13.597;-7.190;-5.700;-18.105;-5.551;-4.172;-9.052
2338690.246;-12.219;-19.222;-12.442;-12.554;-24.438;-13.150;-12.293;-14.640
2338690.254;-17.881;-24.624;-17.025;-18.366;-27.344;-18.366;-20.452;-17.956
2338690.262;-23.432;-29.020;-23.022;-21.420;-34.273;-24.736;-27.828;-22.203
2338690.270;-22.165;-26.412;-22.016;-18.291;-32.857;-23.320;-24.885;-22.165
2338690.278;-21.495;-24.848;-20.303;-17.174;-30.212;-19.707;-18.813;-21.383
2338690.286;-23.544;-26.673;-23.469;-19.781;-34.422;-17.472;-16.019;-21.495
2338690.294;-14.678;-18.589;-14.529;-11.139;-24.699;-8.121;-7.600;-14.603
2338690.302;-6.668;-11.027;-5.849;-3.651;-17.881;-3.725;-4.135;-9.425
2338690.310;-5.402;-9.313;-5.364;-2.794;-17.323;-4.321;-3.800;-8.494
2338690.318;-4.396;-8.121;-4.396;-2.496;-16.503;-6.892;-7.674;-10.878
2338690.326;-0.447;-4.880;1.267;0.075;-11.586;-5.886;-10.319;-8.419
2338690.334;-1.863;-7.488;-0.298;-0.820;-14.789;-6.109;-10.803;-8.121
2338690.342;-6.333;-9.760;-6.780;-6.035;-22.277;-11.809;-14.529;-15.087
2338690.350;-3.614;-7.376;-4.768;-3.241;-18.440;-9.537;-11.511;-12.666
2338690.358;-0.894;-4.582;-1.714;0.559;-16.727;-5.104;-7.711;-8.121
2338690.366;6.333;1.676;5.923;7.860;-8.643;0.298;-2.384;-4.098
2338690.374;10.096;3.800;10.692;9.984;-3.800;4.061;0.931;-1.229
2338690.326;7.525;0.969;8.866;7.115;-3.725;1.304;-1.043;-3.614
2338690.334;3.278;-1.416;3.166;4.210;-8.941;-5.402;-4.992;-11.399
2338690.342;4.210;-0.708;2.794;4.545;-12.070;-2.570;-1.192;-11.027
2338690.350;4.992;0.410;2.868;5.811;-14.231;-1.714;-0.298;-11.399
2338690.358;7.898;2.347;6.407;7.898;-10.021;0.112;1.416;-6.519
2338690.366;5.588;-0.633;5.253;3.874;-8.456;-0.894;-3.129;-3.912
2338690.374;3.502;-3.278;4.731;-0.894;-10.245;1.043;-4.657;1.416
2338690.382;6.966;-1.155;9.537;0.820;-3.688;5.178;-1.863;5.476
2338690.390;6.855;0.782;8.531;3.241;-7.004;8.382;0.782;6.221
2338690.398;6.072;0.186;7.711;2.608;-6.594;6.817;-2.943;2.831
2338690.406;3.986;-1.974;5.551;1.900;-10.505;3.986;-7.004;0.559
2338690.414;-0.186;-5.886;2.086;-1.565;-13.560;1.043;-8.978;-1.118
2338690.422;-5.923;-11.474;-4.210;-5.960;-22.128;-3.539;-12.182;-6.147
2338690.430;-7.041;-12.480;-5.588;-6.184;-22.687;-4.508;-10.543;-9.425
2338690.438;-4.955;-11.139;-3.055;-3.614;-18.254;-1.267;-4.023;-7.749
2338690.446;-11.027;-16.019;-9.313;-6.780;-26.487;-5.551;-8.047;-12.405
2338690.454;-11.809;-15.795;-9.052;-6.929;-26.487;-5.141;-8.792;-10.356
2338690.462;-11.064;-17.360;-7.413;-9.164;-23.618;-5.700;-10.505;-7.898
2338690.470;-9.835;-14.268;-6.072;-9.947;-21.607;-8.829;-13.784;-7.488
2338690.478;-4.135;-8.680;0.186;-2.980;-17.099;-6.929;-11.548;-6.221
2338690.486;-7.488;-11.921;-3.390;-4.023;-21.383;-12.256;-15.609;-14.827
2338690.494;-0.671;-6.482;3.576;1.639;-13.225;-10.580;-13.225;-13.746
2338690.502;-1.788;-8.084;2.310;0.484;-16.727;-10.133;-13.076;-12.629
2338690.510;-1.043;-8.084;2.347;0.633;-17.472;-13.001;-15.683;-16.913
2338690.567;2.123;-4.470;4.470;4.955;-14.491;-13.895;-15.236;-21.085
2338690.575;4.396;-1.192;6.929;8.047;-10.841;-13.001;-13.635;-19.632
2338690.583;8.680;3.986;12.405;12.629;-7.078;-6.817;-8.196;-10.915
2338690.591;-1.863;-8.605;2.794;-0.447;-16.578;-14.454;-17.844;-16.913
2338690.599;-4.880;-13.523;-0.373;-3.688;-17.956;-14.342;-20.340;-16.131
2338690.607;3.055;-4.768;6.668;4.135;-9.201;-5.737;-11.586;-8.643
2338690.615;11.623;5.588;14.044;14.231;-3.949;0.373;-4.247;-3.204
2338690.623;6.929;1.900;10.692;11.176;-6.370;-6.817;-11.139;-8.605
2338690.631;3.241;-1.751;7.600;7.302;-9.201;-10.841;-14.640;-11.288
2338690.639;1.416;-3.800;5.625;5.178;-10.096;-12.182;-15.125;-12.703
2338690.647;1.192;-3.092;5.551;5.476;-11.735;-9.052;-10.878;-12.591
2338690.655;-0.224;-5.178;4.545;2.384;-11.623;-9.835;-11.176;-14.268
2338690.663;-1.825;-7.525;3.502;-1.267;-10.096;-14.007;-15.460;-16.280
2338690.671;-4.284;-10.170;0.633;-3.800;-16.391;-19.260;-21.122;-19.856
2338690.679;-9.499;-15.125;-3.912;-8.568;-21.383;-20.452;-23.730;-19.893
2338690.687;-14.305;-18.999;-7.562;-13.411;-25.295;-15.832;-22.165;-14.491
2338690.695;-7.860;-12.033;0.112;-6.929;-16.652;-9.835;-17.285;-8.680
2338690.703;-4.284;-10.356;5.178;-6.296;-12.629;-13.113;-21.346;-10.692
2338690.711;-6.929;-12.964;1.714;-11.139;-15.758;-18.217;-25.928;-14.231
2338690.719;-4.582;-10.617;1.341;-9.760;-17.136;-17.844;-23.954;-15.534
2338690.727;-7.413;-13.039;-1.416;-12.368;-20.564;-19.185;-21.346;-18.515
2338690.735;-4.731;-8.717;0.596;-6.855;-15.050;-10.356;-10.803;-11.921
2338690.743;-0.075;-2.049;2.198;-0.559;-13.486;-2.794;-3.725;-6.557
2338690.751;-0.559;-2.086;0.633;-3.092;-12.256;-3.204;-5.476;-5.811
2338690.804;-3.837;-5.290;-4.098;-8.419;-15.236;-3.763;-8.233;-1.825
2338690.812;-6.445;-8.345;-7.302;-12.107;-17.174;-4.098;-9.574;-0.149
2338690.820;-7.004;-8.792;-8.866;-12.629;-15.497;-3.166;-8.792;1.043
2338690.828;-3.651;-4.284;-5.588;-8.680;-7.302;0.559;-6.072;4.917
2338690.836;-2.570;-0.708;-5.923;-5.253;-9.313;1.453;-5.104;3.204
2338690.844;-1.788;0.000;-7.376;-3.614;-12.927;-0.559;-6.258;1.676
2338690.852;0.112;2.608;-4.880;0.186;-9.760;-2.645;-5.700;0.522
2338690.860;-3.465;-0.596;-7.004;-2.533;-13.039;-8.084;-7.376;-7.078
2338690.868;1.714;4.880;-1.378;3.017;-6.706;-4.768;-0.559;-5.364
2338690.876;1.267;3.353;-1.192;2.459;-6.743;-7.786;-3.763;-7.562
2338690.884;-1.565;-1.416;-3.986;-1.825;-5.662;-10.803;-10.431;-7.637
2338690.892;-4.359;-4.470;-7.525;-4.135;-10.692;-8.903;-10.878;-3.055
2338690.900;-5.476;-4.545;-7.413;-4.992;-10.803;-7.376;-10.654;-1.416
2338690.908;-4.768;-4.321;-6.482;-4.880;-10.692;-8.233;-11.511;-1.714
2338690.916;-6.855;-7.264;-8.382;-8.903;-13.411;-13.560;-17.956;-6.258
2338690.924;-0.112;-0.671;-1.490;-2.049;-6.184;-14.827;-21.346;-4.321
2338690.932;5.662;4.917;3.874;3.837;-3.874;-12.666;-20.079;-2.384
2338690.940;6.109;5.290;4.061;5.551;-3.204;-10.207;-16.689;-4.135
2338690.948;9.798;9.574;8.345;11.437;0.447;-3.092;-7.302;-0.447
2338690.956;11.884;12.517;9.649;15.050;0.298;1.825;-1.229;2.235
2338690.964;13.150;12.666;11.176;14.529;3.688;3.129;0.745;3.465
2338690.972;19.111;18.068;17.136;18.962;10.133;8.531;5.662;10.058
2338690.980;11.362;9.276;10.580;10.207;2.719;6.035;2.459;7.041
2338690.988;6.333;3.427;6.668;5.551;0.000;5.737;2.161;5.774
2338690.985;5.215;2.719;4.992;7.451;-1.341;5.290;3.092;5.588
2338690.993;1.416;-1.676;0.075;3.614;-7.264;-0.075;-3.353;1.267
2338691.001;-4.359;-6.594;-5.066;-2.235;-12.256;-3.316;-6.445;-1.453
2338691.009;-0.596;-2.347;-1.229;1.565;-8.717;-1.416;-3.390;-1.006
2338691.017;0.186;-2.235;-0.037;1.751;-7.115;-4.768;-5.774;-4.023
2338691.025;0.075;-2.459;0.335;1.453;-4.806;-3.986;-4.806;-2.757
2338691.033;-2.533;-4.098;-3.055;0.894;-9.611;-3.837;-5.141;-2.831
2338691.041;-0.894;-2.235;-3.017;2.235;-10.058;-0.708;-3.576;1.639
2338691.049;0.820;0.708;-1.118;5.327;-7.786;0.894;-2.570;3.241
2338691.057;-3.241;-2.608;-5.066;1.565;-13.113;-3.278;-5.513;-1.602
2338691.065;-8.121;-7.041;-9.425;-3.241;-19.222;-5.849;-8.084;-3.055
2338691.073;-11.399;-10.878;-12.554;-7.376;-20.675;-10.133;-13.746;-5.215
2338691.081;-10.990;-11.548;-10.319;-8.903;-16.615;-10.356;-14.529;-3.465
2338691.089;-12.927;-13.709;-12.964;-10.282;-21.085;-13.821;-16.950;-8.456
2338691.097;-12.852;-12.852;-14.529;-8.903;-22.911;-14.752;-14.864;-12.070
2338691.105;-7.376;-7.302;-9.649;-2.906;-19.483;-7.078;-5.886;-7.488
2338691.113;-2.086;-3.427;-5.215;0.224;-14.193;-4.545;-3.539;-6.594
2338691.121;-0.708;-3.725;-3.614;0.373;-10.990;-4.098;-3.763;-5.476
2338691.129;-5.774;-8.568;-9.872;-5.588;-20.489;-9.313;-10.729;-8.829
2338691.137;-9.574;-13.188;-12.629;-11.288;-22.277;-13.560;-14.603;-11.437
2338691.145;-7.339;-11.139;-9.127;-9.015;-16.913;-7.488;-9.984;-4.023
2338691.153;-7.786;-11.995;-9.462;-9.164;-16.093;-2.347;-8.456;2.012
2338691.161;-13.076;-16.466;-15.423;-12.703;-22.687;-1.639;-9.090;1.900
2338691.169;-10.580;-13.001;-12.666;-7.935;-20.042;2.310;-2.719;3.763
2338691.179;-9.574;-11.139;-11.772;-5.774;-19.558;1.155;-0.596;0.671
2338691.187;-3.614;-4.992;-5.364;1.229;-10.617;4.508;3.949;3.651
2338691.195;-6.072;-7.302;-7.451;-0.373;-16.391;0.075;-1.639;1.155
2338691.203;-4.694;-5.588;-4.768;1.453;-15.087;-1.751;-4.731;1.974
2338691.211;-10.766;-13.039;-8.121;-5.998;-16.913;-10.729;-14.678;-4.247
2338691.219;-13.597;-16.168;-11.027;-8.419;-18.068;-12.554;-17.583;-5.066
2338691.227;-14.231;-16.503;-12.815;-9.090;-19.632;-10.990;-17.509;-5.253
2338691.235;-13.337;-15.944;-14.603;-8.978;-22.687;-9.760;-17.472;-4.359
2338691.243;-4.731;-6.817;-6.743;-0.186;-15.907;-3.502;-10.170;1.416
2338691.251;1.006;-0.633;-2.235;5.588;-11.995;0.484;-2.161;2.086
2338691.259;2.496;0.745;-0.037;8.047;-10.096;2.719;1.267;2.012
2338691.267;1.900;0.298;1.378;7.115;-7.190;5.662;3.465;4.433
2338691.275;-0.410;-2.459;-1.192;3.353;-10.766;4.247;1.118;3.129
2338691.283;1.751;-2.719;0.782;3.763;-7.860;3.874;0.186;5.066
2338691.291;2.347;-4.284;1.974;3.576;-5.588;6.035;1.267;8.158
2338691.299;-2.682;-8.270;-2.272;0.447;-9.760;5.849;-0.037;7.562
2338691.307;-6.445;-10.356;-5.290;-2.310;-13.672;6.482;-2.086;9.984
2338691.315;-1.751;-6.706;-0.559;0.522;-9.276;7.153;-1.788;11.139
2338691.323;1.974;-4.545;4.321;2.459;-2.831;6.445;-1.676;9.462
2338691.331;3.986;-2.757;5.141;4.694;-2.123;8.009;0.708;9.499
2338691.339;2.608;-3.651;2.459;4.657;-7.227;7.190;1.155;6.370
2338691.347;0.112;-6.817;0.410;2.980;-9.686;7.413;2.533;7.190
2338691.355;-5.178;-11.958;-4.135;-1.192;-11.809;6.221;0.559;7.488
2338691.363;-3.874;-8.866;-2.347;1.118;-10.170;4.768;0.261;4.880
2338691.495;-2.719;-7.041;-1.974;1.453;-10.058;1.900;-1.527;2.198
2338691.503;-3.390;-7.264;-2.384;1.714;-10.617;-1.118;-3.539;-2.608
2338691.511;-2.384;-6.519;0.075;2.421;-9.127;-1.788;-3.166;-2.533
2338691.519;-0.671;-3.837;1.751;5.662;-7.637;-2.235;-4.619;-1.155
2338691.527;1.080;-1.341;3.353;8.158;-4.023;-2.198;-4.359;-0.745
2338691.535;-3.539;-5.439;-2.123;4.657;-11.027;-6.557;-7.600;-5.737
2338691.543;-5.700;-7.637;-3.837;0.633;-11.474;-10.505;-11.064;-9.611
2338691.551;-0.335;-3.576;1.751;3.837;-7.004;-7.227;-8.382;-5.923
2338691.559;5.849;0.969;8.270;9.052;-1.304;-4.433;-4.657;-2.086
2338691.567;6.780;1.900;9.164;9.574;-1.229;-7.115;-7.115;-3.316
2338691.575;10.729;6.035;13.076;13.411;2.906;-6.817;-6.482;-2.906
2338691.583;12.182;7.525;15.236;14.603;4.470;-7.898;-7.488;-4.768
2338691.591;13.635;9.201;18.217;14.789;6.817;-7.674;-9.835;-2.980
2338691.599;9.313;3.465;14.156;9.052;4.396;-13.597;-16.652;-7.413
2338691.607;6.445;0.000;10.580;6.035;2.347;-12.815;-15.013;-6.258
2338691.615;3.316;-2.533;6.184;2.086;-0.484;-10.841;-11.846;-4.768
2338691.623;-1.043;-6.258;-1.155;-2.310;-9.649;-12.107;-12.480;-5.588
2338691.631;1.639;-2.235;-1.900;0.820;-8.754;-9.388;-9.090;-2.570
2338691.639;3.539;0.633;-3.129;4.135;-9.760;-7.711;-7.264;-2.608
2338691.647;7.264;6.184;-0.112;7.153;-4.694;-2.943;-2.645;0.782
2338691.655;8.456;8.084;-1.080;8.717;-4.172;-1.937;-0.820;1.080
2338691.663;6.519;5.998;-4.359;6.370;-7.041;-2.831;-1.900;-0.671
2338691.671;5.700;5.774;-4.508;6.743;-8.494;-2.533;-3.166;-1.341
2338691.679;0.857;0.969;-7.898;2.384;-9.425;-6.519;-8.605;-4.508
2338691.703;1.937;2.235;-5.364;3.576;-5.402;-4.172;-5.700;-1.080
2338691.711;1.192;2.384;-4.545;2.943;-4.210;-6.966;-5.253;-3.912
2338691.719;-1.863;0.000;-8.270;0.037;-7.376;-10.505;-6.668;-7.339
2338691.727;-5.141;-3.465;-12.070;-1.937;-10.692;-12.293;-8.568;-8.829
2338691.735;-14.342;-11.772;-19.930;-9.425;-18.962;-14.938;-12.591;-10.841
2338691.743;-12.927;-10.580;-17.919;-8.270;-19.372;-10.654;-9.313;-6.109
2338691.751;-8.978;-5.290;-14.938;-4.210;-16.317;-9.872;-9.425;-3.539
2338691.759;-1.490;2.421;-7.562;3.465;-7.339;-8.941;-8.829;-1.155
2338691.767;-0.931;3.576;-6.407;5.476;-6.929;-9.015;-10.543;-2.235
2338691.775;3.092;8.866;-2.459;11.027;-3.651;-5.104;-8.196;1.118
2338691.783;2.868;9.462;-2.645;10.841;-4.098;-2.831;-4.880;2.123
2338691.791;3.614;10.431;-1.267;13.299;-1.676;0.820;0.261;4.023
2338691.799;4.843;10.803;-0.857;14.752;-1.043;1.788;1.974;5.141
2338691.807;-3.390;4.359;-9.276;7.190;-9.686;-5.551;-4.731;-2.496
2338691.815;-5.029;3.129;-10.654;4.545;-11.027;-8.754;-6.109;-6.035
2338691.823;-3.465;4.210;-9.872;5.364;-10.170;-8.196;-5.253;-5.588
2338691.831;1.080;9.090;-5.439;10.580;-6.743;-6.892;-5.178;-2.943
2338691.839;3.204;11.362;-2.421;13.001;-2.272;-4.396;-3.912;0.559
2338691.847;11.213;18.813;4.955;20.787;3.465;3.800;3.316;9.052
2338691.855;11.213;17.211;5.141;18.552;3.502;1.602;1.788;4.917
2338691.863;13.970;19.297;9.313;19.781;8.270;1.527;2.161;3.725
2338691.871;10.468;16.987;5.104;17.695;2.980;0.000;-1.341;2.496
2338691.879;6.370;12.778;1.676;14.305;1.080;-0.820;-2.608;2.235
2338691.887;3.614;9.947;-1.639;9.686;-2.123;-1.863;-2.533;0.559
2338691.840;0.894;5.700;-3.986;4.657;-4.172;-4.545;-4.172;-2.123
2338691.848;1.900;6.594;-1.714;6.035;-1.304;-2.608;-0.708;0.633
2338691.856;-2.757;2.682;-6.370;2.161;-7.413;-5.811;-3.800;-1.974
2338691.864;-2.719;2.049;-7.786;0.596;-9.239;-7.115;-4.955;-1.192
2338691.872;-3.390;0.969;-9.127;-1.751;-9.649;-8.941;-8.009;-3.465
2338691.880;-4.731;-1.267;-10.505;-3.539;-10.207;-8.456;-10.096;-0.484
2338691.888;-1.043;2.645;-6.966;-0.298;-5.066;0.782;-2.086;7.749
2338691.896;6.668;10.692;0.224;8.382;2.943;9.723;8.345;14.082
2338691.904;10.356;15.013;3.949;13.113;4.545;9.649;9.872;11.325
2338691.912;14.827;19.036;8.754;17.323;8.084;8.643;11.548;7.674
2338691.920;16.838;21.048;11.660;18.999;13.001;7.711;13.150;6.631
2338691.928;10.952;17.211;6.594;14.305;9.984;7.823;11.399;8.121
2338691.936;2.496;10.133;-1.304;6.892;-0.633;2.943;5.849;6.445
2338691.944;-0.894;7.041;-4.619;3.912;-3.837;-0.298;1.565;4.359
2338691.952;-2.161;6.780;-6.855;3.017;-6.743;0.037;0.373;5.551
2338691.960;-2.235;5.625;-6.482;1.825;-4.135;-0.224;-1.676;6.035
2338691.968;0.410;7.488;-3.316;3.241;-1.304;0.484;-1.714;5.662
2338691.976;1.788;8.196;-2.570;3.576;-0.224;0.894;-0.894;5.141
2338691.984;-0.261;5.923;-5.998;1.341;-5.253;1.416;-0.149;4.917
2338691.992;1.267;6.594;-4.284;2.533;-3.353;2.198;2.496;4.657
2338692.000;7.413;13.448;1.565;8.829;3.949;5.551;8.456;6.631
2338692.008;5.849;12.927;-0.075;7.786;2.086;4.880;6.706;5.625
2338692.016;1.639;7.935;-4.396;3.725;-2.161;3.278;3.763;4.023
2338692.024;2.943;9.276;-2.272;4.470;1.416;5.029;5.215;5.215
2338691.987;6.445;13.039;2.496;8.754;5.700;6.892;7.339;7.674
2338691.995;2.496;9.090;-1.676;5.588;1.825;4.023;3.390;6.035
2338692.003;0.596;6.445;-3.390;2.645;-1.043;1.565;1.118;4.619
2338692.011;6.668;11.325;3.651;8.494;5.700;4.508;5.439;7.153
2338692.019;2.459;6.892;0.037;3.800;0.596;0.708;3.055;2.198
2338692.027;4.210;9.649;1.341;6.184;2.831;1.304;2.831;1.490
2338692.035;6.035;11.958;1.118;8.494;0.857;-0.522;-0.410;-1.080
2338692.043;5.588;10.915;0.075;6.966;-0.671;-4.992;-4.619;-6.482
2338692.051;6.855;12.293;0.894;9.127;-0.075;-1.937;-2.272;-3.837
2338692.059;10.990;16.540;5.886;13.374;2.868;3.949;2.421;2.608
2338692.067;16.391;21.197;10.543;16.838;7.525;8.941;6.966;8.047
2338692.075;17.881;21.718;11.288;18.068;10.692;8.792;6.445;7.823
2338692.083;18.999;24.550;14.007;20.228;14.827;6.631;5.402;5.700
2338692.091;21.197;26.561;15.981;23.544;15.423;2.496;4.023;2.943
2338692.099;21.346;26.152;15.758;23.581;13.784;-2.086;1.341;-0.075
2338692.107;24.103;27.791;20.154;24.699;18.701;1.080;3.539;2.868
2338692.115;28.498;31.963;24.177;29.393;22.911;4.992;5.662;5.700
2338692.123;32.224;36.210;27.306;32.447;23.097;3.763;4.098;5.588
2338692.131;27.977;31.143;22.464;27.679;19.297;-4.545;-3.427;-1.267
2338692.139;26.934;29.318;21.681;26.412;20.415;-5.029;-3.912;-0.969
2338692.147;25.257;27.753;19.222;24.587;18.068;-5.700;-4.470;-2.570
2338692.155;25.108;28.014;18.887;25.220;18.440;-6.519;-4.917;-3.390
2338692.163;26.822;30.771;21.197;29.020;21.867;-4.321;-2.049;-2.831
2338692.171;26.822;30.100;21.532;28.647;20.936;-1.863;0.857;-1.676
2338692.125;19.819;22.613;14.342;22.314;11.884;-1.080;1.453;-2.272
2338692.133;13.970;16.801;9.835;15.572;10.654;-1.341;-0.708;-2.198
2338692.141;14.380;17.695;10.021;14.976;10.654;0.559;0.037;-0.224
2338692.149;15.274;17.546;9.798;13.784;7.898;1.751;1.080;1.118
2338692.157;15.609;17.509;11.511;14.491;12.740;1.229;-1.080;2.123
2338692.165;13.448;17.323;8.643;15.460;7.860;0.186;-2.719;0.894
2338692.173;15.162;20.042;10.803;17.583;8.680;1.602;-2.943;3.129
2338692.181;20.117;23.730;16.317;21.532;15.944;2.794;-2.868;5.141
2338692.189;21.234;23.842;19.334;20.638;20.936;1.751;-2.310;4.023
2338692.197;17.546;18.589;16.429;14.640;17.583;0.782;-2.645;1.602
2338692.205;15.683;16.540;15.087;12.703;16.168;3.614;1.155;5.141
2338692.213;11.139;11.399;9.462;7.562;8.717;2.533;0.633;4.731
2338692.221;9.686;10.878;6.929;7.413;7.041;1.863;0.335;5.066
2338692.229;7.935;9.052;6.445;7.153;6.296;-0.298;0.335;2.757
2338692.237;5.364;5.886;4.284;5.364;3.055;-3.129;-1.751;0.037
2338692.245;4.917;4.657;3.688;3.576;1.639;-4.023;-2.384;-0.112
2338692.253;3.688;3.874;0.894;3.651;-2.347;-4.247;-1.080;-2.235
2338692.261;5.327;7.078;2.049;8.568;-2.384;-2.198;0.782;-1.267
2338692.269;1.416;3.017;0.745;3.166;-3.055;-4.321;-2.123;-2.272
2338692.277;1.565;1.080;0.931;-0.075;-3.129;-4.955;-4.545;-1.527
2338692.285;2.123;1.751;0.037;0.931;-3.763;-4.843;-5.625;-0.782
2338692.293;2.459;4.321;-1.304;3.241;-4.061;-0.410;-1.118;2.645
2338692.301;3.204;6.631;-2.161;5.588;-4.582;1.118;0.559;3.800
2338692.309;3.204;7.674;-3.092;4.806;-6.109;-1.714;-0.857;1.900
2338692.335;3.390;8.605;-4.880;3.688;-7.488;-2.794;-0.708;-0.224
2338692.343;0.633;5.960;-8.270;-0.373;-10.319;-4.582;-1.937;-3.390
2338692.351;0.075;5.104;-9.388;-2.906;-7.413;-4.545;-1.825;-3.166
2338692.359;-4.284;1.192;-15.721;-7.749;-14.231;-5.588;-2.347;-4.992
2338692.367;-7.972;-0.671;-21.942;-10.058;-22.501;-5.849;-1.304;-8.382
2338692.375;-8.605;0.037;-21.681;-8.792;-20.117;-3.986;0.373;-7.078
2338692.383;-7.935;1.267;-20.228;-7.041;-17.323;-1.155;3.949;-3.353
2338692.391;-4.433;4.955;-16.727;-2.868;-13.486;-1.751;5.551;-2.868
2338692.399;-6.035;3.576;-19.111;-3.316;-16.615;-6.631;-0.298;-7.302
2338692.407;-2.831;7.004;-16.242;1.714;-15.609;-7.600;-0.633;-8.568
2338692.415;-3.614;6.668;-17.360;2.161;-15.423;-9.388;-1.974;-8.941
2338692.423;-2.161;9.537;-15.236;3.874;-12.107;-7.562;-1.602;-5.364
2338692.431;-8.680;4.470;-21.048;-1.006;-17.546;-10.692;-4.098;-7.227
2338692.439;-13.411;0.782;-25.332;-3.204;-21.420;-13.560;-6.631;-9.127
2338692.447;-6.780;6.780;-17.658;3.502;-14.044;-6.929;0.224;-4.359
2338692.455;-1.416;11.325;-11.809;7.562;-9.984;-0.596;7.115;-0.745
2338692.463;-4.023;8.680;-14.454;5.066;-14.007;2.198;10.878;-1.229
2338692.471;-5.178;6.780;-14.044;4.023;-10.841;1.490;10.766;-1.900
2338692.479;-6.855;5.774;-14.566;1.006;-11.027;-5.402;2.831;-6.147
2338692.487;-9.127;1.863;-15.236;-3.614;-12.852;-8.568;-2.570;-7.302
2338692.495;-6.333;3.539;-12.331;-1.900;-11.288;-4.955;-0.335;-2.719
2338692.503;0.782;9.425;-5.104;3.725;-2.012;-0.782;2.384;1.565
2338692.511;4.470;11.921;-1.863;6.780;2.384;0.224;4.061;2.868
2338692.519;0.484;8.717;-5.774;4.023;-2.235;-3.241;1.937;0.633
2338692.574;-2.980;5.178;-8.196;-0.522;-4.880;-4.396;1.080;-0.075
2338692.582;0.969;7.637;-2.943;2.272;1.229;-0.596;5.998;3.651
2338692.590;-1.155;5.551;-4.396;0.559;0.931;-1.825;6.482;1.378
2338692.598;-1.788;4.508;-5.104;-0.745;1.863;-1.006;8.754;1.341
2338692.606;-2.012;5.141;-6.780;0.373;-3.204;4.023;13.039;4.992
2338692.614;-2.645;3.800;-7.153;-1.304;-4.210;5.402;13.895;4.359
2338692.622;-5.066;1.490;-10.356;-3.837;-6.519;-0.633;5.476;0.782
2338692.630;-11.548;-3.465;-16.578;-10.096;-10.654;-10.468;-6.407;-5.700
2338692.638;-11.213;-3.092;-17.211;-10.543;-11.735;-10.617;-8.270;-2.980
2338692.646;-7.376;-0.931;-14.119;-8.047;-9.276;-11.250;-9.984;-2.272
2338692.654;-5.811;0.112;-12.405;-5.774;-7.823;-11.846;-10.319;-2.757
2338692.662;-3.614;2.421;-9.574;-3.986;-5.290;-7.413;-6.147;0.149
2338692.670;-3.576;4.545;-8.270;-3.204;-4.061;-4.172;-2.496;0.373
2338692.678;-1.378;6.519;-5.476;-1.825;-1.155;-3.316;-1.304;-1.229
2338692.686;-0.857;6.966;-6.109;-1.863;-3.800;-1.378;2.161;-0.298
2338692.694;3.353;10.654;-0.373;2.608;4.731;4.955;10.058;4.992
2338692.702;-3.241;4.470;-7.302;-2.980;-3.427;3.055;7.451;2.384
2338692.710;-6.333;2.682;-10.915;-4.470;-7.190;6.333;8.345;5.774
2338692.718;-3.390;6.109;-6.557;-0.671;-1.639;8.978;9.723;8.568
2338692.726;-3.576;4.992;-8.009;-0.224;-3.874;5.327;5.625;5.551
2338692.734;-3.763;3.763;-8.531;-1.341;-3.204;1.192;3.241;1.267
2338692.742;-4.992;2.645;-8.047;-2.421;-2.421;-2.347;0.969;0.261
2338692.750;-8.307;-1.043;-10.729;-5.439;-4.321;-1.080;0.671;2.719
2338692.758;-8.754;-1.304;-10.990;-6.221;-5.253;2.384;3.539;5.513
2338692.739;-2.831;5.290;-6.370;0.484;-1.155;7.823;8.754;9.276
2338692.747;4.508;11.660;1.565;6.445;7.302;10.990;13.448;10.096
2338692.755;5.327;10.990;3.055;6.258;8.345;11.176;13.933;10.468
2338692.763;2.123;6.407;-0.857;2.384;4.284;7.823;9.798;8.419
2338692.771;2.682;5.588;-0.447;0.484;6.147;7.302;8.456;8.866
2338692.779;6.445;9.388;1.825;3.353;5.327;10.356;12.070;10.133
2338692.787;8.345;11.884;3.725;6.743;6.892;14.529;16.689;12.331
2338692.795;5.178;9.537;0.410;5.104;1.751;13.039;13.709;10.431
2338692.803;5.960;10.878;1.304;8.047;2.310;13.113;13.560;10.692
2338692.811;9.090;13.039;6.445;9.239;8.605;11.437;12.591;8.270
2338692.819;12.591;16.280;9.947;12.144;10.468;11.548;12.219;8.196
2338692.827;16.540;19.260;13.821;15.646;14.082;15.907;16.838;12.405
2338692.835;20.042;22.911;16.764;19.409;17.360;21.495;22.426;16.280
2338692.843;17.919;21.644;13.039;18.664;12.703;21.309;22.426;14.976
2338692.851;16.950;21.234;11.846;19.073;10.692;22.724;24.773;15.125
2338692.859;14.491;18.775;9.611;16.727;7.190;19.297;23.246;13.001
2338692.867;14.268;17.062;10.915;14.454;9.798;15.497;20.228;10.729
2338692.875;14.231;16.242;10.654;13.337;9.499;13.486;15.795;10.580
2338692.883;10.394;12.666;7.302;10.058;6.184;11.437;10.431;9.574
2338692.891;14.119;15.944;11.139;13.784;11.846;15.236;12.144;11.511
2338692.899;15.758;18.626;13.374;17.099;13.076;17.881;15.646;13.001
2338692.907;15.050;18.738;12.740;18.142;10.207;17.434;16.615;11.772
2338692.915;15.013;18.366;13.523;17.025;12.927;16.354;15.683;10.803
2338692.923;13.523;17.472;12.144;17.174;13.150;15.646;16.727;10.580
2338692.874;15.087;18.552;13.337;18.999;13.672;17.546;18.924;13.709
2338692.882;14.864;17.621;14.305;17.770;15.087;13.970;15.832;11.735
2338692.890;6.780;9.276;6.370;9.649;5.513;7.823;9.537;6.333
2338692.898;5.327;8.047;4.992;8.866;4.396;5.998;6.892;3.912
2338692.906;11.250;12.852;11.884;12.517;11.548;6.706;5.886;6.519
2338692.914;12.964;13.672;13.150;12.591;11.437;4.210;2.719;4.731
2338692.922;10.058;10.282;10.841;8.829;9.798;3.204;1.565;3.241
2338692.930;4.433;5.476;5.551;4.321;5.513;0.484;-0.931;1.043
2338692.938;8.717;9.872;8.605;9.835;4.508;4.545;3.092;5.178
2338692.946;11.213;12.815;10.133;13.597;4.992;2.496;2.868;3.427
2338692.954;10.952;11.846;11.548;12.591;8.941;0.745;3.241;1.490
2338692.962;9.127;10.692;9.052;11.586;4.917;2.012;4.880;1.602
2338692.970;2.682;4.172;1.974;6.035;-1.639;1.751;4.731;1.118
2338692.978;-3.502;-2.384;-3.166;0.000;-4.768;3.874;6.445;2.272
2338692.986;-6.258;-4.210;-5.886;-0.857;-7.525;2.198;5.625;1.602
2338692.994;-2.868;-1.267;-2.272;2.272;-5.066;1.192;4.284;1.527
2338693.002;-0.447;0.037;-0.633;3.390;-3.763;-1.080;2.533;-0.671
2338693.010;2.086;3.614;1.229;6.445;-1.229;-0.447;4.247;-0.261
2338693.018;1.937;3.949;0.857;5.178;-2.608;-2.943;1.974;-2.235
2338693.026;2.161;3.166;1.490;5.029;-2.272;-1.974;1.341;-0.708
2338693.034;11.288;11.250;10.543;14.901;7.674;3.353;7.488;5.849
2338693.042;20.079;20.936;18.775;25.108;15.087;10.282;15.572;13.523
2338693.050;15.981;17.993;16.578;20.750;13.895;10.356;15.013;13.262
2338693.058;3.651;4.396;4.396;5.737;-0.037;2.533;4.992;4.210
2338692.995;11.027;11.921;11.548;13.113;7.376;10.282;10.096;12.070
2338693.003;25.779;26.785;27.120;28.312;23.171;26.077;24.363;27.344
2338693.011;18.179;18.179;19.446;20.191;16.578;16.056;14.044;17.919
2338693.019;8.494;8.605;9.760;9.798;5.551;2.906;3.390;4.694
2338693.027;4.396;5.253;4.806;6.445;-0.335;-1.751;0.596;-0.261
2338693.035;0.931;2.347;2.049;4.508;-3.316;-3.427;-0.112;-2.682
2338693.043;-0.820;0.373;1.602;3.017;-2.570;-3.353;0.373;-2.943
2338693.051;2.943;5.253;3.837;8.643;-2.906;-0.224;3.502;-0.745
2338693.059;6.780;8.568;6.966;13.188;-1.192;-0.969;3.092;-1.900
2338693.067;6.966;8.829;7.413;13.337;-0.931;-0.633;4.508;-0.931
2338693.075;7.674;9.313;7.823;11.958;2.272;1.714;6.817;2.347
2338693.083;6.817;8.978;7.302;10.319;3.539;5.402;8.829;6.929
2338693.091;5.513;6.445;5.811;6.221;4.619;6.258;7.823;9.127
2338693.099;4.135;5.178;2.570;3.688;0.075;3.129;3.688;7.525
2338693.107;8.233;9.052;4.470;6.855;3.427;3.763;4.023;9.462
2338693.115;9.201;11.288;3.949;6.817;4.321;5.551;7.190;11.139
2338693.123;2.272;5.364;-4.843;0.671;-2.980;-1.937;0.484;3.204
2338693.131;1.267;5.737;-7.600;0.931;-6.147;-6.333;-3.390;-0.261
2338693.139;6.557;12.852;-2.831;7.972;-0.484;-1.118;3.017;3.539
2338693.147;7.749;14.864;-1.974;9.872;1.341;3.763;8.121;8.196
2338693.155;7.264;14.901;-2.123;10.319;0.596;7.898;11.288;10.952
2338693.163;9.090;16.876;0.000;13.858;2.794;13.150;15.721;13.635
2338693.171;12.815;20.377;6.109;17.732;12.107;16.391;18.850;15.162
2338693.179;11.623;20.266;4.061;19.185;6.407;15.981;20.266;14.640
2338693.190;9.947;19.334;3.353;18.328;7.562;13.188;18.142;12.368
2338693.198;11.288;20.340;4.582;19.483;6.892;12.964;19.595;11.399
2338693.206;15.683;23.954;9.723;23.022;11.623;16.466;21.420;13.560
2338693.214;16.280;25.444;10.692;25.220;11.027;16.689;20.377;15.199
2338693.222;12.852;22.873;7.413;22.613;9.388;17.583;21.718;16.987
2338693.230;4.806;14.007;0.298;14.715;4.172;15.050;19.036;15.236
2338693.238;1.751;12.144;-2.161;11.362;1.378;15.721;18.142;16.391
2338693.246;7.749;18.217;4.545;16.131;9.537;18.515;19.297;19.260
2338693.254;2.943;13.113;-0.708;11.772;3.278;9.686;10.394;12.256
2338693.262;3.390;14.231;-0.447;12.927;2.496;8.270;10.096;11.288
2338693.270;9.499;19.744;5.513;17.956;7.860;11.437;13.597;13.672
2338693.278;11.958;20.377;8.419;18.626;11.958;12.070;14.603;13.895
2338693.286;16.019;23.693;12.033;22.762;13.821;15.162;18.440;15.274
2338693.294;14.417;21.942;9.872;21.122;10.356;12.293;16.429;11.362
2338693.302;14.082;21.085;9.947;20.638;10.505;12.480;17.136;11.809
2338693.310;17.583;24.661;13.933;24.885;16.317;15.944;21.085;14.864
2338693.318;14.976;22.464;12.778;21.905;16.242;13.821;18.515;15.497
2338693.326;12.256;18.701;11.176;17.323;14.417;9.909;12.405;11.958
2338693.334;15.795;21.346;13.299;20.154;13.709;9.872;12.852;12.070
2338693.342;12.964;17.956;9.499;17.062;6.706;11.139;15.162;12.554
2338693.350;6.929;12.219;2.868;11.437;1.080;10.617;13.523;10.990
2338693.358;5.998;12.927;0.484;11.809;-2.049;10.356;13.113;10.654
2338693.366;4.917;12.591;-0.596;11.474;-1.490;9.015;10.766;9.239
2338693.374;2.533;9.425;-3.986;8.680;-5.923;7.674;9.201;8.456
2338693.489;8.047;14.752;1.751;13.374;-0.335;13.448;17.881;14.417
2338693.497;7.711;14.752;2.421;11.474;0.969;12.293;18.440;13.411
2338693.505;7.525;13.337;2.608;8.494;2.198;11.846;17.025;12.144
2338693.513;12.256;17.732;7.376;12.629;7.413;15.572;19.670;14.752
2338693.521;11.772;16.205;6.966;11.511;6.370;12.442;16.987;12.405
2338693.529;11.288;15.721;7.562;11.101;6.743;9.090;15.795;9.760
2338693.537;12.964;15.758;8.903;11.846;7.711;7.227;11.697;8.605
2338693.545;15.050;19.036;10.915;14.566;8.084;7.488;11.474;10.394
2338693.553;12.591;17.583;9.537;12.070;7.637;8.866;12.293;11.623
2338693.561;6.258;11.995;3.763;5.737;3.874;3.800;6.966;7.115
2338693.569;9.798;14.864;5.849;7.525;2.794;4.582;7.451;8.084
2338693.577;13.821;17.211;9.686;10.021;8.047;8.009;10.915;10.319
2338693.585;16.764;20.117;12.405;14.082;10.543;10.431;13.486;12.591
2338693.593;15.944;18.403;11.548;12.405;9.835;13.039;14.678;13.709
2338693.601;13.746;17.919;8.419;13.746;5.551;16.764;18.440;14.566
2338693.609;7.227;12.890;3.465;9.388;2.347;15.609;18.366;11.921
2338693.617;9.574;15.870;6.184;12.964;5.960;18.738;22.091;15.870
2338693.625;9.090;16.876;3.949;15.572;1.900;18.589;21.681;16.987
2338693.633;8.345;15.348;3.576;14.491;3.017;17.844;21.495;15.199
2338693.641;5.811;10.990;1.229;10.468;0.037;13.150;16.131;10.282
2338693.649;8.903;12.554;5.774;12.182;3.427;13.933;15.795;13.709
2338693.657;9.276;11.623;8.382;11.362;6.147;11.846;14.044;12.778
2338693.665;18.477;18.962;18.440;16.727;17.956;12.070;14.380;14.417
2338693.673;15.087;16.354;13.411;13.486;10.170;8.494;11.027;11.176
2338693.655;17.509;20.266;17.062;18.589;14.901;10.766;14.827;12.815
2338693.663;14.082;17.881;12.033;17.732;7.860;5.998;11.474;7.041
2338693.671;11.325;14.566;8.270;14.715;4.284;1.565;8.680;1.192
2338693.679;6.296;8.643;4.023;8.605;1.751;-2.906;5.066;-1.974
2338693.687;7.153;8.568;6.482;8.382;5.253;-3.763;3.614;-0.782
2338693.695;8.494;10.245;7.674;10.431;6.743;-4.619;2.533;-1.006
2338693.703;3.651;7.264;1.006;7.562;-1.527;-9.015;-1.974;-6.370
2338693.711;4.172;7.972;2.570;8.754;2.123;-9.313;-2.459;-6.855
2338693.719;8.568;9.760;7.935;10.990;5.960;-6.855;0.075;-4.023
2338693.727;12.256;13.560;11.399;14.193;8.531;-5.290;2.533;-2.347
2338693.735;11.027;14.156;10.245;15.348;7.376;-3.539;4.023;-1.788
2338693.743;13.001;15.981;13.150;16.391;13.597;3.316;11.064;3.465
2338693.751;15.125;19.595;14.529;19.036;11.288;11.660;19.781;8.307
2338693.759;14.752;17.770;14.119;18.030;9.947;8.866;14.864;5.476
2338693.767;14.417;16.317;14.715;16.205;12.256;6.668;9.686;4.731
2338693.775;14.007;14.901;15.348;14.491;14.715;4.619;6.221;5.327
2338693.783;4.545;5.290;4.955;5.141;3.353;-5.513;-4.098;-1.676
2338693.791;1.825;2.198;0.857;2.496;0.037;-9.052;-7.041;-4.433
2338693.799;4.619;5.402;3.055;6.668;0.633;-8.345;-5.662;-2.831
2338693.807;9.350;10.245;9.537;11.884;7.860;-4.172;-0.857;-0.149
2338693.815;11.139;10.990;11.101;13.076;8.121;-1.714;3.166;0.373
2338693.823;10.841;10.580;10.654;13.262;9.015;0.335;6.482;0.633
2338693.831;9.313;11.027;8.866;13.523;6.035;0.894;7.562;0.708
2338693.839;8.009;10.245;6.557;11.809;3.055;-2.459;4.172;-3.241
2338693.804;17.621;19.297;17.323;19.446;14.007;1.192;8.158;-0.075
2338693.812;19.819;20.415;18.552;20.675;13.784;0.745;6.482;0.745
2338693.820;18.403;19.185;17.360;19.707;11.586;0.373;3.129;2.086
2338693.828;22.091;21.905;21.085;22.575;16.466;3.539;5.066;5.886
2338693.836;23.283;22.128;23.209;22.389;20.228;-0.037;0.447;4.210
2338693.844;23.954;22.911;23.916;22.873;20.489;-1.155;-1.043;2.682
2338693.852;22.464;22.016;21.569;23.134;16.205;-1.267;-0.075;0.708
2338693.860;26.375;24.214;24.848;25.034;18.887;2.868;3.949;3.017
2338693.868;23.842;19.707;22.203;19.744;16.168;1.304;1.490;0.149
2338693.876;25.183;21.756;24.326;20.899;19.372;1.751;2.496;1.192
2338693.884;20.824;19.409;20.303;17.062;16.391;2.161;3.092;1.378
2338693.892;24.848;23.246;23.656;22.575;19.632;5.215;7.115;5.327
2338693.900;23.022;22.203;21.756;22.240;18.999;2.757;7.339;4.843
2338693.908;22.165;20.601;22.985;20.079;22.352;1.080;6.929;5.215
2338693.916;21.234;18.440;23.618;18.291;22.128;1.453;7.749;7.153
2338693.924;20.303;16.801;23.730;16.727;19.073;3.017;8.643;7.711
2338693.932;20.117;16.168;22.426;15.087;16.913;3.278;7.078;6.482
2338693.940;24.661;20.787;26.114;19.632;21.048;8.233;12.256;9.649
2338693.948;27.344;23.618;28.722;24.065;23.022;14.529;17.881;13.933
2338693.956;25.667;22.538;27.642;24.438;21.756;12.591;15.944;10.282
2338693.964;25.295;22.464;27.381;24.848;20.713;13.560;15.758;11.139
2338693.972;20.303;16.913;22.613;18.887;17.993;10.394;11.884;10.282
2338693.980;17.360;13.560;20.787;14.789;19.111;7.190;7.562;10.096
2338693.988;17.546;13.299;20.787;14.119;17.136;5.737;4.955;10.580
2338693.912;16.019;12.256;18.515;11.548;15.013;6.035;4.545;10.580
2338693.920;13.299;9.760;14.305;6.817;11.325;7.339;6.519;11.027
2338693.928;15.534;12.740;15.497;7.562;14.007;12.182;10.803;15.497
2338693.936;10.058;8.456;8.158;2.906;6.594;11.250;9.499;13.374
2338693.944;6.109;5.551;3.763;0.633;3.725;10.692;10.021;12.778
2338693.952;4.694;4.582;0.373;-1.751;0.261;11.511;10.692;13.337
2338693.960;10.654;9.909;6.631;2.533;9.425;16.838;14.454;18.738
2338693.968;17.732;16.950;13.560;9.462;16.950;20.973;18.962;22.650
2338693.976;15.460;15.125;9.313;7.711;11.176;17.844;17.136;19.446
2338693.984;10.915;11.586;4.731;5.402;7.264;14.491;14.529;16.131
2338693.992;10.096;11.213;5.439;5.327;9.127;13.672;15.348;15.385
2338694.000;9.127;10.617;4.917;4.433;8.419;14.082;16.205;16.093
2338694.008;2.682;3.539;-0.708;-3.241;1.900;12.480;13.076;14.529
2338694.016;-6.594;-6.482;-8.494;-13.150;-3.576;9.015;9.537;9.388
2338694.024;-6.333;-3.576;-7.898;-8.345;-3.502;15.572;15.274;15.199
2338694.032;-4.545;-2.086;-6.519;-4.917;-2.831;18.701;20.675;18.217
2338694.040;-1.490;1.006;-4.247;-0.373;0.671;16.540;22.538;15.236
2338694.048;-8.382;-2.719;-12.033;-3.651;-7.190;4.247;10.543;2.421
2338694.056;-6.594;1.304;-11.064;2.906;-9.611;4.135;9.984;1.565
2338694.064;-5.290;1.639;-8.941;3.017;-6.966;6.333;11.027;5.253
2338694.072;-1.751;4.582;-5.960;5.700;-4.806;14.119;16.056;12.964
2338694.080;0.894;6.668;-3.390;8.233;0.186;18.254;18.813;16.131
2338694.088;-0.037;5.923;-5.700;7.972;-3.055;13.709;15.646;11.101
2338694.096;-1.490;4.321;-8.084;5.476;-4.098;11.660;14.976;9.052
2338694.134;-6.817;-1.192;-13.113;-0.969;-10.841;11.846;15.981;10.170
2338694.142;-9.499;-5.104;-13.858;-6.929;-11.362;10.617;13.746;10.282
2338694.150;-12.815;-10.431;-14.938;-13.337;-10.990;5.588;8.568;6.184
2338694.158;-6.296;-5.029;-7.376;-8.531;-4.172;3.688;6.109;7.004
2338694.166;1.825;2.943;-0.522;0.037;-0.149;3.539;8.233;7.413
2338694.174;7.488;8.717;3.725;7.860;3.725;8.158;13.672;10.617
2338694.182;3.092;4.433;0.522;5.215;1.714;8.494;13.523;9.350
2338694.190;-1.714;-0.075;-3.949;-0.596;-5.029;6.184;11.809;5.625
2338694.198;-3.949;-3.129;-7.935;-3.949;-9.723;3.092;8.009;2.310
2338694.206;-1.043;0.373;-4.321;-0.261;-4.545;4.023;8.047;4.396
2338694.214;-0.522;1.118;-3.502;0.037;-1.602;6.966;9.350;8.047
2338694.222;-1.937;1.155;-6.147;-0.112;-5.476;4.843;8.307;5.700
2338694.230;-1.229;2.049;-5.998;1.267;-6.482;4.284;8.456;3.427
2338694.238;5.253;5.923;1.192;4.433;0.373;6.557;10.133;6.184
2338694.246;7.600;7.451;3.837;6.035;3.129;7.451;9.574;7.004
2338694.254;6.482;6.407;1.788;5.141;0.857;7.525;9.090;6.817
2338694.262;7.302;6.445;2.384;4.917;4.284;10.431;10.952;9.015
2338694.270;6.296;5.998;2.272;6.407;2.086;14.268;13.299;11.697
2338694.278;6.557;5.439;2.645;6.817;2.235;12.219;10.282;11.846
2338694.286;6.743;5.215;2.645;7.227;4.545;6.706;5.774;9.686
2338694.294;9.239;7.153;4.508;9.350;6.445;4.508;4.210;8.568
2338694.302;13.337;11.101;9.127;14.566;10.468;6.929;7.898;11.064
2338694.310;8.345;6.482;6.557;10.803;9.239;4.061;6.147;7.376
2338694.318;5.774;5.588;3.017;11.064;3.166;0.969;3.278;4.359
2338694.378;11.362;11.846;8.009;16.913;10.021;3.725;4.433;6.631
2338694.386;16.056;15.497;11.399;20.303;14.603;4.806;3.614;7.004
2338694.394;16.950;16.801;9.872;22.724;9.425;8.158;7.935;9.350
2338694.402;15.423;14.789;8.866;21.532;9.276;7.637;8.233;7.413
2338694.410;14.268;14.305;8.084;23.209;10.617;10.952;10.543;11.064
2338694.418;9.649;11.437;2.831;20.452;2.347;7.413;5.774;7.898
2338694.426;12.033;12.666;6.631;22.650;8.233;3.800;3.614;4.023
2338694.434;9.798;8.196;6.072;17.919;9.425;-0.633;0.782;1.043
2338694.442;8.382;5.215;4.284;15.981;6.594;-1.304;2.310;-1.118
2338694.450;13.672;10.766;8.233;23.916;9.872;3.204;7.898;1.788
2338694.458;22.314;20.340;16.056;35.167;17.993;3.800;8.829;3.278
2338694.466;35.204;33.043;27.157;48.317;27.418;6.482;10.319;7.190
2338694.474;37.923;35.688;28.871;50.403;26.710;6.929;10.096;9.388
2338694.482;40.233;39.116;30.883;54.687;28.871;7.004;9.313;9.090
2338694.490;49.248;46.752;40.382;64.187;38.259;6.221;9.127;6.668
2338694.498;60.126;57.705;54.166;76.592;52.005;4.023;9.425;4.955
2338694.506;72.494;72.569;64.783;93.132;57.407;7.115;13.262;7.562
2338694.514;81.323;81.174;73.873;103.787;65.230;4.508;10.505;4.806
2338694.522;90.785;90.674;82.217;115.931;71.451;7.860;12.070;7.860
2338694.530;97.603;98.646;88.587;126.585;75.363;10.952;13.150;10.207
2338694.538;113.212;115.260;106.730;144.243;92.238;9.015;11.437;8.307
2338694.546;121.817;124.611;115.149;153.780;96.746;3.949;7.078;3.129
2338694.554;130.571;133.775;125.207;162.497;106.581;2.608;4.806;2.831
2338694.562;138.953;139.996;134.781;167.340;116.006;7.302;8.233;7.227
2338694.570;134.632;135.042;129.677;164.956;110.678;9.574;11.325;9.015
2338694.578;127.442;128.783;124.052;159.442;105.947;6.892;10.654;5.774
2338694.586;125.356;127.144;121.444;156.574;107.437;11.958;15.199;10.170
2338694.594;111.721;112.951;107.735;142.567;96.858;7.488;12.331;6.035
2338694.602;87.060;89.370;85.086;119.098;79.423;0.075;6.631;-0.559
2338694.610;67.838;69.924;64.634;99.912;62.995;-1.900;4.321;-1.825
2338694.618;51.036;53.868;47.088;84.192;49.658;-6.445;-1.155;-5.253
2338694.626;41.835;45.411;38.445;75.325;45.337;-7.488;-4.806;-4.433
2338694.634;33.714;36.359;30.324;66.459;38.892;-10.245;-8.531;-4.843
2338694.642;27.940;29.840;24.736;61.579;36.582;-4.508;-3.166;1.006
2338694.650;21.122;22.948;19.111;54.315;32.894;-0.931;1.006;3.017
2338694.658;10.803;13.225;9.350;43.698;25.257;-7.488;-6.147;-3.427
2338694.666;10.729;14.007;8.084;45.002;22.501;-7.227;-4.880;-3.949
2338694.674;11.884;14.789;9.574;46.603;24.550;-8.717;-5.551;-6.072
2338694.682;5.029;8.307;3.539;40.270;20.750;-8.531;-5.290;-5.774
2338694.690;-0.149;4.098;-1.639;36.880;16.429;1.527;3.316;3.465
2338694.698;2.459;6.929;1.565;41.015;20.452;9.090;9.798;11.586
2338694.706;-5.104;-2.272;-7.153;32.000;12.554;-2.757;-2.719;0.261
2338694.714;-4.917;-2.682;-8.307;31.739;13.188;-3.763;-2.943;-1.118
2338694.722;-6.109;-3.874;-7.488;29.840;17.509;-2.086;-1.453;2.980
2338694.730;-18.291;-16.429;-19.372;18.477;6.929;-4.061;-5.625;1.080
2338694.738;-20.750;-20.228;-23.656;16.913;-0.931;-4.359;-4.955;-2.608
2338694.746;-15.758;-16.019;-19.073;21.979;5.625;-0.037;-0.522;-0.335
2338694.754;-11.846;-12.778;-15.870;24.848;11.809;6.147;5.737;5.513
2338694.719;-12.442;-13.486;-19.409;25.406;6.668;8.792;9.574;6.743
2338694.727;-15.460;-17.658;-23.134;21.383;4.172;13.597;13.523;11.958
2338694.735;-17.211;-20.638;-23.842;19.558;6.407;8.717;8.084;5.439
2338694.743;-20.340;-25.332;-27.418;17.844;4.955;4.806;1.937;1.378
2338694.751;-17.285;-24.065;-23.991;20.079;9.015;3.390;0.410;1.788
2338694.759;-18.999;-26.152;-24.140;18.775;10.096;-1.714;-2.757;-3.427
2338694.767;-18.962;-26.114;-26.077;19.930;6.333;-2.906;-1.900;-4.545
2338694.775;-13.746;-21.160;-23.171;26.040;10.207;-1.825;2.347;-1.937
2338694.783;-5.513;-12.331;-15.907;36.769;20.564;4.284;8.717;4.731
2338694.791;-6.892;-12.442;-18.626;37.365;17.285;9.015;11.027;11.213
2338694.799;-6.258;-13.262;-18.775;37.216;15.385;4.508;6.594;7.786
2338694.807;5.141;-3.278;-7.264;48.727;29.132;11.772;16.540;13.523
2338694.815;1.676;-6.109;-9.872;45.784;29.691;-1.490;3.017;0.335
2338694.823;3.204;-5.364;-9.649;46.268;30.622;-13.337;-9.947;-10.468
2338694.831;8.345;0.484;-6.668;51.633;33.639;-9.425;-5.923;-8.494
2338694.839;6.482;-1.304;-10.207;49.062;32.037;-7.078;-3.465;-6.072
2338694.847;2.757;-4.098;-17.025;47.460;26.599;-5.998;-0.112;-4.098
2338694.855;2.831;-0.931;-17.546;50.366;28.871;2.049;9.686;3.874
2338694.863;2.943;0.484;-20.154;52.787;26.710;3.241;11.735;4.247
2338694.871;0.373;-3.092;-24.140;50.664;23.320;-7.823;-0.261;-5.215
2338694.879;5.588;2.049;-19.148;56.773;30.510;-6.147;0.298;-2.645
2338694.887;6.445;2.012;-19.856;58.934;28.089;-11.586;-3.874;-8.233
2338694.895;-1.416;-6.221;-28.349;52.378;19.670;-22.426;-15.013;-18.254
2338694.903;3.949;1.118;-22.948;62.399;27.306;-20.340;-13.262;-15.609
2338694.930;24.363;22.352;-1.937;85.942;48.578;-1.229;4.396;4.359
2338694.938;20.042;18.030;-4.806;84.303;46.715;-2.608;3.092;4.917
2338694.946;9.909;6.370;-16.540;73.500;33.230;-3.688;1.267;5.253
2338694.954;16.317;12.144;-7.451;81.509;42.841;1.676;6.184;11.846
2338694.962;10.915;5.327;-9.462;75.996;44.815;1.714;7.302;9.127
2338694.970;-12.591;-20.228;-31.553;52.936;25.854;-34.086;-32.820;-20.564
2338694.978;-16.429;-24.363;-33.490;52.229;27.940;-39.674;-36.024;-28.126
2338694.986;-26.003;-34.869;-43.102;44.964;21.383;-34.161;-31.777;-27.940
2338694.994;-27.493;-37.327;-44.182;46.380;22.091;-31.404;-29.989;-24.587
2338695.002;-34.720;-45.076;-50.850;41.015;15.832;-36.731;-36.620;-29.355
2338695.010;-39.674;-49.211;-57.071;38.631;8.121;-36.582;-38.892;-27.306
2338695.018;-43.549;-53.346;-60.536;37.551;4.917;-35.278;-37.700;-23.805
2338695.026;-48.652;-59.009;-66.198;34.571;0.447;-26.114;-30.100;-12.256
2338695.034;-22.575;-31.255;-41.798;67.577;22.277;3.837;1.639;13.560
2338695.042;-7.264;-14.864;-28.610;86.538;32.075;3.278;5.737;5.327
2338695.050;-3.576;-10.245;-23.358;93.691;39.861;-2.533;-3.390;0.410
2338695.058;-6.929;-13.821;-25.257;93.058;37.961;1.676;-2.533;6.296
2338695.066;-18.105;-24.773;-34.906;84.899;28.573;-6.743;-10.617;-1.825
2338695.074;-25.481;-32.373;-41.313;81.323;21.122;-6.743;-11.548;-0.261
2338695.082;-8.643;-14.678;-23.954;104.308;37.290;10.803;7.562;15.795
2338695.090;3.166;-1.304;-11.362;121.482;47.348;28.722;25.295;34.571
2338695.098;-0.335;-4.731;-15.274;120.327;39.451;28.498;26.524;34.980
2338695.106;-12.368;-20.564;-30.026;106.320;21.085;-5.104;-12.219;6.817
2338695.114;-11.660;-21.979;-32.485;106.096;13.448;-21.048;-27.120;-8.717
2338695.184;4.172;-7.451;-16.466;124.574;28.312;-29.318;-33.118;-18.105
2338695.192;9.164;-3.204;-13.150;133.328;25.406;-40.494;-45.709;-25.928
2338695.200;7.935;-4.359;-13.597;137.165;19.073;-54.948;-60.834;-40.606
2338695.208;77.784;67.018;54.762;213.087;82.105;2.347;-7.153;15.125
2338695.216;100.806;90.413;77.747;238.009;103.302;16.540;8.009;25.667
2338695.224;98.236;88.960;72.569;240.244;89.779;-0.857;-10.096;9.239
2338695.232;101.365;93.319;73.798;248.887;82.701;-13.895;-26.226;-0.410
2338695.240;103.042;95.628;74.282;254.028;76.592;-16.056;-27.865;-6.519
2338695.248;105.239;98.832;75.214;259.951;72.978;-17.360;-29.802;-12.442
2338695.256;94.324;88.438;62.771;252.165;59.567;-26.487;-46.827;-17.472
2338695.264;90.674;85.235;57.966;253.394;50.701;-32.373;-54.687;-21.867
2338695.272;95.665;90.413;61.803;263.415;51.297;-20.415;-40.792;-11.660
2338695.280;93.915;90.823;59.307;269.562;43.437;-8.643;-23.395;-3.837
2338695.288;94.846;91.009;61.281;276.454;45.635;1.416;-15.721;7.339
2338695.296;79.311;75.102;46.007;259.802;28.834;-13.374;-34.273;-6.407
2338695.304;60.275;56.624;25.779;239.611;8.754;-20.526;-45.300;-11.660
2338695.312;44.182;40.270;8.009;225.268;-9.090;-21.942;-48.801;-12.890
2338695.320;25.965;23.320;-11.325;209.957;-27.157;-20.303;-48.280;-11.362
2338695.328;0.075;-1.341;-39.302;187.717;-55.544;-36.396;-65.416;-29.728
2338695.336;9.611;8.605;-29.653;200.979;-42.170;-26.003;-55.805;-18.477
2338695.344;-1.825;-2.570;-42.766;189.506;-53.905;-25.891;-55.917;-16.466
2338695.352;-12.964;-13.299;-54.277;180.379;-63.218;-24.475;-50.515;-19.334
2338695.360;-38.445;-37.886;-77.672;158.511;-84.415;-50.589;-79.572;-43.064
2338695.368;-60.983;-59.381;-99.204;139.438;-105.873;-59.642;-91.344;-51.856
2338695.439;-88.774;-85.905;-129.603;113.696;-137.277;-81.062;-117.607;-73.276
2338695.447;-105.314;-103.116;-148.490;97.379;-157.207;-96.932;-136.383;-93.207
2338695.455;-121.854;-121.146;-165.328;80.056;-174.157;-107.326;-150.837;-101.551
2338695.463;-134.856;-133.887;-179.410;67.949;-190.586;-117.607;-159.927;-112.318
2338695.471;-152.588;-150.315;-196.584;51.446;-210.293;-127.181;-170.283;-121.631
2338695.479;-177.808;-174.046;-220.835;28.573;-235.327;-143.945;-186.563;-139.810
2338695.487;-197.403;-194.050;-237.748;10.356;-249.930;-158.511;-199.042;-155.605
2338695.495;-215.434;-212.602;-255.480;-5.849;-269.450;-165.552;-206.754;-162.981
2338695.503;-224.225;-220.314;-263.005;-13.113;-274.926;-164.174;-202.395;-162.907
2338695.511;-246.167;-242.777;-283.346;-33.677;-294.484;-192.523;-229.999;-192.113
2338695.519;-255.704;-253.171;-291.467;-42.357;-304.170;-194.497;-230.744;-193.417
2338695.527;-257.306;-254.549;-292.733;-42.245;-305.697;-195.242;-229.701;-196.584
2338695.535;-264.905;-262.558;-300.035;-49.919;-312.589;-198.707;-232.309;-199.713
2338695.543;-276.789;-273.362;-311.173;-60.163;-327.341;-204.556;-236.668;-204.295
2338695.551;-283.830;-280.701;-317.469;-68.434;-335.909;-205.152;-238.381;-203.326
2338695.559;-273.772;-271.238;-305.176;-58.897;-320.300;-193.939;-226.684;-190.996
2338695.567;-278.316;-276.566;-309.758;-64.038;-326.857;-197.515;-228.845;-197.142
2338695.575;-281.185;-280.775;-311.546;-67.540;-328.086;-207.052;-240.244;-203.252
2338695.583;-277.311;-277.050;-305.474;-64.187;-320.822;-212.602;-243.857;-209.622
2338695.591;-289.865;-291.839;-317.171;-78.045;-332.035;-226.274;-256.188;-222.102
2338695.599;-300.072;-303.686;-327.192;-90.413;-343.211;-237.972;-265.501;-233.650
2338695.607;-296.906;-301.376;-324.287;-89.332;-339.895;-239.909;-265.539;-236.928
2338695.615;-306.591;-309.348;-334.680;-96.597;-350.848;-247.769;-274.107;-244.156
2338695.623;-307.783;-308.678;-334.829;-95.442;-351.816;-243.559;-272.021;-240.617
2338695.725;-317.767;-318.401;-344.627;-106.730;-360.757;-250.153;-278.540;-252.761
2338695.733;-328.757;-332.035;-353.083;-122.115;-367.425;-255.294;-282.004;-258.163
2338695.741;-335.351;-341.423;-358.038;-132.993;-370.070;-262.335;-291.094;-263.937
2338695.749;-344.142;-350.401;-367.537;-141.039;-380.203;-272.132;-299.998;-276.752
2338695.757;-353.605;-360.236;-378.266;-148.416;-392.273;-284.091;-309.534;-291.094
2338695.765;-364.110;-371.113;-389.069;-158.660;-402.741;-287.890;-315.085;-293.814
2338695.773;-378.042;-384.711;-402.518;-171.438;-415.444;-294.708;-320.524;-302.680
2338695.781;-386.424;-393.093;-409.670;-180.900;-423.044;-300.035;-325.516;-307.634
2338695.789;-392.385;-401.251;-414.811;-189.617;-426.993;-301.562;-326.820;-307.076
2338695.797;-392.124;-401.884;-413.992;-189.543;-424.087;-296.235;-319.444;-302.754
2338695.805;-404.976;-415.444;-428.222;-203.326;-439.957;-310.801;-333.339;-317.320
2338695.813;-404.976;-416.525;-427.850;-204.295;-440.888;-317.097;-336.841;-324.324
2338695.821;-406.839;-419.207;-429.936;-208.057;-444.166;-324.287;-343.099;-331.402
2338695.829;-414.364;-427.924;-438.429;-215.657;-452.288;-332.072;-353.158;-338.033
2338695.837;-418.872;-432.506;-442.639;-220.053;-455.938;-339.523;-359.714;-345.819
2338695.845;-429.042;-441.708;-454.485;-229.515;-469.945;-347.346;-369.810;-353.381
2338695.853;-441.782;-454.001;-467.077;-242.069;-482.015;-350.401;-373.162;-359.230
2338695.861;-433.847;-447.221;-455.566;-237.376;-476.688;-369.139;-391.379;-378.899
2338695.869;-417.978;-431.910;-442.304;-224.262;-472.218;-384.189;-407.137;-391.006
2338695.877;-381.544;-397.004;-406.988;-192.001;-442.639;-378.639;-400.208;-384.934
2338695.885;-359.677;-375.360;-388.026;-171.065;-430.681;-391.193;-411.905;-396.110
2338695.893;-363.961;-378.974;-394.247;-177.398;-444.725;-417.270;-436.492;-425.093
2338695.901;-385.717;-400.357;-415.333;-200.793;-469.238;-452.511;-473.969;-459.887
2338695.909;-382.923;-398.420;-413.060;-199.899;-469.387;-460.520;-483.803;-466.742
2338695.875;-375.696;-393.130;-403.002;-193.343;-460.744;-461.899;-482.164;-471.175
2338695.883;-360.049;-376.441;-388.138;-177.808;-450.313;-453.033;-472.777;-462.122
2338695.891;-362.024;-375.733;-389.144;-180.341;-452.436;-454.411;-473.969;-461.563
2338695.899;-357.851;-372.827;-383.928;-180.304;-445.992;-454.895;-471.808;-462.309
2338695.907;-352.189;-367.127;-380.166;-177.622;-445.060;-446.253;-463.538;-454.709
2338695.915;-352.301;-368.096;-379.905;-181.757;-442.863;-441.596;-459.552;-448.860
2338695.923;-357.814;-375.397;-384.375;-191.182;-443.794;-440.329;-461.563;-445.284
2338695.931;-370.368;-389.703;-396.520;-206.530;-450.648;-444.911;-466.593;-448.190
2338695.939;-382.364;-402.890;-408.553;-222.102;-460.073;-446.513;-466.667;-448.748
2338695.947;-392.906;-414.774;-419.505;-236.742;-470.206;-447.519;-465.065;-448.711
2338695.955;-407.286;-432.916;-433.139;-259.615;-479.743;-453.182;-469.573;-452.213
2338695.963;-424.907;-454.187;-451.431;-283.793;-491.478;-457.130;-474.267;-454.336
2338695.971;-429.749;-459.962;-457.428;-291.951;-494.346;-450.239;-467.002;-446.700
2338695.979;-433.549;-464.730;-460.334;-298.657;-494.309;-443.123;-460.856;-439.584
2338695.987;-437.982;-471.547;-463.761;-308.193;-494.085;-438.057;-457.726;-431.724
2338695.995;-442.080;-476.427;-469.759;-314.713;-499.636;-434.630;-452.846;-428.446
2338696.003;-446.104;-479.817;-474.788;-321.455;-501.685;-432.916;-449.121;-425.950
2338696.011;-441.372;-475.831;-469.908;-321.828;-494.532;-428.297;-439.957;-418.462
2338696.019;-449.494;-484.213;-478.439;-333.712;-502.318;-434.108;-443.868;-425.950
2338696.027;-446.439;-482.127;-476.278;-335.127;-495.873;-425.540;-436.902;-417.270
2338696.035;-445.172;-479.892;-476.316;-338.219;-493.564;-418.425;-430.383;-408.776
2338696.043;-446.104;-482.090;-478.998;-345.334;-491.440;-413.992;-427.254;-404.939
2338696.051;-439.733;-476.167;-473.857;-343.435;-486.039;-402.927;-416.711;-393.949
2338696.059;-433.102;-470.504;-467.114;-342.317;-478.551;-392.273;-405.870;-383.630
2338696.099;-436.120;-475.720;-470.616;-351.816;-475.943;-390.299;-404.567;-379.719
2338696.107;-428.371;-468.045;-465.065;-345.930;-470.914;-384.152;-394.396;-374.168
2338696.115;-422.113;-462.420;-459.924;-342.093;-463.240;-378.527;-386.238;-368.245
2338696.123;-421.517;-462.197;-458.658;-346.899;-458.919;-376.925;-382.923;-364.557
2338696.131;-428.818;-470.057;-465.810;-359.267;-463.016;-385.381;-389.591;-371.151
2338696.139;-423.118;-465.326;-459.738;-357.740;-454.262;-380.725;-384.822;-365.339
2338696.147;-422.746;-464.916;-458.509;-360.385;-452.250;-380.985;-386.983;-363.253
2338696.155;-428.222;-470.243;-466.034;-369.288;-459.813;-388.063;-394.955;-368.245
2338696.163;-408.851;-451.021;-448.041;-354.648;-442.676;-369.065;-373.609;-348.277
2338696.171;-394.993;-437.312;-434.071;-345.334;-426.658;-356.175;-358.745;-334.308
2338696.179;-395.477;-437.051;-433.251;-350.289;-422.709;-353.977;-355.877;-332.147
2338696.187;-386.015;-426.918;-424.162;-346.191;-413.582;-339.001;-339.597;-319.332
2338696.195;-388.771;-428.483;-427.142;-352.673;-416.003;-335.425;-334.494;-317.991
2338696.203;-395.253;-434.108;-431.240;-363.477;-417.791;-338.294;-335.239;-323.579
2338696.211;-391.453;-429.712;-426.099;-364.073;-411.272;-332.296;-327.565;-318.699
2338696.219;-384.636;-421.070;-418.276;-360.757;-401.400;-325.404;-318.177;-311.956
2338696.227;-382.848;-417.344;-415.221;-362.769;-395.402;-323.020;-316.091;-307.262
2338696.235;-381.134;-416.450;-412.688;-366.084;-391.342;-324.212;-315.085;-307.672
2338696.243;-378.266;-413.917;-408.627;-368.655;-387.467;-317.395;-305.995;-303.797
2338696.251;-382.029;-417.419;-411.160;-375.249;-387.952;-316.016;-303.648;-303.797
2338696.259;-391.863;-426.210;-420.138;-387.952;-396.930;-326.745;-313.744;-314.303
2338696.267;-387.840;-421.628;-414.029;-389.256;-389.107;-326.410;-311.099;-312.030
2338696.275;-379.086;-414.848;-405.274;-386.573;-376.925;-322.424;-304.617;-308.193
2338696.283;-387.020;-424.720;-413.321;-400.692;-383.779;-328.943;-309.795;-316.501
2338696.280;-389.628;-427.999;-414.811;-407.137;-384.897;-326.261;-306.368;-313.260
2338696.288;-387.095;-425.577;-411.384;-407.696;-379.942;-321.753;-302.196;-307.932
2338696.296;-382.327;-420.213;-404.008;-406.429;-369.698;-315.085;-295.937;-300.929
2338696.304;-367.574;-404.567;-389.852;-395.589;-355.765;-307.374;-287.406;-295.155
2338696.312;-359.304;-397.936;-380.650;-393.614;-345.148;-303.350;-284.091;-291.951
2338696.320;-354.238;-395.179;-376.478;-392.012;-341.125;-296.868;-280.626;-285.767
2338696.328;-356.100;-397.712;-379.570;-395.887;-342.652;-301.413;-289.269;-289.232
2338696.336;-351.891;-393.726;-376.403;-393.763;-338.890;-300.594;-289.567;-287.369
2338696.344;-334.457;-377.037;-360.645;-379.607;-320.859;-291.243;-280.626;-276.268
2338696.352;-331.253;-373.945;-356.026;-377.931;-316.761;-290.945;-280.216;-276.975
2338696.360;-323.802;-368.245;-346.564;-371.337;-306.331;-285.283;-272.878;-272.617
2338696.368;-325.143;-370.480;-347.421;-372.306;-305.027;-289.753;-276.528;-275.970
2338696.376;-316.277;-362.843;-338.256;-365.190;-294.410;-287.332;-270.680;-270.940
2338696.384;-295.453;-342.056;-316.948;-344.887;-270.233;-270.940;-254.251;-254.922
2338696.392;-294.223;-339.225;-316.091;-340.603;-270.680;-266.917;-250.936;-251.941
2338696.400;-306.778;-350.997;-329.353;-350.922;-281.595;-267.960;-252.314;-255.853
2338696.408;-303.611;-344.254;-327.267;-340.044;-280.105;-265.352;-251.010;-253.841
2338696.416;-278.689;-319.630;-301.674;-311.732;-258.759;-251.047;-234.321;-243.299
2338696.424;-270.605;-312.701;-294.857;-302.084;-254.959;-245.534;-226.870;-238.419
2338696.432;-261.553;-302.456;-288.263;-289.120;-254.549;-238.009;-218.004;-230.819
2338696.440;-246.651;-286.661;-272.989;-272.095;-238.009;-225.492;-205.711;-216.402
2338696.448;-248.402;-286.326;-273.772;-270.009;-237.860;-229.962;-211.038;-220.314
2338696.456;-248.328;-284.463;-272.468;-266.321;-239.015;-231.378;-211.075;-222.549
2338696.464;-252.314;-288.896;-275.001;-268.742;-239.536;-233.091;-215.098;-224.635
2338696.490;-248.924;-284.761;-270.903;-263.155;-235.848;-228.807;-209.808;-219.978
2338696.498;-248.030;-284.649;-271.648;-259.951;-238.828;-224.561;-205.785;-217.035
2338696.506;-237.264;-276.715;-261.962;-249.743;-227.951;-209.324;-192.635;-203.103
2338696.514;-227.094;-266.768;-250.638;-237.115;-214.204;-195.913;-179.559;-190.474
2338696.522;-216.998;-255.704;-242.218;-223.368;-206.418;-188.462;-174.418;-180.975
2338696.530;-231.899;-267.252;-257.418;-235.513;-224.113;-201.575;-187.717;-194.944
2338696.538;-230.037;-261.739;-253.357;-232.048;-216.998;-199.638;-181.980;-192.039
2338696.546;-221.357;-250.377;-244.044;-225.119;-203.624;-193.454;-174.306;-184.402
2338696.554;-212.751;-239.350;-235.066;-217.818;-192.039;-187.084;-165.850;-177.771
2338696.562;-208.877;-236.221;-233.315;-215.732;-187.121;-188.537;-167.526;-178.702
2338696.570;-187.196;-213.757;-215.136;-194.311;-168.867;-168.197;-147.447;-158.064
2338696.578;-177.957;-205.524;-206.791;-187.084;-157.282;-161.827;-142.790;-150.017
2338696.586;-202.879;-229.143;-232.793;-211.187;-182.874;-187.904;-170.097;-176.169
2338696.594;-193.045;-214.167;-221.916;-198.483;-172.853;-184.551;-164.211;-171.252
2338696.602;-177.249;-194.758;-206.679;-182.018;-158.735;-172.742;-151.135;-160.411
2338696.610;-159.442;-174.753;-186.525;-165.291;-139.922;-157.543;-135.899;-145.473
2338696.618;-164.621;-177.771;-191.145;-170.618;-145.137;-160.784;-140.183;-148.006
2338696.626;-157.133;-168.085;-185.147;-163.466;-141.561;-157.543;-138.097;-145.398
2338696.634;-111.870;-124.462;-135.973;-122.078;-97.603;-150.912;-133.179;-136.681
2338696.642;-98.385;-111.088;-122.450;-109.412;-90.748;-155.382;-140.071;-137.389
2338696.650;-67.502;-79.833;-90.301;-78.529;-65.044;-144.094;-126.362;-126.287
2338696.658;-42.133;-54.017;-66.049;-51.484;-46.566;-136.159;-116.937;-119.843
2338696.666;-27.530;-38.221;-51.148;-33.714;-37.961;-140.220;-121.780;-124.536
2338696.674;-1.341;-11.735;-24.885;-7.935;-16.205;-130.460;-113.249;-115.074
2338696.638;23.767;12.740;-1.043;17.360;4.508;-117.533;-99.614;-101.067
2338696.646;18.179;6.147;-2.608;10.282;1.043;-128.560;-107.512;-110.976
2338696.654;19.036;6.184;0.373;10.431;3.800;-127.107;-106.767;-111.386
2338696.662;29.914;15.199;12.405;18.552;18.626;-116.900;-98.385;-102.818
2338696.670;38.035;21.048;21.718;22.650;28.461;-102.147;-85.048;-87.842
2338696.678;33.379;14.827;17.509;15.013;29.057;-98.683;-84.005;-83.111
2338696.686;31.926;13.374;17.509;12.964;34.831;-91.195;-76.853;-75.959
2338696.694;7.153;-10.654;-7.562;-10.952;10.580;-102.296;-87.693;-88.103
2338696.702;-3.390;-22.128;-17.807;-22.613;2.943;-100.471;-87.023;-83.968
2338696.710;4.694;-16.652;-7.451;-19.334;16.540;-82.292;-70.706;-64.708
2338696.718;-1.378;-23.395;-12.368;-26.375;11.921;-77.486;-67.204;-60.312
2338696.726;-3.651;-24.028;-10.505;-29.728;12.666;-67.912;-55.581;-51.893
2338696.734;-10.729;-30.622;-14.380;-38.482;9.723;-67.763;-55.730;-51.707
2338696.742;-11.213;-29.951;-12.442;-39.153;13.448;-66.645;-54.538;-51.856
2338696.750;-9.611;-26.859;-8.754;-37.551;15.721;-66.087;-51.893;-52.117
2338696.758;-17.248;-34.347;-14.268;-46.864;11.288;-69.514;-55.544;-55.321
2338696.766;-16.615;-31.590;-11.139;-46.603;13.597;-59.642;-47.348;-45.970
2338696.774;-18.477;-33.453;-11.586;-50.887;14.231;-53.570;-42.170;-40.717
2338696.782;-25.891;-41.015;-18.738;-60.797;9.537;-54.874;-44.852;-40.978
2338696.790;-33.118;-46.603;-24.065;-66.496;4.023;-58.226;-46.156;-45.784
2338696.798;-46.641;-59.828;-37.961;-78.566;-9.611;-70.892;-57.109;-58.524
2338696.806;-57.928;-68.918;-48.988;-89.444;-17.658;-81.807;-65.155;-68.769
2338696.814;-51.409;-62.361;-40.419;-83.447;-8.456;-75.996;-59.605;-62.399
2338696.822;-39.451;-51.968;-27.455;-74.096;6.296;-61.467;-44.443;-48.615
2338696.830;-45.225;-58.785;-32.894;-82.925;1.378;-63.106;-46.678;-50.552
2338696.838;-48.578;-64.149;-36.433;-90.934;-0.373;-64.373;-51.074;-51.595
2338696.846;-44.331;-60.312;-29.467;-87.917;7.488;-59.158;-46.045;-48.131
2338696.854;-37.625;-55.246;-20.713;-83.558;17.658;-55.134;-42.617;-43.809
2338696.865;-35.763;-53.905;-18.068;-82.664;21.011;-56.103;-43.437;-44.033
2338696.873;-27.232;-44.107;-7.190;-74.729;29.467;-48.988;-33.416;-39.972
2338696.881;-17.919;-33.863;2.198;-65.193;38.520;-45.933;-28.424;-39.712
2338696.889;-18.068;-30.696;2.980;-60.834;38.445;-46.603;-22.873;-42.506
2338696.897;-19.744;-30.287;1.900;-60.312;37.961;-47.684;-20.787;-44.927
2338696.905;-24.289;-33.937;-2.757;-63.777;32.820;-48.988;-22.314;-46.156
2338696.913;-17.360;-25.108;5.364;-55.432;41.276;-37.067;-9.835;-35.614
2338696.921;-10.580;-17.956;12.815;-48.168;51.446;-29.318;-4.992;-27.753
2338696.929;-13.672;-20.042;10.990;-51.856;51.558;-32.857;-7.264;-31.516
2338696.937;-14.529;-20.154;10.766;-52.899;49.099;-34.012;-8.009;-32.485
2338696.945;-12.256;-17.993;12.293;-51.744;52.899;-31.590;-6.184;-30.324
2338696.953;-9.909;-14.007;15.534;-49.435;57.444;-17.062;8.941;-18.813
2338696.961;-13.039;-16.168;11.958;-49.658;55.954;-18.068;6.780;-18.105
2338696.969;-14.901;-17.285;12.256;-49.956;58.040;-32.485;-7.898;-30.547
2338696.977;-26.859;-28.089;1.118;-59.381;51.633;-33.304;-10.692;-29.616
2338696.985;-32.000;-32.149;-5.066;-59.381;47.982;-34.124;-13.486;-27.791
2338696.993;-41.313;-40.792;-11.027;-66.608;41.276;-37.327;-15.274;-31.628
2338697.001;-38.520;-37.178;-7.972;-61.132;48.056;-36.247;-14.976;-30.212
2338697.009;-30.436;-29.616;-1.192;-52.489;55.507;-29.691;-8.158;-23.134
2338697.017;-34.943;-35.092;-6.855;-57.667;50.589;-30.063;-9.388;-23.097
2338697.025;-32.596;-32.932;-4.917;-55.507;53.868;-30.100;-11.995;-20.936
2338697.033;-30.659;-29.951;-4.023;-51.446;52.117;-28.536;-11.958;-18.999
2338697.041;-18.440;-17.062;4.321;-36.135;58.897;-19.968;-5.104;-10.766
2338697.049;-3.912;-1.155;19.297;-18.589;76.182;-8.196;8.494;-1.714
2338697.029;1.267;3.986;24.810;-13.076;79.684;-3.800;11.884;2.682
2338697.037;4.135;5.513;26.822;-11.176;82.441;-3.576;9.574;2.831
2338697.045;5.625;7.376;30.287;-10.654;85.570;1.565;15.572;4.917
2338697.053;6.966;8.270;31.739;-9.052;88.140;6.557;17.770;9.611
2338697.061;9.835;11.511;34.012;-5.737;87.731;11.697;23.544;16.429
2338697.069;5.588;7.749;29.616;-7.898;83.856;6.370;20.415;12.778
2338697.077;-1.192;1.490;23.283;-11.511;77.970;-4.917;8.754;4.768
2338697.085;-0.373;3.725;26.226;-9.090;81.025;-5.104;9.090;4.917
2338697.093;6.743;10.878;33.006;-1.416;86.874;2.868;16.466;12.405
2338697.101;12.890;17.323;39.935;4.508;94.399;7.451;22.240;16.764
2338697.109;19.260;23.618;46.901;11.362;103.712;13.821;30.212;22.724
2338697.117;18.887;25.257;43.660;13.821;98.161;10.803;28.685;20.340
2338697.125;20.936;28.498;44.219;15.423;98.571;12.890;30.547;23.209
2338697.133;26.524;33.751;47.386;21.607;103.302;19.297;36.061;29.579
2338697.141;29.877;38.706;50.887;26.412;108.704;28.163;47.684;35.428
2338697.149;24.997;35.539;45.449;23.060;103.079;21.756;42.468;28.536
2338697.157;28.647;40.792;47.348;27.604;105.761;25.406;44.107;32.857
2338697.165;37.476;52.974;56.289;36.806;114.739;36.284;54.613;43.325
2338697.173;45.635;62.771;61.467;46.305;121.631;40.419;59.493;47.274
2338697.181;47.088;66.943;64.373;50.031;124.387;40.159;59.418;47.460
2338697.189;46.082;68.545;65.938;50.701;125.617;39.600;54.389;49.174
2338697.197;43.660;67.055;63.032;50.403;122.860;41.351;53.570;51.074
2338697.205;50.217;74.133;71.079;58.860;131.018;53.756;67.912;61.430
2338697.213;44.517;67.316;64.895;53.830;125.803;36.471;46.901;47.088
2338697.254;43.623;66.683;64.969;55.507;125.766;34.310;45.486;46.678
2338697.262;52.117;74.618;75.176;64.671;135.936;44.666;56.960;56.066
2338697.270;58.040;78.343;80.951;68.285;142.716;50.627;62.212;60.797
2338697.278;63.740;83.819;88.327;73.351;150.278;56.885;69.179;64.112
2338697.286;62.883;83.819;87.209;73.649;149.459;56.289;66.347;63.628
2338697.294;66.310;90.897;91.158;80.056;151.806;52.229;63.069;60.834
2338697.302;73.947;100.657;100.061;90.189;159.629;57.928;67.987;66.645
2338697.310;83.260;109.971;108.629;100.583;167.117;65.863;75.027;74.767
2338697.318;96.895;123.940;123.829;114.143;180.304;75.921;85.272;85.384
2338697.326;86.017;110.380;111.237;101.775;167.154;63.293;68.471;73.612
2338697.334;89.742;113.733;114.106;105.202;168.607;66.012;70.259;75.735
2338697.342;90.525;114.292;114.888;106.134;167.042;64.187;67.316;75.512
2338697.350;89.481;112.318;114.031;106.804;165.515;64.783;64.522;78.119
2338697.358;87.209;113.025;112.429;110.157;162.274;68.024;71.190;79.535
2338697.366;100.769;125.989;123.866;126.362;172.406;77.672;80.764;89.034
2338697.374;106.096;129.677;128.783;133.440;175.647;85.421;89.407;96.299
2338697.382;97.752;121.444;119.135;129.156;165.701;80.764;86.240;90.338
2338697.390;98.869;122.339;117.570;135.005;162.981;83.297;89.593;90.711
2338697.398;94.809;116.564;115.335;131.913;159.852;81.621;91.605;85.980
2338697.406;103.973;124.089;123.195;143.610;166.632;83.745;92.946;88.401
2338697.414;126.325;145.435;143.684;166.669;185.072;97.044;105.575;102.818
2338697.422;133.701;152.774;153.966;179.484;192.635;98.608;110.492;103.638
2338697.430;143.759;162.236;164.993;192.747;201.240;94.436;107.214;98.348
2338697.438;163.950;184.849;184.774;215.806;216.961;100.732;114.925;102.967
2338697.419;189.692;211.708;208.877;245.310;236.370;101.440;113.212;104.532
2338697.427;224.337;247.322;245.348;280.887;267.439;109.337;118.949;117.384
2338697.435;248.142;272.952;267.848;309.832;287.779;113.957;120.550;124.574
2338697.443;255.145;279.471;271.983;319.369;289.939;107.773;113.919;119.098
2338697.451;258.945;284.836;277.087;328.869;292.957;114.217;123.717;124.350
2338697.459;263.415;290.796;281.967;333.264;298.470;116.341;124.425;126.399
2338697.467;270.605;298.582;292.212;337.884;311.360;126.548;135.899;136.979
2338697.475;267.327;295.527;291.243;335.500;308.752;125.766;136.718;134.967
2338697.483;259.019;288.785;283.234;331.700;302.568;123.866;133.850;134.185
2338697.491;244.789;274.926;272.952;315.383;297.464;127.554;139.773;135.936
2338697.499;239.797;268.966;267.550;312.030;296.384;134.148;144.504;141.300
2338697.507;229.515;259.578;258.312;295.900;290.833;137.426;148.416;144.839
2338697.515;223.517;253.133;253.282;288.673;287.741;135.303;146.106;142.939
2338697.523;213.683;241.324;243.485;278.428;282.191;130.087;136.755;140.257
2338697.531;203.177;231.937;236.109;268.780;277.273;132.881;141.524;142.679
2338697.539;191.405;218.339;223.145;256.747;267.662;127.330;133.589;138.022
2338697.547;187.606;213.459;220.500;255.816;268.631;131.205;138.134;141.338
2338697.555;184.588;210.926;217.520;250.041;265.874;132.918;141.002;142.045
2338697.563;179.522;204.258;210.740;241.473;261.106;130.236;136.830;139.512
2338697.571;174.381;198.595;207.648;238.754;258.498;133.440;142.008;141.673
2338697.579;176.169;199.452;208.505;242.144;259.466;140.704;144.877;151.284
2338697.587;163.056;186.637;197.180;229.776;249.371;135.154;138.357;145.547
2338697.595;150.651;174.679;187.084;217.594;240.169;127.405;132.099;135.601
2338697.603;156.313;177.845;189.319;221.804;242.181;124.760;128.560;132.136
2338697.556;157.841;181.459;191.666;226.535;242.926;127.554;134.893;133.775
2338697.564;157.580;181.310;191.629;228.286;243.001;130.385;137.202;136.308
2338697.572;152.327;175.685;188.351;222.735;239.760;128.970;137.426;132.993
2338697.580;150.092;174.567;186.488;222.214;235.774;131.428;142.530;135.787
2338697.588;145.435;169.277;179.335;218.786;230.521;126.697;138.991;133.738
2338697.596;132.844;158.139;167.750;207.424;219.792;120.550;136.197;128.932
2338697.604;127.554;153.407;161.864;203.326;213.236;119.284;133.701;126.883
2338697.612;122.860;147.484;159.331;197.105;211.634;118.874;135.303;122.376
2338697.620;122.935;145.771;159.442;195.540;209.436;122.786;140.853;123.829
2338697.628;124.574;145.957;159.405;195.280;209.361;121.891;138.506;125.319
2338697.636;115.670;138.134;152.588;186.116;201.315;113.845;131.130;117.756
2338697.644;117.496;139.214;153.929;189.878;205.375;118.427;131.242;122.637
2338697.652;123.866;146.516;161.827;198.707;214.204;133.142;146.627;134.297
2338697.660;119.843;142.790;157.095;195.391;205.040;133.142;148.155;131.764
2338697.668;128.187;148.900;163.019;201.277;210.106;136.867;149.719;137.128
2338697.676;120.364;141.673;156.127;192.933;202.693;129.603;144.169;129.156
2338697.684;121.333;141.300;155.717;194.237;203.215;129.603;141.561;130.422
2338697.692;125.132;144.765;159.778;195.876;209.026;134.148;145.286;135.265
2338697.700;127.889;147.559;162.609;196.137;213.906;140.481;151.657;140.630
2338697.708;135.303;155.121;165.105;201.911;217.594;143.498;151.917;142.939
2338697.716;137.947;157.803;166.297;202.246;220.276;143.051;152.476;141.673
2338697.724;137.240;156.127;161.268;199.489;216.961;139.698;147.372;139.587
2338697.732;136.420;155.941;158.697;197.589;214.614;146.069;155.680;143.796
2338697.740;144.280;164.658;165.552;204.705;224.747;160.187;169.501;154.674
2338697.689;152.811;172.220;170.581;212.230;229.478;163.689;168.681;159.591
2338697.697;155.084;176.318;173.002;214.688;230.335;161.529;168.383;157.431
2338697.705;157.431;177.585;174.232;215.508;234.284;160.225;164.844;157.058
2338697.713;152.811;174.008;168.160;210.963;227.988;157.394;162.423;154.749
2338697.721;148.378;170.246;164.509;204.444;224.113;157.580;162.758;155.345
2338697.729;152.476;173.524;169.091;206.865;229.664;158.660;163.727;159.219
2338697.737;152.960;175.089;171.736;206.791;229.627;163.503;171.885;161.901
2338697.745;151.284;171.624;171.699;202.358;229.739;161.529;167.936;160.374
2338697.753;146.739;166.930;169.463;195.652;226.870;160.374;168.979;160.784
2338697.761;148.043;167.303;171.699;194.386;227.951;161.231;171.065;159.778
2338697.769;157.133;175.014;178.665;202.470;235.625;166.595;172.034;167.266
2338697.777;158.288;177.696;180.267;205.562;235.811;183.396;191.703;181.645
2338697.785;159.480;178.218;182.018;206.679;238.158;170.991;176.951;171.252
2338697.793;175.871;194.311;197.701;220.053;246.726;164.211;170.842;164.919
2338697.801;186.004;204.481;207.946;228.286;251.681;165.142;171.959;164.919
2338697.809;208.020;227.056;226.088;246.949;266.097;170.879;176.169;169.501
2338697.817;228.956;250.414;248.253;265.092;283.979;186.525;195.019;185.184
2338697.825;219.196;242.442;238.046;252.947;274.256;175.126;180.006;174.753
2338697.833;217.743;243.001;237.413;250.600;273.138;182.055;185.966;183.135
2338697.841;228.100;253.618;248.328;259.988;285.506;201.128;204.854;201.054
2338697.849;227.205;253.133;244.752;260.882;281.483;193.082;198.223;190.288
2338697.857;215.359;241.734;236.109;249.669;271.462;181.422;189.655;175.536
2338697.865;226.796;252.686;247.173;259.392;282.377;190.996;196.286;187.233
2338697.873;222.959;249.222;245.944;253.469;280.812;191.331;196.137;188.388
2338697.899;273.511;298.992;300.519;301.711;335.760;243.857;246.875;237.860
2338697.907;277.162;300.929;301.190;304.431;332.333;245.981;245.608;242.777
2338697.915;218.265;241.883;243.708;245.050;273.660;191.629;193.194;186.637
2338697.923;200.607;222.623;224.225;227.801;252.835;173.971;172.406;169.836
2338697.931;197.366;218.637;221.841;224.374;249.632;175.536;173.636;172.891
2338697.939;196.621;217.967;221.878;223.331;247.583;176.616;176.504;173.561
2338697.947;214.390;233.613;238.866;239.946;264.496;189.990;189.878;188.611
2338697.955;215.732;234.619;243.522;240.281;268.370;195.466;197.664;193.715
2338697.963;205.562;223.219;232.421;229.664;256.784;181.496;181.161;180.490
2338697.971;211.187;227.280;238.307;235.960;260.584;188.760;189.580;187.755
2338697.979;209.138;224.039;236.370;234.731;256.374;194.497;194.386;192.858
2338697.987;201.575;215.471;224.039;231.341;241.138;191.815;189.058;190.847
2338697.995;223.853;236.221;248.849;253.506;261.888;195.540;196.286;193.678
2338698.003;240.691;251.271;260.845;272.244;266.284;197.776;197.068;194.758
2338698.011;254.065;264.645;271.052;287.294;269.525;200.793;203.252;194.833
2338698.019;264.086;273.548;279.993;296.123;274.479;205.487;208.840;197.217
2338698.027;275.746;284.389;286.810;308.380;277.758;208.169;209.361;200.979
2338698.035;276.156;284.053;288.002;305.846;279.769;206.344;210.889;199.787
2338698.043;266.023;271.648;275.113;294.223;269.674;199.825;201.799;195.056
2338698.051;255.331;260.584;262.745;283.010;258.386;198.483;200.458;193.529
2338698.059;249.036;252.686;257.604;274.777;256.822;195.689;195.876;192.933
2338698.067;253.618;254.549;260.286;276.081;262.707;197.440;193.194;195.280
2338698.075;251.345;252.053;259.839;271.052;264.719;198.558;197.850;193.454
2338698.083;251.234;250.675;257.976;270.680;264.235;200.719;196.584;197.105
2338698.098;242.740;242.442;250.228;261.813;255.890;198.185;195.429;193.976
2338698.106;231.229;232.644;239.834;250.563;246.130;195.689;194.833;188.872
2338698.114;223.443;225.976;230.931;244.379;236.332;194.646;191.443;186.078
2338698.122;226.013;228.919;236.668;244.491;243.224;205.822;206.418;194.944
2338698.130;229.143;232.682;239.126;246.055;246.316;207.275;206.418;198.185
2338698.138;224.039;228.696;236.817;239.722;246.838;204.407;205.562;195.503
2338698.146;221.282;226.051;235.997;236.221;247.806;209.101;211.932;198.074
2338698.154;221.916;226.200;233.203;237.040;242.256;209.995;211.112;199.899
2338698.162;216.290;221.320;230.111;229.515;241.399;209.101;213.236;197.403
2338698.170;218.786;224.449;230.521;232.123;242.367;204.667;206.530;195.503
2338698.178;215.471;221.282;228.435;227.243;239.313;197.440;200.793;190.884
2338698.186;215.657;220.053;230.558;224.747;242.144;200.123;203.438;193.119
2338698.194;218.526;221.320;232.644;225.790;244.603;203.028;204.518;196.919
2338698.202;221.618;224.374;236.705;227.131;246.689;206.046;211.112;200.458
2338698.210;230.186;231.676;243.299;233.725;252.463;204.816;208.616;198.968
2338698.218;240.579;241.213;254.735;243.485;265.092;210.665;214.837;203.960
2338698.226;240.095;241.697;256.896;243.671;266.545;212.826;217.333;204.854
2338698.234;233.799;235.885;247.844;238.083;256.002;203.289;205.822;197.366
2338698.242;230.893;234.880;245.757;234.842;253.133;203.401;208.206;194.982
2338698.250;232.719;235.215;246.018;234.693;255.108;200.123;202.358;192.188
2338698.258;229.366;231.303;242.107;229.776;249.371;196.584;200.830;190.027
2338698.266;233.203;234.991;249.669;231.378;258.423;202.544;208.616;196.546
2338698.274;233.129;234.358;249.185;230.931;258.386;200.979;206.269;197.291
2338698.282;219.084;220.798;237.860;215.732;247.918;193.715;203.401;189.021
2338698.273;217.780;218.488;233.129;212.044;243.522;193.864;200.942;188.202
2338698.281;217.967;219.643;231.527;210.591;245.348;199.601;208.877;191.033
2338698.289;212.118;214.502;224.561;203.289;239.871;198.707;209.361;187.866
2338698.297;220.090;219.941;227.988;207.089;245.422;200.383;208.393;190.586
2338698.305;224.970;224.523;233.874;208.654;257.306;208.989;220.351;198.036
2338698.313;206.754;206.679;209.659;191.256;230.782;190.474;199.638;180.677
2338698.321;207.797;208.244;208.840;191.815;233.501;195.205;205.971;187.121
2338698.329;207.536;208.281;208.206;189.766;233.166;196.770;208.281;190.176
2338698.337;212.751;213.310;211.932;194.982;237.562;192.747;201.203;189.058
2338698.345;213.794;214.875;214.651;194.907;240.803;192.598;204.109;186.302
2338698.353;226.274;226.907;225.268;206.977;254.139;199.340;207.610;191.741
2338698.361;231.527;232.533;228.956;212.528;256.114;203.364;211.708;195.615
2338698.369;228.472;229.515;225.529;209.324;254.288;198.409;205.748;191.219
2338698.377;241.399;241.362;234.023;223.070;260.398;199.676;202.060;194.609
2338698.385;251.234;251.085;244.640;232.793;267.513;200.458;206.754;194.088
2338698.393;265.613;263.043;258.535;245.385;279.285;198.819;200.234;194.535
2338698.401;273.548;271.536;267.439;257.231;282.712;192.150;193.976;189.580
2338698.409;299.215;297.166;292.957;285.208;302.717;196.695;199.266;195.131
2338698.417;315.197;312.775;307.336;304.952;314.079;193.007;194.050;192.784
2338698.425;333.004;332.333;326.149;323.988;329.241;195.578;200.979;193.194
2338698.433;338.294;339.374;328.496;334.010;326.335;189.729;192.523;187.382
2338698.441;348.315;349.544;341.088;347.607;337.251;198.707;203.699;195.913
2338698.449;343.360;346.564;337.064;347.048;331.625;204.258;211.634;199.117
2338698.457;342.913;346.787;333.786;348.091;326.335;202.991;205.785;198.223
2338698.425;340.641;344.440;334.904;343.472;331.961;203.550;207.089;198.856
2338698.433;347.160;351.369;338.592;350.513;335.127;203.848;203.699;202.097
2338698.441;338.592;342.950;328.347;342.280;324.808;206.120;206.456;204.369
2338698.449;330.955;333.749;323.653;333.376;322.349;210.479;211.895;208.691
2338698.457;314.787;315.607;307.485;316.240;310.503;201.538;200.048;201.128
2338698.465;291.094;293.143;286.475;291.802;293.963;194.833;197.440;191.443
2338698.473;286.959;288.710;280.365;289.306;288.077;197.068;194.833;195.615
2338698.481;277.236;279.918;272.207;279.620;284.500;198.670;197.366;196.621
2338698.489;261.627;265.129;258.200;262.409;272.132;192.821;191.480;191.517
2338698.497;256.635;260.398;252.649;255.778;269.972;190.660;185.110;193.901
2338698.505;235.662;241.771;234.842;234.433;254.847;180.081;178.851;184.625
2338698.513;230.968;239.275;230.148;228.956;253.618;187.978;185.482;192.523
2338698.521;218.078;229.254;217.259;214.614;240.691;194.013;193.305;194.311
2338698.529;208.616;221.394;206.530;202.917;232.533;189.096;188.723;188.537
2338698.537;207.648;221.320;203.066;200.868;230.484;192.001;188.313;191.554
2338698.545;210.367;224.710;206.903;203.028;236.966;197.291;194.833;196.993
2338698.553;203.364;216.104;199.340;193.380;228.621;187.680;179.373;188.649
2338698.561;193.045;205.599;189.692;180.751;220.910;185.072;174.977;186.339
2338698.569;191.964;206.046;188.798;180.081;221.506;195.391;184.923;194.572
2338698.577;185.594;198.781;181.273;172.667;214.763;192.411;177.063;190.884
2338698.585;183.545;196.956;180.826;169.910;215.247;195.019;182.278;192.486
2338698.593;185.892;197.627;182.241;171.550;217.706;193.641;178.702;192.299
2338698.601;185.259;195.578;182.129;169.314;217.631;188.835;174.716;189.319
2338698.609;176.914;186.227;174.455;159.293;210.181;182.129;169.799;183.247
2338698.589;173.785;180.267;170.246;154.562;205.599;178.367;164.360;180.341
2338698.597;173.636;178.888;172.257;152.886;206.381;186.488;176.206;185.221
2338698.605;175.424;179.186;174.157;153.556;209.063;190.549;177.547;191.070
2338698.613;155.754;158.027;152.700;134.334;187.978;176.355;165.589;175.536
2338698.621;150.725;152.513;147.857;132.546;181.161;175.573;166.520;173.226
2338698.629;155.047;155.568;150.874;138.618;183.657;174.865;164.919;173.301
2338698.637;152.774;152.662;149.868;137.947;184.104;178.255;173.524;175.089
2338698.645;148.416;145.957;143.275;135.228;177.436;176.914;170.916;175.610
2338698.653;145.957;141.673;139.475;133.403;174.120;178.814;176.393;176.840
2338698.661;142.567;136.830;135.303;131.801;169.016;175.498;173.897;171.289
2338698.669;154.749;146.329;144.057;144.169;176.206;182.725;175.424;180.677
2338698.677;163.838;154.227;153.221;152.327;185.072;195.391;190.437;191.592
2338698.685;150.390;140.443;139.438;140.630;171.550;180.267;171.363;176.132
2338698.693;145.920;134.967;135.861;136.234;169.426;177.659;170.507;171.661
2338698.701;146.702;134.520;137.128;136.606;171.326;183.173;178.367;174.344
2338698.709;150.129;137.240;139.028;141.338;172.332;179.783;171.550;173.077
2338698.717;149.757;135.899;138.395;140.555;171.773;182.874;176.393;177.026
2338698.725;149.831;133.663;136.308;138.804;172.853;179.596;167.042;177.287
2338698.733;159.107;141.375;145.137;146.590;183.843;188.686;175.275;189.804
2338698.741;147.186;128.895;132.695;136.197;170.171;183.880;172.667;183.173
2338698.749;136.532;118.427;120.439;128.672;158.399;170.805;156.313;170.134
2338698.757;130.832;113.547;115.931;122.711;155.158;170.097;158.474;165.328
2338698.765;137.053;119.582;123.233;127.740;164.881;177.585;162.311;172.518
2338698.773;139.847;121.854;127.666;128.224;171.922;181.645;167.266;176.914
2338698.845;141.524;123.493;129.230;129.975;173.673;183.061;170.469;177.175
2338698.853;150.390;132.769;135.414;140.592;178.926;184.365;169.128;180.006
2338698.861;149.645;131.093;134.446;138.581;177.361;187.941;175.573;181.384
2338698.869;138.097;118.539;121.295;124.276;167.042;180.453;165.775;175.163
2338698.877;135.377;117.645;116.937;125.356;166.073;180.565;167.601;176.094
2338698.885;138.432;118.278;120.029;127.368;169.501;178.888;168.420;173.673
2338698.893;133.291;113.212;108.592;123.791;156.164;175.647;162.423;170.656
2338698.901;136.346;118.203;108.406;128.895;158.995;179.261;171.736;172.667
2338698.909;162.646;144.728;129.975;155.941;182.502;195.354;186.302;192.113
2338698.917;164.136;146.478;129.007;155.941;183.992;199.713;191.107;196.844
2338698.925;129.901;113.100;92.499;120.476;148.863;167.899;161.082;163.577
2338698.933;143.908;126.474;103.116;133.701;160.523;180.453;168.756;177.436
2338698.941;124.015;107.735;82.105;114.925;141.077;171.550;164.658;164.136
2338698.949;120.178;103.414;78.194;111.647;137.538;169.091;160.597;162.683
2338698.957;122.972;105.537;81.174;114.627;141.226;173.375;165.477;168.756
2338698.965;124.425;107.288;83.037;116.788;142.753;179.745;172.853;173.263
2338698.973;125.021;107.028;83.111;117.533;143.088;181.869;172.630;176.355
2338698.981;118.241;99.987;78.194;111.274;139.289;181.235;176.467;175.014
2338698.989;121.854;103.116;81.211;116.192;142.083;184.216;177.361;178.665
2338698.997;111.312;93.207;71.861;107.065;132.993;172.630;168.011;166.595
2338699.005;113.137;95.740;76.592;109.598;137.538;175.461;173.561;167.936
2338699.013;111.945;94.883;75.884;108.927;134.893;170.432;167.638;164.434
2338699.021;112.318;95.218;77.188;109.710;134.595;171.699;174.157;164.136
2338699.029;115.670;98.422;79.349;114.702;136.644;169.724;172.630;163.242
2338699.069;124.611;108.033;88.401;125.282;145.212;180.453;183.657;174.046
2338699.077;107.810;92.834;72.233;111.349;126.772;170.060;174.120;163.466
2338699.085;101.924;86.240;66.720;107.028;120.364;162.497;161.380;157.952
2338699.093;98.310;81.398;65.118;103.116;120.513;164.844;165.328;160.299
2338699.101;104.383;86.091;70.445;107.922;124.872;166.297;165.254;163.354
2338699.109;108.778;90.301;72.531;111.870;125.542;169.426;170.469;163.950
2338699.117;108.853;90.115;72.494;111.386;126.660;167.415;170.656;159.480
2338699.125;114.813;94.846;77.263;116.490;129.640;169.612;169.873;164.546
2338699.133;120.811;99.763;82.627;120.699;134.706;175.498;178.181;169.985
2338699.141;120.886;101.812;80.764;126.660;132.546;162.721;162.013;160.448
2338699.149;115.484;97.118;75.325;123.419;127.442;161.566;160.299;160.597
2338699.157;118.427;99.726;77.784;126.176;130.907;173.114;173.226;169.985
2338699.165;108.592;88.327;66.385;117.160;120.476;168.271;165.887;161.938
2338699.173;97.938;76.070;56.252;105.500;112.914;165.626;162.348;156.909
2338699.181;114.255;92.462;68.806;122.748;123.754;172.891;167.042;167.079
2338699.189;109.188;86.688;63.367;117.570;116.378;162.870;158.697;158.846
2338699.197;109.486;87.321;63.591;116.602;115.559;161.268;159.480;157.654
2338699.205;116.378;94.958;70.035;124.015;122.748;161.901;158.921;160.858
2338699.213;108.480;88.811;61.356;118.613;112.727;157.990;157.841;154.749
2338699.221;115.559;96.448;67.800;128.075;119.917;163.130;160.821;160.374
2338699.229;113.212;94.920;65.677;127.479;119.209;161.678;159.107;157.878
2338699.237;110.529;93.319;65.230;125.729;118.390;157.803;154.786;153.333
2338699.245;116.751;98.534;72.196;130.795;126.548;159.368;153.109;156.723
2338699.253;104.308;86.315;58.971;118.241;111.870;152.364;149.496;149.086
2338699.295;106.171;87.954;61.169;119.433;112.429;153.184;149.533;150.874
2338699.303;103.824;85.533;59.642;117.831;108.778;154.637;151.806;151.768
2338699.311;106.990;87.060;64.000;118.539;115.335;157.878;156.537;154.749
2338699.319;103.898;82.292;60.052;115.186;111.982;153.296;149.012;151.582
2338699.327;92.052;70.967;49.695;104.234;98.981;147.186;146.069;143.535
2338699.335;100.732;79.833;58.934;113.435;106.767;150.017;147.447;146.590
2338699.343;108.071;88.550;65.565;122.339;110.082;158.288;154.972;154.749
2338699.351;111.498;93.319;68.806;125.915;110.641;164.583;162.423;161.044
2338699.359;95.628;78.455;52.862;110.194;93.952;143.535;141.226;143.275
2338699.367;94.399;79.423;54.538;109.747;95.852;145.622;145.733;143.908
2338699.375;138.171;124.834;98.981;155.121;139.363;195.429;191.964;194.572
2338699.383;170.842;156.984;131.428;188.053;170.805;232.607;232.011;231.341
2338699.391;207.722;193.454;168.234;224.747;204.407;263.490;266.284;261.553
2338699.399;179.186;164.807;138.320;195.429;172.742;215.098;214.092;214.241
2338699.407;163.876;150.651;123.307;178.553;158.064;202.432;203.773;200.234
2338699.415;124.089;110.976;83.484;137.873;116.527;162.236;160.597;160.150
2338699.423;99.055;85.756;58.413;112.429;90.264;136.346;131.279;132.173
2338699.431;88.215;73.574;49.956;100.471;82.478;127.777;122.152;123.158
2338699.439;104.681;88.625;65.193;116.900;95.516;144.765;139.214;138.842
2338699.447;93.468;75.474;55.023;103.824;84.341;143.833;140.145;138.655
2338699.455;89.854;69.998;51.223;99.577;80.764;138.357;135.191;134.930
2338699.463;105.016;84.452;66.608;114.739;95.665;153.258;152.402;144.690
2338699.471;110.753;88.140;72.531;118.129;99.652;158.735;157.021;149.049
2338699.479;105.873;79.423;65.640;112.131;88.997;144.206;142.083;135.452
2338699.459;99.801;71.712;58.562;107.251;80.951;141.487;141.002;132.360
2338699.467;96.932;69.886;55.321;108.667;77.784;145.882;142.604;137.798
2338699.475;91.679;64.783;51.484;107.586;77.374;148.416;145.696;139.736
2338699.483;98.236;70.818;60.350;116.639;86.203;155.531;154.451;143.871
2338699.491;99.950;72.904;61.132;122.935;85.309;152.029;149.608;141.375
2338699.499;103.451;78.343;66.571;131.354;88.997;161.529;163.540;148.080
2338699.507;94.287;68.545;58.673;124.276;81.733;156.835;160.150;140.332
2338699.515;86.874;59.642;52.936;117.496;77.374;152.215;157.431;133.514
2338699.523;76.890;51.931;42.245;110.529;64.857;150.241;155.866;130.124
2338699.531;70.706;46.790;34.608;105.575;59.977;151.992;153.668;135.750
2338699.539;84.639;60.610;46.976;117.235;70.482;155.345;157.319;141.859
2338699.547;93.281;68.471;51.707;121.556;73.388;147.410;145.659;135.340
2338699.555;92.797;67.279;47.684;117.309;69.626;142.083;137.649;132.136
2338699.563;91.791;65.751;43.213;114.776;66.720;136.122;130.944;126.436
2338699.571;94.697;69.141;42.357;118.166;69.216;138.506;132.322;128.001
2338699.579;96.336;69.998;41.202;119.843;70.110;143.908;136.420;131.987
2338699.587;96.262;69.588;40.941;120.699;73.910;145.137;134.632;130.907
2338699.595;88.029;63.106;32.559;115.819;66.236;150.464;139.102;137.277
2338699.603;73.537;49.435;18.999;101.589;54.650;144.690;133.067;131.689
2338699.611;72.531;50.440;17.062;102.296;53.495;142.306;130.907;129.603
2338699.619;69.290;50.999;14.566;102.855;47.684;142.157;133.999;129.119
2338699.627;70.371;52.862;16.615;102.334;49.397;143.722;133.142;131.465
2338699.635;70.520;53.234;17.956;100.285;51.111;148.006;135.489;136.867
2338699.643;62.659;47.684;12.666;93.207;45.784;140.332;126.697;130.609
2338699.654;57.742;43.362;8.531;89.295;40.345;137.165;121.593;126.772
2338699.662;59.232;44.033;11.623;89.593;41.053;143.200;130.050;129.901
2338699.670;72.718;55.991;26.859;101.104;56.401;152.700;140.630;140.592
2338699.678;73.090;56.252;29.504;100.546;57.593;149.794;139.214;140.332
2338699.686;43.027;25.518;0.000;69.439;25.779;116.974;108.629;108.331
2338699.694;40.717;21.905;-0.745;65.602;27.120;109.822;100.024;103.302
2338699.702;43.325;23.879;2.459;66.906;27.865;111.535;102.408;105.053
2338699.710;54.315;33.639;14.864;76.257;38.110;118.800;106.916;113.770
2338699.718;46.827;26.301;9.052;67.540;30.324;110.902;98.534;105.426
2338699.726;54.091;33.043;17.844;72.680;37.551;118.688;107.661;112.653
2338699.734;56.326;33.155;20.005;71.339;38.967;119.433;108.220;113.435
2338699.742;42.804;20.675;7.190;56.997;26.263;109.822;99.652;103.191
2338699.750;38.072;16.727;3.874;52.638;20.638;104.383;93.468;98.087
2338699.758;39.302;17.136;5.737;51.968;21.458;105.277;92.871;99.838
2338699.766;34.235;11.027;2.012;43.400;18.850;103.042;90.860;96.932
2338699.774;23.432;-0.112;-8.568;31.367;7.600;91.903;80.019;86.911
2338699.782;28.908;5.215;-2.608;35.986;11.064;96.746;89.854;89.593
2338699.790;18.999;-4.172;-12.368;25.816;0.112;88.327;81.807;80.131
2338699.798;17.546;-4.880;-14.231;22.985;-0.820;89.407;82.776;81.919
2338699.806;20.601;-1.900;-10.654;23.395;1.937;91.605;87.917;83.819
2338699.814;23.693;0.261;-5.588;24.177;7.413;92.685;88.736;85.570
2338699.822;18.626;-6.258;-9.537;14.938;1.974;90.860;87.544;84.117
2338699.830;10.766;-14.864;-18.142;4.657;-8.978;84.266;79.162;80.280
2338699.838;12.554;-13.076;-16.131;5.253;-6.109;84.527;80.541;79.535
2338699.878;17.993;-7.674;-8.605;9.350;0.298;86.874;85.160;79.498
2338699.886;24.512;-2.310;-0.969;13.895;8.792;91.307;87.135;85.793
2338699.894;15.460;-12.442;-8.717;1.565;3.204;80.168;78.455;73.463
2338699.902;19.222;-8.531;-6.706;3.725;2.943;82.627;80.541;75.996
2338699.910;17.770;-8.978;-9.947;2.161;-2.235;81.882;80.504;75.251
2338699.918;30.510;4.247;3.874;13.411;13.858;96.746;94.697;89.705
2338699.926;32.708;7.264;6.445;15.609;15.125;100.695;96.373;92.760
2338699.934;3.800;-22.426;-22.426;-13.858;-15.534;70.445;67.726;62.510
2338699.942;9.052;-16.764;-16.987;-8.941;-9.090;71.898;67.949;63.963
2338699.950;10.729;-13.448;-16.093;-5.625;-10.394;73.127;69.700;63.963
2338699.958;12.740;-10.543;-12.740;-3.129;-9.835;75.288;71.824;65.006
2338699.966;21.383;-2.459;-3.017;3.316;-1.304;80.504;73.835;71.190
2338699.974;23.432;-1.304;-0.149;2.757;-1.043;87.395;80.019;77.151
2338699.982;16.242;-10.952;-5.998;-7.115;-6.109;78.902;70.892;70.445
2338699.990;20.415;-6.109;-1.118;-2.906;-3.651;75.772;68.545;68.508
2338699.998;19.558;-6.184;-2.868;-4.396;-5.960;80.578;72.271;73.202
2338700.006;5.364;-18.179;-19.073;-14.938;-23.395;71.563;62.138;62.659
2338700.014;21.197;-3.800;-2.757;-2.719;-12.107;72.271;65.416;63.404
2338700.022;39.563;14.864;14.268;14.715;-0.186;75.549;66.981;70.333
2338700.030;46.305;22.277;19.930;21.532;0.261;71.302;61.728;67.651
2338700.038;52.601;30.026;24.401;29.095;1.229;66.459;57.369;63.442
2338700.046;60.350;38.445;29.355;38.296;1.937;66.236;56.773;65.267
2338700.054;65.491;44.443;34.161;43.362;2.570;73.798;65.863;69.737
2338700.062;66.087;47.199;31.665;46.156;-4.210;77.933;71.414;69.514
2338700.058;54.054;39.078;18.999;35.316;-19.334;65.528;59.009;56.662
2338700.066;68.471;55.842;35.726;48.093;-4.284;75.325;69.365;68.173
2338700.074;67.689;54.911;36.545;42.990;-4.210;68.545;59.940;62.548
2338700.082;65.230;52.489;34.571;36.694;-7.562;76.741;67.540;67.316
2338700.090;61.691;46.492;31.255;28.238;-8.978;72.680;60.014;65.602
2338700.098;55.395;37.439;26.599;17.583;-12.442;68.545;55.358;62.957
2338700.106;52.564;32.857;24.810;10.356;-15.199;74.916;62.175;67.130
2338700.114;51.931;30.361;23.097;5.551;-17.546;71.228;55.134;65.006
2338700.122;58.189;35.055;30.547;6.668;-9.686;76.070;61.728;69.328
2338700.130;51.297;28.498;24.140;-4.508;-13.709;71.935;56.624;65.677
2338700.138;42.468;21.271;15.274;-14.342;-25.257;63.628;47.907;58.562
2338700.146;37.998;17.285;12.442;-22.240;-27.120;62.659;48.950;56.438
2338700.154;38.072;16.168;12.740;-26.785;-27.493;60.536;45.784;55.395
2338700.162;44.368;23.097;19.036;-23.171;-21.346;65.193;51.856;60.014
2338700.170;56.811;36.880;30.845;-14.082;-9.052;77.635;65.565;71.079
2338700.178;44.741;24.363;16.764;-31.814;-21.309;67.130;54.576;61.244
2338700.186;41.537;19.260;12.405;-42.245;-23.358;65.193;50.887;58.860
2338700.194;46.082;23.581;13.970;-40.829;-23.432;69.402;52.676;64.410
2338700.202;47.870;25.034;12.517;-41.053;-23.693;67.949;51.670;64.969
2338700.210;41.053;16.987;3.278;-52.042;-30.734;61.169;45.411;58.301
2338700.218;43.139;19.222;2.198;-50.776;-31.590;69.253;57.630;64.261
2338700.226;38.780;13.970;-2.794;-55.693;-37.588;61.169;49.286;57.928
2338700.234;29.169;4.731;-15.423;-64.224;-52.750;58.562;45.523;53.681
2338700.242;33.565;7.376;-13.188;-59.940;-54.091;54.836;44.219;46.417
2338700.268;52.825;22.016;7.935;-43.772;-39.078;50.962;39.898;44.070
2338700.276;76.108;46.045;28.461;-18.068;-26.487;59.418;50.068;53.011
2338700.284;86.986;59.120;36.657;-2.012;-25.444;55.544;48.764;47.535
2338700.292;103.973;77.412;49.397;18.887;-20.191;53.868;48.019;47.088
2338700.300;116.378;92.834;60.052;37.476;-13.709;53.197;47.386;46.976
2338700.308;126.250;104.420;67.875;52.676;-7.153;59.009;49.546;54.166
2338700.316;129.193;111.200;65.975;62.063;-11.101;67.279;57.332;59.456
2338700.324;135.601;121.221;69.477;73.947;-9.499;79.758;70.743;68.471
2338700.332;126.138;112.690;58.748;67.204;-21.718;69.216;58.599;59.791
2338700.340;116.639;103.153;46.417;58.003;-32.187;64.224;52.862;55.283
2338700.348;117.943;104.606;45.709;59.381;-31.292;70.482;56.773;62.622
2338700.356;115.596;104.643;40.643;60.312;-35.539;76.406;63.106;66.571
2338700.364;104.792;93.989;32.224;48.243;-40.233;79.013;66.273;67.353
2338700.372;89.668;79.125;17.472;33.863;-53.495;77.412;63.255;65.453
2338700.380;78.157;68.061;6.221;23.693;-62.957;77.374;63.516;65.379
2338700.388;71.414;61.169;-1.043;19.111;-68.732;80.839;67.279;70.035
2338700.396;72.233;59.903;0.224;18.179;-67.204;79.200;68.434;69.290
2338700.404;63.553;51.595;-10.431;8.270;-78.864;70.594;60.648;60.759
2338700.412;63.628;48.950;-8.531;3.763;-74.171;75.400;63.293;65.640
2338700.420;66.385;48.727;-2.831;1.639;-66.571;82.925;72.420;72.233
2338700.428;59.828;41.015;-8.270;-6.966;-70.520;82.552;71.004;72.569
2338700.436;44.964;26.263;-21.718;-21.942;-80.727;72.382;61.803;62.361
2338700.444;43.176;23.544;-21.607;-25.220;-79.498;75.139;66.832;62.920
2338700.452;41.835;20.377;-20.862;-29.206;-78.492;74.394;63.665;62.995
2338700.478;38.557;16.540;-21.979;-34.459;-77.859;75.623;63.442;62.473
2338700.486;39.339;17.583;-19.073;-32.708;-74.059;78.566;65.900;65.230
2338700.494;43.549;22.724;-12.666;-28.796;-67.651;83.186;71.600;70.296
2338700.502;36.657;16.056;-17.099;-37.812;-70.371;74.767;65.379;62.101
2338700.510;33.565;11.474;-18.403;-43.660;-72.271;66.794;55.470;56.215
2338700.518;22.165;-0.075;-28.722;-58.077;-82.925;63.740;53.532;53.234
2338700.526;15.423;-8.978;-32.969;-68.918;-86.501;61.765;50.217;54.128
2338700.534;17.360;-8.047;-29.095;-70.408;-81.956;66.534;55.283;59.828
2338700.542;12.554;-13.113;-32.298;-79.460;-83.260;69.477;60.871;59.344
2338700.550;6.035;-19.632;-38.669;-86.352;-91.046;62.957;53.644;54.426
2338700.558;5.290;-20.787;-39.116;-88.550;-90.748;61.914;53.532;54.985
2338700.566;-0.037;-27.418;-43.660;-96.560;-92.871;55.507;44.443;51.856
2338700.574;-4.210;-30.547;-48.093;-99.428;-92.760;60.275;51.074;56.811
2338700.582;-0.224;-24.773;-45.486;-90.450;-92.834;60.126;55.544;52.564
2338700.590;15.050;-11.697;-31.181;-76.666;-83.111;61.318;56.364;51.670
2338700.598;24.326;-2.645;-23.879;-68.359;-80.392;64.522;59.307;52.899
2338700.606;32.373;5.998;-17.472;-59.791;-77.337;62.287;56.848;51.223
2338700.614;43.027;16.168;-6.407;-49.584;-65.640;65.900;60.201;55.246
2338700.622;34.794;7.786;-15.721;-58.636;-76.555;57.556;53.272;47.237
2338700.630;36.061;10.245;-15.497;-57.444;-76.965;55.544;52.825;46.343
2338700.638;37.514;14.752;-14.827;-54.501;-78.790;56.960;56.922;47.088
2338700.646;37.141;16.093;-16.689;-53.495;-82.962;63.442;61.840;52.974
2338700.654;33.602;9.649;-16.466;-61.579;-78.641;62.212;59.120;53.048
2338700.662;32.708;6.370;-13.262;-65.751;-71.675;58.897;54.725;48.913
2338700.645;22.613;-3.800;-22.352;-75.661;-79.945;54.277;47.050;43.884
2338700.653;29.914;3.427;-12.517;-68.396;-66.943;64.746;59.009;55.507
2338700.661;20.377;-5.551;-18.179;-78.864;-71.079;52.601;45.560;44.480
2338700.669;10.692;-14.715;-25.779;-88.029;-79.758;48.950;41.910;40.121
2338700.677;4.992;-19.707;-30.175;-93.356;-85.235;38.370;31.479;31.590
2338700.685;9.388;-15.050;-24.326;-88.103;-79.758;43.176;34.645;36.508
2338700.693;12.740;-12.182;-19.558;-84.899;-75.586;48.652;40.270;40.904
2338700.701;17.956;-5.998;-11.660;-79.535;-66.534;51.334;42.990;42.692
2338700.709;20.564;-2.533;-7.041;-75.549;-61.430;53.160;47.088;44.554
2338700.717;27.083;4.321;0.075;-67.130;-55.954;59.754;55.991;50.515
2338700.725;40.792;17.323;13.113;-52.676;-46.045;65.044;60.238;57.518
2338700.733;25.555;1.676;1.527;-66.720;-55.842;47.050;43.958;41.835
2338700.741;12.107;-8.531;-10.878;-79.125;-68.657;37.923;33.081;33.677
2338700.749;13.039;-4.657;-9.611;-74.804;-70.184;41.835;35.614;37.663
2338700.757;11.288;-3.912;-8.494;-74.357;-67.875;41.313;35.129;37.663
2338700.765;8.196;-6.706;-10.617;-77.635;-68.396;45.076;36.173;40.904
2338700.773;7.339;-4.470;-12.107;-75.065;-70.855;56.028;47.609;48.764
2338700.781;32.224;20.899;11.697;-48.801;-51.893;60.573;53.309;51.968
2338700.789;37.625;26.710;13.970;-43.958;-56.140;56.773;49.919;47.572
2338700.797;62.175;52.825;35.539;-19.856;-38.408;58.487;52.042;48.615
2338700.805;69.924;62.101;39.935;-11.437;-34.384;64.299;56.773;55.879
2338700.813;62.399;53.868;29.467;-19.707;-44.256;48.839;40.978;41.984
2338700.821;64.187;56.438;27.083;-15.274;-46.045;50.925;42.543;45.486
2338700.829;65.565;60.610;25.518;-10.468;-48.280;53.085;45.151;49.621
2338700.839;58.189;55.656;16.391;-13.337;-57.742;49.770;42.990;47.833
2338700.847;51.223;49.584;7.376;-16.242;-67.502;43.213;37.290;40.568
2338700.855;53.309;51.260;9.574;-11.399;-64.895;45.970;42.096;41.835
2338700.863;65.155;62.324;20.228;1.602;-52.713;57.332;54.911;49.397
2338700.871;73.314;71.265;27.493;10.468;-45.262;64.969;66.273;54.315
2338700.879;64.373;64.485;20.228;4.731;-51.931;56.326;56.848;47.982
2338700.887;68.136;68.583;27.306;12.033;-43.325;60.610;57.928;54.762
2338700.895;57.444;58.897;19.073;3.241;-52.154;57.220;55.544;50.627
2338700.903;53.048;52.750;17.323;-3.651;-54.725;54.464;52.601;47.944
2338700.911;52.303;52.378;17.956;-5.290;-55.283;57.034;57.630;51.782
2338700.919;44.405;45.225;14.044;-13.039;-56.401;52.378;52.936;49.062
2338700.927;43.958;45.262;16.205;-13.113;-53.719;49.435;47.609;46.678
2338700.935;46.231;48.801;20.266;-6.370;-51.446;54.576;53.272;48.727
2338700.943;39.935;41.090;17.881;-12.442;-52.303;56.736;54.464;50.329
2338700.951;29.989;30.212;10.058;-22.314;-61.654;52.117;50.142;46.156
2338700.959;27.083;25.518;9.350;-22.464;-62.697;52.564;53.309;47.758
2338700.967;18.552;14.491;2.012;-28.536;-70.594;47.609;48.280;43.809
2338700.975;6.780;1.825;-9.313;-37.737;-84.788;37.439;39.227;33.490
2338700.983;0.671;-5.066;-15.870;-41.388;-92.722;34.273;35.986;28.946
2338700.991;-5.625;-10.990;-21.644;-45.076;-101.179;34.608;36.098;28.759
2338700.999;-6.743;-12.554;-20.042;-45.262;-98.534;39.749;41.798;33.081
2338701.007;-4.768;-10.096;-16.280;-41.053;-97.454;39.898;39.861;36.098
2338701.015;-2.757;-7.339;-12.517;-37.961;-92.499;37.961;38.818;34.608
2338701.023;-10.207;-13.933;-20.191;-45.635;-102.557;34.943;33.453;30.436
2338701.063;-3.614;-3.837;-15.870;-35.688;-102.110;31.777;28.796;27.567
2338701.071;26.487;26.524;12.927;-3.353;-79.833;46.380;43.809;41.015
2338701.079;24.848;26.710;10.356;-2.421;-85.086;42.394;40.457;37.625
2338701.087;32.932;35.614;17.062;5.960;-82.664;40.568;39.749;36.694
2338701.095;34.980;38.892;18.328;8.158;-83.260;40.084;39.227;36.210
2338701.103;28.498;34.869;11.958;2.049;-92.126;34.086;33.565;30.249
2338701.111;32.298;40.568;15.907;7.115;-89.295;38.370;38.818;34.980
2338701.119;36.955;47.125;19.707;13.262;-86.799;45.113;44.405;40.829
2338701.127;34.682;48.093;19.036;13.188;-88.401;42.692;43.400;38.184
2338701.135;35.129;49.397;19.372;14.193;-89.519;40.457;41.910;35.651
2338701.143;30.510;45.113;15.534;7.674;-90.189;39.302;38.780;35.912
2338701.151;34.757;48.541;22.985;8.196;-81.100;40.829;38.855;38.669
2338701.159;36.694;49.546;26.859;7.935;-74.282;41.462;37.104;40.680
2338701.167;21.122;34.347;12.890;-7.451;-88.252;29.579;26.263;27.940
2338701.175;23.991;39.488;18.068;-6.445;-82.068;33.043;29.020;31.590
2338701.183;25.406;39.451;22.836;-7.041;-77.933;30.436;27.269;29.765
2338701.191;21.011;35.278;19.930;-11.846;-82.478;26.226;23.879;24.401
2338701.199;16.205;30.212;16.168;-17.732;-84.229;25.928;21.160;25.593
2338701.207;13.784;27.828;16.727;-21.756;-81.807;26.710;22.724;26.524
2338701.215;14.454;28.051;19.930;-23.544;-76.741;27.306;23.730;26.934
2338701.223;9.015;22.016;15.013;-31.255;-83.372;23.171;19.185;23.246
2338701.231;-0.522;12.107;6.817;-43.064;-92.573;18.664;15.534;19.968
2338701.239;8.941;21.569;18.515;-34.273;-78.976;25.779;22.762;28.163
2338701.247;-2.719;10.803;6.817;-45.449;-91.232;10.431;10.990;12.368
2338701.245;-8.754;5.215;3.353;-51.074;-95.293;4.545;5.327;6.370
2338701.253;-13.970;0.298;0.075;-56.922;-96.560;-1.825;-2.123;1.639
2338701.261;-7.786;6.594;7.153;-51.893;-92.387;2.235;2.906;4.694
2338701.269;1.639;13.784;18.515;-46.417;-78.753;6.929;4.396;9.462
2338701.277;-0.820;10.394;16.019;-51.670;-81.100;1.676;-1.155;3.837
2338701.285;-3.465;8.121;12.405;-54.725;-86.427;-0.782;-3.912;0.894
2338701.293;-2.757;8.717;15.087;-56.289;-80.578;-1.192;-3.874;0.671
2338701.301;-4.508;7.413;17.434;-60.275;-74.990;-3.427;-5.066;-1.192
2338701.309;-5.811;6.147;16.987;-62.734;-78.008;-3.390;-6.482;-0.931
2338701.317;-6.370;5.215;18.142;-66.198;-74.431;0.745;-3.353;1.453
2338701.325;-4.657;3.874;22.054;-68.136;-64.895;6.892;-0.820;8.456
2338701.333;-11.399;-3.017;17.062;-75.512;-71.563;0.931;-7.190;2.906
2338701.341;-14.491;-5.551;16.168;-79.647;-71.414;-1.378;-7.153;0.261
2338701.349;-11.846;-2.608;19.073;-78.492;-68.545;1.565;-5.923;3.539
2338701.357;-9.798;0.000;21.681;-78.231;-65.453;4.247;-2.310;5.662
2338701.365;-9.164;-0.857;23.581;-79.386;-61.914;3.427;-2.608;5.066
2338701.373;-19.185;-9.872;14.901;-89.444;-70.892;-1.639;-7.935;-0.112
2338701.381;-27.306;-17.919;7.749;-97.603;-75.065;1.416;-5.066;4.061
2338701.389;-11.586;-1.937;22.724;-82.068;-62.920;-3.390;-9.984;0.447
2338701.397;-4.321;6.370;27.046;-75.661;-65.304;-2.906;-5.960;0.633
2338701.405;-3.502;6.706;24.140;-76.778;-69.216;1.378;-0.522;3.427
2338701.413;1.080;9.574;27.567;-77.076;-65.416;0.261;-1.490;3.390
2338701.421;7.004;15.311;31.590;-73.612;-60.089;-2.757;-3.204;0.596
2338701.429;5.476;14.603;25.481;-75.661;-63.851;-5.141;-7.339;-1.527
2338701.394;1.937;10.990;19.073;-81.807;-65.304;-6.706;-7.898;-4.098
2338701.402;8.270;17.136;22.501;-75.921;-59.456;2.086;0.894;4.582
2338701.410;6.594;15.981;18.403;-77.747;-59.567;2.608;1.602;4.321
2338701.418;-4.955;6.668;5.364;-88.736;-70.110;-2.347;-3.353;-3.316
2338701.426;-3.427;7.600;5.104;-89.183;-66.534;2.831;-0.633;2.980
2338701.434;-15.832;-6.109;-7.451;-104.569;-77.076;-4.135;-7.674;-1.043
2338701.442;-27.344;-19.409;-17.993;-118.278;-86.315;-8.121;-13.784;-3.427
2338701.450;-27.157;-17.546;-17.323;-120.848;-82.143;-7.711;-13.188;-3.055
2338701.458;-26.412;-15.087;-15.832;-120.848;-81.100;-6.072;-8.792;-2.943
2338701.466;-27.642;-18.813;-16.093;-124.201;-78.008;-4.880;-9.723;-0.596
