Timestamp,AFz,AF3,AF4,AF7,AF8,Pz,P3,P4,2024-04-10 13:01:47.641,fs=125
2339223.995;-19.297;-28.275;-28.461;-29.281;3.986;1.602;7.600;-0.224
2339224.003;-11.288;-21.979;-21.085;-27.344;9.649;2.161;7.153;0.633
2339224.011;-9.499;-19.595;-22.501;-26.785;10.170;6.817;11.437;5.327
2339224.019;-8.382;-16.913;-23.879;-23.954;6.519;8.233;12.890;5.923
2339224.027;3.204;-4.359;-13.933;-11.399;14.491;12.852;17.136;9.574
2339224.035;11.511;1.714;-7.004;-8.680;20.787;12.331;15.236;8.568
2339224.043;11.101;2.086;-4.694;-6.892;21.681;11.064;13.821;6.855
2339224.051;21.532;13.858;5.513;6.072;25.332;10.394;11.660;6.258
2339224.059;44.592;36.918;30.138;30.287;44.964;11.735;11.995;8.568
2339224.067;66.794;57.742;55.023;53.421;67.055;16.280;18.477;14.640
2339224.075;75.400;66.906;62.473;63.516;70.184;7.525;12.517;5.141
2339224.083;89.817;79.051;80.839;75.698;86.352;4.992;11.027;3.763
2339224.091;96.150;84.117;91.046;80.466;96.783;9.164;14.901;8.903
2339224.099;92.126;82.366;87.805;78.753;90.227;8.196;15.758;5.923
2339224.107;80.690;69.402;77.598;64.448;79.945;9.574;16.466;5.998
2339224.115;69.439;60.759;66.832;58.673;73.910;14.044;19.222;10.319
2339224.123;51.893;45.933;50.366;44.331;59.120;10.356;13.225;7.227
2339224.131;37.253;28.424;36.359;22.948;49.509;8.829;8.866;7.153
2339224.139;24.624;14.566;23.395;10.803;38.631;0.931;0.857;0.224
2339224.147;16.466;7.264;15.087;6.184;28.275;-3.390;-1.602;-3.427
2339224.155;8.158;-1.527;7.339;-3.614;19.297;-9.462;-6.333;-8.568
2339224.163;1.751;-8.829;2.347;-12.852;18.850;-15.162;-11.288;-12.815
2339224.171;-2.980;-12.368;-2.272;-16.056;15.050;-12.182;-7.935;-7.935
2339224.179;-3.539;-11.586;-3.614;-13.299;12.964;-8.605;-4.731;-5.253
2339224.263;-3.800;-11.362;-4.470;-11.474;12.368;1.974;5.513;3.614
2339224.271;-12.629;-21.122;-12.554;-21.420;3.837;-0.186;2.310;-0.075
2339224.279;-12.144;-19.260;-12.368;-16.615;1.565;0.969;3.092;-0.075
2339224.287;-17.285;-24.363;-15.236;-22.165;0.149;4.061;4.284;3.427
2339224.295;-23.432;-30.696;-20.564;-27.083;-5.849;0.447;0.484;-0.596
2339224.303;-23.209;-30.920;-21.644;-26.599;-8.270;3.353;5.662;-0.447
2339224.311;-25.034;-33.602;-22.277;-30.585;-6.817;4.880;9.947;1.602
2339224.319;-25.406;-33.379;-24.177;-30.100;-8.568;2.012;6.855;-0.224
2339224.327;-30.920;-38.631;-30.436;-37.104;-14.715;-1.825;0.708;-1.937
2339224.335;-36.582;-44.145;-34.645;-42.543;-16.876;-3.949;-0.633;-4.135
2339224.343;-47.646;-55.470;-43.586;-53.160;-23.693;-8.009;-5.104;-7.264
2339224.351;-51.260;-56.699;-50.105;-53.272;-32.596;-12.927;-8.456;-15.311
2339224.359;-52.378;-60.648;-49.062;-59.083;-28.834;-16.652;-13.337;-18.403
2339224.367;-51.744;-58.152;-49.099;-54.464;-29.169;-11.660;-7.078;-13.523
2339224.375;-46.194;-52.378;-44.480;-48.280;-25.444;-7.674;-3.017;-8.345
2339224.383;-44.927;-51.036;-43.958;-47.274;-26.822;-4.470;-0.969;-4.023
2339224.391;-49.099;-55.209;-47.646;-51.148;-26.934;0.000;2.123;2.049
2339224.399;-58.189;-64.187;-56.438;-59.158;-39.488;-5.700;-4.917;-2.235
2339224.407;-59.158;-65.565;-56.699;-59.269;-39.116;-8.605;-8.903;-5.625
2339224.415;-57.481;-62.771;-57.444;-55.805;-40.233;-10.766;-10.766;-9.276
2339224.423;-58.711;-64.597;-58.599;-59.791;-40.196;-14.342;-13.225;-10.729
2339224.431;-50.999;-56.103;-50.887;-51.856;-31.888;-11.437;-9.760;-7.562
2339224.439;-45.635;-50.962;-47.162;-45.262;-32.000;-11.660;-9.276;-8.605
2339224.447;-51.074;-56.066;-52.899;-48.913;-37.774;-20.824;-17.136;-18.887
2339224.458;-47.795;-53.681;-47.348;-48.876;-28.871;-24.289;-20.713;-20.266
2339224.466;-45.300;-51.260;-44.219;-46.045;-25.183;-26.114;-21.718;-21.271
2339224.474;-40.494;-46.082;-40.829;-39.190;-25.444;-19.968;-15.274;-15.721
2339224.482;-42.915;-48.019;-44.294;-41.351;-30.920;-17.546;-13.076;-12.703
2339224.490;-39.488;-45.560;-39.451;-40.084;-25.295;-11.586;-6.668;-8.605
2339224.498;-39.563;-44.294;-41.313;-37.104;-29.132;-10.282;-6.147;-9.574
2339224.506;-35.167;-40.159;-36.769;-33.304;-25.444;-2.012;0.410;-0.708
2339224.514;-35.763;-40.866;-37.812;-33.602;-25.667;-0.708;0.335;0.931
2339224.522;-38.221;-43.809;-40.755;-37.290;-28.610;-6.072;-5.998;-4.135
2339224.530;-39.227;-42.319;-42.431;-33.863;-33.826;-8.643;-5.588;-7.860
2339224.538;-38.929;-42.841;-40.457;-37.067;-30.175;-10.841;-7.786;-8.568
2339224.546;-45.039;-51.558;-45.449;-50.217;-32.373;-8.494;-6.631;-6.482
2339224.554;-48.317;-52.489;-51.558;-46.752;-42.394;-6.519;-5.998;-4.955
2339224.562;-36.806;-39.786;-42.170;-32.671;-37.327;2.868;2.831;4.023
2339224.570;-37.663;-40.345;-41.313;-34.310;-33.900;9.164;8.568;10.617
2339224.578;-42.096;-42.282;-45.747;-36.173;-37.849;5.700;6.557;5.588
2339224.586;-44.815;-45.374;-49.882;-41.984;-44.964;-0.671;1.416;-2.496
2339224.594;-42.580;-41.500;-48.690;-37.141;-45.523;-3.614;0.335;-5.811
2339224.602;-36.992;-36.284;-43.698;-32.261;-40.494;-1.565;5.811;-3.017
2339224.610;-39.861;-38.892;-47.572;-36.918;-44.703;-1.304;7.339;-2.012
2339224.618;-41.761;-40.531;-50.031;-37.812;-50.105;-1.304;9.201;-1.527
2339224.626;-37.104;-39.786;-44.443;-39.972;-42.804;3.390;10.952;5.700
2339224.634;-32.224;-34.310;-43.213;-29.840;-42.692;9.164;14.044;10.468
2339224.642;-25.257;-25.593;-35.092;-28.163;-32.708;7.078;10.207;9.313
2339224.608;-30.324;-31.590;-37.551;-36.694;-34.757;-1.453;0.596;3.502
2339224.616;-33.192;-33.677;-40.866;-38.296;-39.414;-5.551;-5.588;1.416
2339224.624;-34.869;-35.428;-42.059;-40.308;-42.394;-4.098;-4.247;2.347
2339224.632;-31.479;-30.175;-40.457;-32.336;-41.611;0.522;2.049;5.402
2339224.640;-30.361;-28.349;-38.482;-29.989;-36.992;5.662;8.643;8.866
2339224.648;-41.053;-39.339;-52.154;-41.723;-56.662;2.496;7.562;4.470
2339224.656;-45.635;-43.511;-56.289;-46.231;-60.834;-1.416;4.768;0.894
2339224.664;-43.102;-41.761;-53.197;-43.660;-57.742;-2.161;2.049;0.931
2339224.672;-48.243;-47.162;-58.971;-49.211;-66.906;-5.066;-0.410;-0.522
2339224.680;-52.638;-52.005;-61.542;-55.842;-67.614;-9.611;-3.316;-5.476
2339224.688;-53.272;-53.570;-61.020;-59.679;-64.708;-8.382;-3.763;-4.359
2339224.696;-45.374;-44.517;-54.538;-50.962;-60.312;1.937;4.768;6.333
2339224.704;-51.558;-49.919;-62.138;-55.730;-73.798;-5.737;-3.316;-3.576
2339224.712;-56.475;-54.352;-66.906;-61.318;-76.145;-13.560;-10.803;-10.878
2339224.720;-53.495;-49.397;-65.900;-57.220;-76.033;-10.803;-6.482;-9.760
2339224.728;-45.821;-39.488;-61.244;-47.833;-73.165;-0.149;6.072;-2.123
2339224.736;-45.858;-37.849;-60.387;-46.305;-71.377;2.235;7.600;-0.931
2339224.744;-49.546;-40.978;-64.187;-52.042;-77.002;6.072;10.207;2.533
2339224.752;-56.513;-48.354;-69.477;-60.610;-78.827;2.272;7.041;-0.335
2339224.760;-59.716;-49.099;-74.282;-56.960;-86.874;-1.565;5.066;-3.688
2339224.768;-62.287;-51.633;-74.953;-59.344;-89.854;-10.170;-3.614;-11.697
2339224.776;-53.085;-43.698;-64.448;-53.048;-81.845;-9.499;-2.123;-10.021
2339224.784;-50.589;-42.915;-59.754;-52.601;-79.088;-8.792;-1.080;-10.841
2339224.792;-55.134;-46.864;-62.957;-54.240;-84.378;-10.505;-3.241;-12.778
2339224.817;-48.317;-40.606;-54.017;-47.274;-75.288;-5.625;0.931;-5.998
2339224.825;-48.131;-42.617;-51.521;-49.099;-76.182;-0.820;4.433;0.745
2339224.833;-54.911;-47.348;-56.326;-53.346;-82.664;-2.198;3.651;-2.533
2339224.841;-55.283;-45.858;-55.395;-51.111;-81.584;-0.596;5.774;-2.198
2339224.849;-51.893;-43.921;-50.813;-47.833;-76.368;-0.633;5.923;-0.894
2339224.857;-51.856;-43.064;-51.484;-45.449;-81.398;-2.980;4.619;-4.135
2339224.865;-48.168;-39.712;-48.503;-42.282;-81.174;-2.533;4.172;-4.880
2339224.873;-47.870;-38.855;-48.243;-40.419;-79.684;-3.502;1.527;-4.619
2339224.881;-45.300;-37.216;-45.858;-37.961;-79.684;-3.502;0.261;-3.316
2339224.889;-44.294;-35.241;-44.554;-33.490;-79.647;-2.421;3.204;-3.912
2339224.897;-38.594;-27.940;-37.365;-25.369;-71.600;3.390;9.760;1.192
2339224.905;-39.451;-28.759;-38.333;-25.593;-74.394;2.831;8.903;-2.086
2339224.913;-50.217;-38.855;-46.305;-34.422;-81.733;2.831;8.345;-3.353
2339224.921;-46.231;-34.235;-42.804;-27.940;-81.211;9.127;15.236;1.825
2339224.929;-31.739;-20.601;-28.834;-13.113;-70.371;12.331;20.750;5.066
2339224.937;-18.217;-8.680;-16.913;-2.533;-59.009;11.250;21.867;2.943
2339224.945;-5.625;3.651;-5.588;10.021;-48.727;9.984;22.575;2.272
2339224.953;6.333;15.572;6.109;23.060;-38.780;5.364;19.111;-1.043
2339224.961;18.664;28.647;17.546;37.439;-29.840;3.837;16.838;-2.608
2339224.969;40.270;51.633;38.818;62.734;-12.480;6.184;18.924;-0.075
2339224.977;63.963;75.065;62.324;87.060;5.141;13.113;23.805;8.754
2339224.985;69.179;79.386;68.657;91.158;9.909;9.462;16.801;7.451
2339224.993;77.933;88.587;76.555;102.222;16.615;6.817;12.666;6.817
2339225.001;89.183;98.534;87.395;112.653;26.636;9.537;15.534;11.399
2339224.952;87.693;93.617;86.911;106.841;28.163;8.531;15.795;9.201
2339224.960;84.117;88.662;84.750;101.142;29.020;10.431;17.732;9.499
2339224.968;72.122;75.437;71.898;87.693;17.583;5.849;13.746;5.290
2339224.976;64.820;67.614;64.671;78.641;15.162;9.164;15.758;7.413
2339224.984;43.660;46.268;44.405;58.040;0.298;5.364;10.878;3.986
2339224.992;36.545;39.786;36.769;53.681;-8.866;6.109;13.039;6.817
2339225.000;32.112;34.980;33.379;48.764;-9.798;5.290;14.305;6.631
2339225.008;21.346;23.358;23.283;35.912;-15.162;3.837;10.170;5.327
2339225.016;9.201;11.101;11.437;24.326;-25.854;-3.129;2.049;-1.378
2339225.024;7.711;10.766;9.760;24.959;-27.344;-0.522;5.513;1.527
2339225.032;3.800;6.966;5.104;22.314;-29.132;-1.676;3.986;0.633
2339225.040;-1.229;1.378;-0.894;15.832;-35.129;-6.743;-0.745;-3.763
2339225.048;-1.043;0.969;-1.378;16.764;-36.806;-6.109;-0.373;-3.353
2339225.056;0.857;1.192;1.453;16.838;-32.485;-0.335;3.502;-0.894
2339225.064;-4.470;-3.949;-4.731;10.766;-37.476;6.482;8.158;3.166
2339225.072;-10.431;-9.686;-10.617;5.737;-40.270;7.115;7.749;5.700
2339225.080;-11.586;-11.586;-9.909;3.874;-37.737;7.451;7.786;8.754
2339225.088;-18.030;-17.062;-16.578;-0.484;-44.517;6.035;6.333;6.929
2339225.096;-20.266;-17.397;-20.750;0.373;-51.744;6.892;7.972;9.574
2339225.104;-11.399;-8.829;-11.846;8.196;-40.866;9.015;12.107;10.617
2339225.112;-11.697;-9.835;-12.331;6.668;-39.563;6.109;10.170;6.557
2339225.120;-19.707;-18.440;-19.893;-1.453;-46.194;1.974;7.115;0.484
2339225.128;-19.819;-18.291;-18.328;-1.714;-42.580;0.447;7.227;-0.633
2339225.136;-16.317;-15.013;-13.933;0.782;-38.408;3.092;9.611;3.576
2339225.103;-12.666;-11.250;-11.846;4.731;-40.084;1.788;5.998;3.166
2339225.111;-14.156;-12.815;-15.944;3.725;-44.294;-5.141;-0.335;-4.284
2339225.119;-13.411;-11.250;-14.789;4.284;-43.623;-3.092;2.794;-5.364
2339225.127;-16.168;-13.374;-15.385;0.745;-41.649;3.837;8.643;-0.037
2339225.135;-18.701;-15.460;-19.111;-1.416;-45.672;8.866;12.442;6.221
2339225.143;-26.524;-22.389;-27.344;-8.158;-52.080;7.302;9.574;7.339
2339225.151;-28.759;-23.954;-29.430;-8.717;-55.209;-0.522;2.906;2.161
2339225.159;-26.748;-23.134;-27.157;-8.419;-53.197;-6.966;-2.347;-2.533
2339225.167;-28.238;-24.885;-28.163;-10.505;-55.172;-9.686;-5.141;-8.419
2339225.175;-29.877;-24.438;-28.759;-8.568;-56.103;-3.539;1.863;-5.104
2339225.183;-26.003;-20.713;-25.406;-4.284;-51.893;1.118;7.898;-1.341
2339225.191;-25.146;-19.819;-26.114;-3.986;-50.738;-2.794;6.221;-7.264
2339225.199;-13.970;-7.972;-16.913;7.935;-42.692;4.396;14.119;0.037
2339225.207;-11.027;-4.917;-13.225;10.654;-37.551;7.227;15.125;7.562
2339225.215;-15.087;-10.133;-16.317;5.290;-39.004;4.098;9.611;6.184
2339225.223;-22.054;-16.689;-23.134;-1.267;-44.517;-0.745;5.625;1.080
2339225.231;-23.767;-17.360;-25.705;-3.576;-46.976;-0.708;8.307;0.149
2339225.239;-22.501;-17.397;-24.810;-3.688;-47.423;5.290;14.007;5.253
2339225.247;-26.077;-21.867;-27.828;-7.562;-48.317;4.992;12.368;4.470
2339225.255;-29.728;-24.512;-33.528;-10.021;-56.848;5.178;11.362;3.912
2339225.263;-24.177;-19.893;-27.940;-7.525;-49.584;7.823;13.337;8.382
2339225.271;-18.142;-13.225;-21.160;-2.347;-39.972;9.947;16.317;9.872
2339225.279;-21.085;-14.119;-25.854;-1.900;-43.549;9.462;16.689;7.935
2339225.287;-28.498;-20.117;-35.986;-8.978;-55.246;4.247;12.368;1.192
2339225.330;-27.902;-19.260;-34.459;-8.382;-51.558;6.817;14.007;1.825
2339225.338;-27.828;-19.893;-33.267;-8.605;-48.168;10.505;15.274;5.886
2339225.346;-29.095;-21.271;-32.373;-10.468;-46.901;9.649;13.709;9.276
2339225.354;-32.037;-23.097;-32.745;-13.933;-47.535;7.302;10.990;11.176
2339225.362;-38.929;-29.802;-36.918;-21.383;-51.558;2.906;7.078;5.476
2339225.370;-39.712;-30.920;-36.694;-22.240;-52.750;3.278;8.233;3.614
2339225.378;-37.067;-27.344;-31.628;-18.366;-46.939;2.086;8.754;0.969
2339225.386;-30.324;-21.011;-23.618;-10.654;-43.437;5.104;13.597;1.378
2339225.394;-29.467;-20.377;-20.936;-8.680;-41.723;7.078;16.354;2.757
2339225.402;-33.453;-23.544;-22.836;-10.394;-42.170;7.004;15.497;4.843
2339225.410;-39.525;-28.983;-29.430;-13.374;-50.925;7.041;12.666;8.605
2339225.418;-35.800;-26.487;-24.773;-9.388;-46.305;8.978;13.039;9.574
2339225.426;-35.726;-28.200;-24.401;-11.064;-48.131;6.482;10.654;5.960
2339225.434;-32.559;-27.120;-19.781;-9.052;-43.847;9.723;14.268;7.264
2339225.442;-28.312;-22.911;-14.454;-4.210;-36.955;12.703;17.472;9.313
2339225.450;-34.161;-27.157;-21.309;-7.451;-46.454;5.104;9.127;2.123
2339225.458;-36.359;-29.355;-24.065;-8.680;-50.664;4.806;7.488;3.576
2339225.466;-34.533;-29.244;-22.016;-8.494;-47.944;7.078;7.153;9.239
2339225.474;-31.106;-25.854;-18.291;-3.539;-44.443;8.456;9.350;11.139
2339225.482;-22.911;-18.552;-9.909;3.390;-35.539;14.156;16.764;17.807
2339225.490;-22.128;-18.440;-9.015;3.166;-35.390;10.170;14.603;12.666
2339225.498;-25.406;-20.564;-12.256;0.671;-41.015;6.221;11.437;5.811
2339225.506;-24.959;-20.079;-11.548;2.012;-41.276;4.433;10.170;1.416
2339225.514;-29.840;-25.816;-15.236;-4.470;-43.996;-2.496;3.800;-3.539
2339225.494;-29.728;-24.885;-16.391;-3.688;-45.225;0.298;6.258;-2.608
2339225.502;-29.989;-25.630;-17.211;-4.508;-44.517;5.290;10.356;1.490
2339225.510;-31.218;-27.530;-18.403;-7.078;-44.070;10.096;11.548;6.370
2339225.518;-31.702;-27.418;-19.297;-6.370;-44.778;12.256;10.170;8.792
2339225.526;-33.267;-28.163;-19.781;-7.004;-46.231;9.462;7.339;7.711
2339225.534;-32.112;-27.902;-18.328;-8.084;-45.635;9.276;6.780;8.568
2339225.542;-33.267;-29.616;-20.452;-11.101;-47.721;4.247;1.900;4.470
2339225.550;-30.883;-26.301;-19.297;-8.345;-47.497;6.966;5.104;9.388
2339225.558;-25.146;-19.707;-13.895;-1.714;-41.761;8.866;8.717;10.692
2339225.566;-24.773;-18.030;-13.299;-0.708;-41.611;7.711;9.201;10.058
2339225.574;-26.524;-18.515;-15.311;-0.782;-45.449;6.035;10.096;5.960
2339225.582;-24.885;-18.626;-13.746;-1.527;-43.698;5.215;9.649;2.757
2339225.590;-18.142;-12.554;-7.935;4.396;-38.296;11.362;16.242;6.966
2339225.598;-17.248;-11.697;-7.078;4.694;-38.259;9.947;16.540;1.825
2339225.606;-16.168;-10.952;-5.029;5.290;-35.316;9.574;16.838;1.118
2339225.614;-22.575;-18.030;-10.766;-2.384;-43.288;3.017;9.649;-3.353
2339225.622;-22.016;-17.844;-9.872;-1.751;-43.027;0.224;4.768;-4.359
2339225.630;-16.801;-12.182;-5.402;4.061;-40.419;3.204;5.886;2.831
2339225.638;-20.005;-13.895;-7.562;0.894;-42.208;1.304;-0.075;5.700
2339225.646;-22.873;-16.540;-9.052;-1.863;-43.474;2.943;-0.633;6.706
2339225.654;-26.785;-20.564;-12.144;-5.178;-45.113;2.831;-1.043;4.657
2339225.662;-26.599;-20.638;-11.399;-5.439;-45.039;1.565;-0.261;2.235
2339225.670;-17.472;-12.554;-3.055;2.757;-36.359;6.966;9.127;5.886
2339225.678;-10.505;-4.023;3.017;13.374;-29.355;11.250;16.913;8.121
2339225.657;-9.164;-1.751;1.267;15.832;-33.230;13.523;20.899;8.829
2339225.665;-12.293;-2.570;-2.272;15.236;-38.408;12.964;21.309;8.792
2339225.673;-15.944;-5.476;-5.066;11.399;-39.935;9.015;17.844;1.900
2339225.681;-10.356;-0.037;-0.745;16.242;-37.365;10.431;19.260;-0.857
2339225.689;-6.072;2.235;4.619;16.913;-28.983;10.915;18.999;0.969
2339225.697;-5.029;1.788;5.551;15.646;-27.046;9.537;15.497;2.310
2339225.705;-1.043;5.700;7.711;20.154;-27.604;9.835;13.933;3.949
2339225.713;-1.155;5.476;8.196;19.483;-28.722;6.631;9.872;2.272
2339225.721;-5.439;2.198;5.588;19.148;-30.957;3.725;3.800;3.017
2339225.729;-3.986;3.874;8.345;19.185;-29.206;2.161;0.596;4.582
2339225.737;-1.006;4.768;13.486;18.068;-22.911;-1.155;-5.141;3.316
2339225.745;7.041;10.654;21.867;23.581;-16.317;3.166;-1.192;7.190
2339225.753;13.299;17.434;26.301;30.100;-15.870;6.482;4.359;8.419
2339225.761;25.369;29.914;37.663;45.560;-8.233;8.196;8.456;8.345
2339225.769;46.454;53.905;58.152;69.104;9.872;9.388;13.933;7.413
2339225.777;61.914;71.786;71.824;87.768;19.930;11.474;16.950;8.829
2339225.785;73.835;82.962;81.472;100.210;26.673;10.319;14.342;8.531
2339225.793;87.507;97.901;94.473;116.378;35.800;9.909;15.162;6.892
2339225.801;103.936;115.409;111.908;134.818;50.031;16.987;20.936;14.640
2339225.809;116.453;126.623;123.270;145.398;60.387;21.458;26.003;19.148
2339225.817;116.639;127.107;123.754;145.957;60.052;21.942;28.722;17.360
2339225.825;113.808;123.233;121.072;138.879;58.711;21.383;29.132;17.211
2339225.833;109.188;116.825;116.453;131.950;57.481;18.105;28.089;13.746
2339225.841;99.242;106.320;105.277;120.513;47.237;17.285;27.195;12.852
2339225.823;78.455;85.272;82.254;96.895;26.226;14.901;23.842;10.021
2339225.831;64.038;69.663;67.353;77.412;14.901;15.981;21.942;11.548
2339225.839;60.610;67.241;65.044;73.612;16.615;20.377;24.810;18.664
2339225.847;56.140;63.032;59.605;67.465;14.529;16.354;19.260;17.174
2339225.855;46.007;53.979;48.243;56.922;2.906;14.417;17.472;17.881
2339225.863;39.898;48.988;42.580;51.297;0.484;14.417;18.328;17.993
2339225.871;33.602;44.480;36.992;46.492;-4.955;17.881;22.128;18.775
2339225.879;20.824;33.192;24.922;34.682;-20.601;17.099;21.458;16.205
2339225.887;13.560;24.848;21.495;26.226;-23.209;17.099;19.409;17.919
2339225.895;11.362;22.128;22.389;24.214;-21.420;18.254;19.968;18.142
2339225.903;7.078;18.105;17.323;20.750;-27.157;15.870;19.222;14.007
2339225.911;3.874;15.534;15.125;18.813;-28.908;17.583;20.638;14.119
2339225.919;0.037;11.548;13.001;15.125;-31.665;20.228;21.420;18.403
2339225.927;-2.794;10.319;11.511;14.156;-34.161;17.323;17.434;18.403
2339225.935;-10.654;1.192;5.625;4.470;-40.866;10.915;7.600;13.486
2339225.943;-17.211;-5.513;-1.602;-1.900;-48.354;5.849;2.012;9.909
2339225.951;-17.844;-5.290;-1.378;-0.298;-49.286;8.792;7.413;9.015
2339225.959;-16.466;-4.172;1.825;1.490;-45.076;16.950;18.403;11.548
2339225.967;-20.303;-6.594;-1.006;-0.112;-48.392;19.148;22.314;11.437
2339225.975;-23.618;-8.903;-4.247;-1.788;-50.962;17.919;20.526;9.909
2339225.983;-22.613;-9.872;-3.241;-1.788;-49.025;14.119;18.366;8.009
2339225.991;-23.767;-12.778;-3.651;-8.047;-48.652;11.250;14.901;7.972
2339225.999;-23.246;-13.411;-2.757;-9.164;-47.013;10.021;13.486;8.605
2339226.007;-21.532;-11.660;-1.267;-5.625;-46.082;8.978;12.442;6.482
2339225.975;-19.036;-8.680;0.969;-2.347;-44.890;9.276;11.623;7.674
2339225.983;-16.652;-7.600;2.757;-3.055;-41.872;7.562;9.052;7.935
2339225.991;-13.150;-4.433;4.731;-0.522;-39.712;4.470;7.115;6.333
2339225.999;-18.887;-9.350;-1.900;-7.302;-47.684;-1.937;0.186;0.857
2339226.007;-22.426;-11.213;-5.811;-9.164;-49.844;-1.974;0.373;0.149
2339226.015;-17.732;-5.849;-2.831;-2.310;-47.013;-2.235;3.576;-4.061
2339226.023;-15.646;-3.017;-2.012;-0.484;-46.454;-1.304;7.600;-7.376
2339226.031;-18.179;-6.147;-4.172;-5.513;-48.354;-3.949;5.402;-8.233
2339226.039;-20.042;-8.345;-6.184;-8.419;-49.546;-9.462;0.633;-8.568
2339226.047;-25.034;-13.374;-12.070;-11.586;-55.842;-8.643;-0.410;-6.966
2339226.055;-23.022;-10.245;-11.139;-7.190;-55.209;-5.215;1.863;-4.582
2339226.063;-16.242;-3.837;-4.508;-1.378;-48.503;-0.447;7.264;-0.261
2339226.071;-12.517;-0.261;-1.751;1.118;-43.958;3.092;10.170;3.353
2339226.079;-14.119;-1.490;-2.161;0.410;-42.357;2.794;9.164;4.359
2339226.087;-17.211;-4.545;-3.725;-1.825;-43.772;5.774;10.170;8.233
2339226.095;-15.683;-4.694;-1.900;-2.496;-40.457;6.445;10.207;7.898
2339226.103;-14.752;-3.651;-1.155;-0.969;-39.116;4.955;8.494;4.955
2339226.111;-16.280;-4.396;-2.459;-1.751;-40.904;-0.373;4.023;-0.298
2339226.119;-19.670;-7.860;-5.998;-5.662;-43.511;-5.737;-1.043;-4.284
2339226.127;-19.148;-7.302;-3.725;-6.780;-42.208;-6.147;-1.825;-3.353
2339226.135;-19.148;-7.339;-3.651;-5.886;-41.090;-3.949;-1.267;-0.931
2339226.143;-18.515;-7.972;-2.719;-6.743;-37.029;-2.347;1.155;-1.676
2339226.151;-10.468;-1.341;5.588;-1.565;-28.051;2.198;5.998;2.682
2339226.159;-6.557;3.017;5.886;3.949;-31.628;2.459;7.004;4.433
2339226.154;-8.605;2.459;3.055;3.166;-34.049;2.794;7.823;5.662
2339226.162;-8.233;1.974;3.837;2.421;-32.522;5.327;8.792;8.754
2339226.170;-7.674;1.490;3.465;2.831;-33.788;3.204;4.917;7.525
2339226.178;-12.368;-4.619;-0.969;-3.092;-36.731;-0.894;1.341;2.049
2339226.186;-13.560;-5.104;-2.347;-3.763;-36.284;3.688;6.855;4.396
2339226.194;-17.174;-7.339;-6.929;-4.731;-40.196;4.843;8.941;4.061
2339226.202;-14.342;-4.545;-4.433;-1.937;-37.178;5.849;11.399;4.806
2339226.210;-11.474;-2.645;-1.937;-0.671;-33.900;4.843;11.027;3.241
2339226.218;-8.605;-0.037;2.906;1.229;-27.381;8.866;13.299;5.588
2339226.226;-14.976;-6.743;-2.682;-6.072;-34.869;9.798;12.740;6.743
2339226.234;-15.423;-6.557;-4.768;-3.353;-36.396;10.207;13.448;7.637
2339226.242;-11.884;-3.614;-2.645;-0.596;-32.336;12.778;16.950;9.239
2339226.250;-15.609;-6.817;-8.047;-5.774;-37.476;8.531;11.846;4.806
2339226.258;-11.921;-3.166;-4.061;-3.651;-31.814;9.313;10.841;8.084
2339226.266;-7.711;-0.149;-0.261;0.149;-28.238;10.505;13.113;10.394
2339226.274;-10.431;-4.657;-2.608;-4.843;-29.504;5.178;8.270;7.376
2339226.282;-13.635;-5.923;-4.843;-6.333;-30.063;4.545;7.786;4.619
2339226.290;-14.156;-5.923;-5.215;-5.215;-31.367;4.396;6.892;2.868
2339226.298;-10.692;-4.247;-2.086;-3.278;-27.306;4.619;5.513;4.545
2339226.306;-9.499;-1.974;-2.235;-2.943;-27.306;1.639;2.868;1.639
2339226.314;-6.892;0.782;-1.490;0.894;-28.536;1.527;1.192;2.980
2339226.322;-7.860;-0.447;-1.788;-1.416;-27.306;2.421;2.421;3.539
2339226.330;-7.339;1.267;-2.794;2.868;-27.381;6.370;8.978;5.811
2339226.338;-3.502;5.253;-0.782;6.519;-25.854;8.792;10.096;8.643
2339226.364;-8.754;-1.118;-5.700;-0.745;-29.393;5.066;6.109;5.402
2339226.372;-16.652;-11.027;-13.709;-12.331;-39.153;-0.149;-0.633;0.745
2339226.380;-14.789;-9.164;-12.442;-11.139;-35.726;4.582;2.533;5.066
2339226.388;-19.148;-13.672;-18.142;-15.832;-40.755;4.023;2.012;4.508
2339226.396;-18.403;-14.268;-18.552;-16.466;-41.313;1.043;-1.676;0.857
2339226.404;-13.709;-6.892;-14.901;-11.958;-36.508;3.353;2.757;1.527
2339226.412;-16.056;-8.196;-19.297;-14.380;-43.064;2.310;2.831;0.969
2339226.420;-15.013;-8.680;-14.007;-16.093;-33.453;6.668;5.327;7.227
2339226.428;-14.678;-6.296;-11.921;-13.486;-32.298;7.935;6.184;8.866
2339226.436;-14.342;-5.327;-13.448;-11.325;-42.431;3.576;1.863;3.651
2339226.444;-8.307;3.949;-5.588;-4.880;-34.459;6.147;6.221;6.221
2339226.452;-10.207;1.751;-5.253;-8.345;-35.316;6.258;7.153;5.178
2339226.460;-4.545;8.754;3.278;2.161;-26.673;11.548;11.995;7.935
2339226.468;-2.980;8.196;7.041;-0.149;-24.512;9.276;8.568;4.023
2339226.476;2.831;13.672;14.305;5.588;-19.781;9.649;9.127;3.278
2339226.484;11.958;21.160;26.263;9.872;-8.643;7.302;8.382;1.341
2339226.492;18.477;30.212;32.708;20.862;-9.760;6.855;7.637;1.304
2339226.500;29.057;43.735;43.809;36.024;-1.453;10.803;11.772;4.321
2339226.508;39.563;55.507;54.911;49.546;3.949;14.305;14.305;7.786
2339226.516;41.686;59.232;56.513;53.979;-0.149;14.529;14.789;7.935
2339226.524;41.202;60.238;57.109;55.805;-3.614;5.886;6.706;1.676
2339226.532;60.126;82.031;76.778;80.466;6.370;6.184;5.141;3.614
2339226.540;63.255;85.980;80.578;82.776;5.960;2.459;2.198;0.857
2339226.548;74.431;94.324;94.920;89.668;20.340;5.476;5.960;3.166
2339226.498;88.252;111.796;105.761;112.057;20.564;20.154;22.054;15.385
2339226.506;72.531;93.654;87.954;86.278;-1.974;5.029;5.476;2.198
2339226.514;71.675;90.785;87.805;82.180;-3.614;-0.633;-0.671;-2.757
2339226.522;66.198;83.297;82.776;74.282;-14.789;2.161;0.186;1.267
2339226.530;52.080;67.465;64.634;53.644;-36.806;1.788;-0.782;0.708
2339226.538;55.693;71.749;63.665;59.083;-42.059;12.033;8.680;11.958
2339226.546;43.549;62.436;46.603;52.899;-68.955;4.284;4.359;3.427
2339226.554;28.573;44.666;30.100;29.989;-82.739;-3.539;-3.390;-5.029
2339226.562;41.611;59.530;40.382;48.168;-68.098;9.276;9.872;4.657
2339226.570;34.980;55.060;22.650;45.672;-101.440;16.019;16.876;8.605
2339226.578;34.086;53.607;20.452;38.221;-82.366;25.257;24.997;17.807
2339226.586;26.450;48.280;4.098;34.496;-79.721;22.985;18.850;19.073
2339226.594;27.157;49.509;-0.596;32.336;-42.543;19.521;15.683;12.591
2339226.602;35.986;58.450;0.298;42.729;2.608;19.521;14.193;14.640
2339226.610;43.884;65.342;2.421;47.684;43.139;31.367;27.344;27.604
2339226.618;38.408;64.485;-9.313;49.062;39.153;38.967;35.875;33.975
2339226.626;41.164;69.253;-14.082;50.478;42.096;40.643;36.620;34.347
2339226.634;32.075;72.382;-27.567;53.756;60.759;24.885;20.415;20.154
2339226.642;32.596;82.627;-26.524;60.350;95.591;23.209;19.930;16.876
2339226.650;20.266;74.208;-46.454;48.764;91.791;15.162;11.176;8.158
2339226.658;16.838;72.494;-60.908;46.603;97.714;17.546;13.374;10.729
2339226.666;8.009;66.981;-77.076;46.566;102.594;14.044;10.803;8.456
2339226.674;15.162;72.755;-72.867;47.684;119.209;15.087;11.660;10.319
2339226.682;17.583;78.864;-77.896;53.160;114.404;10.952;8.494;8.419
2339226.648;22.240;85.905;-77.374;61.244;119.358;11.027;9.537;8.494
2339226.656;21.234;85.533;-82.515;59.977;115.633;10.878;8.196;10.096
2339226.664;7.749;71.973;-100.732;47.050;97.342;5.215;-0.186;4.284
2339226.672;17.621;83.111;-97.193;63.367;102.744;12.331;8.009;9.313
2339226.680;15.795;80.913;-101.440;61.132;106.394;19.781;17.062;12.331
2339226.688;19.781;86.054;-104.234;68.434;96.411;22.165;19.409;13.150
2339226.696;2.347;68.322;-123.233;49.956;76.517;17.993;12.740;11.139
2339226.704;2.161;67.949;-124.425;48.690;75.065;21.830;15.087;14.976
2339226.712;6.966;72.643;-123.605;54.799;68.583;21.532;15.460;14.044
2339226.720;5.513;67.987;-121.333;48.876;78.678;16.503;9.686;11.623
2339226.728;17.472;75.959;-108.667;53.421;92.275;7.004;-0.484;5.774
2339226.736;33.379;92.015;-95.293;72.718;101.924;16.801;12.778;15.795
2339226.744;23.693;81.137;-105.165;62.883;93.132;9.462;3.465;9.164
2339226.752;22.016;75.996;-106.245;56.773;93.766;7.823;0.447;5.849
2339226.760;25.742;77.710;-102.669;60.871;92.387;9.090;4.582;3.241
2339226.768;29.653;79.386;-94.771;62.771;102.967;10.319;4.619;5.923
2339226.776;24.289;71.712;-96.746;53.607;100.322;8.345;1.453;5.811
2339226.784;12.517;56.215;-110.008;41.053;87.693;8.307;2.086;6.184
2339226.792;12.703;48.950;-110.716;34.906;101.626;12.070;6.668;10.505
2339226.800;9.537;40.866;-112.355;28.387;103.377;14.119;6.407;12.666
2339226.808;3.874;30.473;-117.011;18.328;97.342;12.517;2.496;10.580
2339226.816;6.743;29.281;-110.455;18.477;105.463;15.199;6.035;12.517
2339226.824;2.645;20.117;-108.555;11.474;107.288;9.201;2.272;8.382
2339226.832;4.098;15.609;-102.445;7.451;115.186;6.370;0.037;4.806
2339226.770;3.837;14.156;-99.801;7.600;112.094;6.296;3.204;2.719
2339226.778;-3.166;5.774;-103.302;-1.490;104.755;4.061;-2.347;-0.559
2339226.786;9.723;19.595;-84.229;13.001;125.803;9.388;3.390;2.645
2339226.794;15.944;25.928;-73.202;19.260;133.850;9.835;4.694;5.402
2339226.802;16.801;23.842;-69.663;16.578;131.316;4.843;0.745;0.782
2339226.810;35.316;41.090;-46.641;31.069;155.680;4.843;2.496;-0.298
2339226.818;43.884;50.738;-36.061;36.769;167.862;4.545;3.017;2.272
2339226.826;43.027;52.080;-37.551;41.053;157.505;4.806;5.774;0.633
2339226.834;52.229;61.765;-23.358;54.240;169.575;-0.335;-3.763;-2.868
2339226.842;61.654;70.259;-7.711;61.914;182.539;-3.465;-6.668;-5.290
2339226.850;73.873;82.441;9.239;73.425;196.584;-4.023;-7.674;-1.229
2339226.858;81.882;90.450;26.152;80.355;213.161;-6.184;-9.537;-4.098
2339226.866;83.111;93.728;34.273;84.862;210.740;-6.258;-9.127;-6.072
2339226.874;96.336;104.718;55.246;95.218;227.019;1.416;-2.198;0.894
2339226.882;97.118;105.910;63.404;97.156;231.676;0.931;-2.794;-1.118
2339226.890;87.358;97.044;57.854;87.991;221.990;-0.820;-4.284;-3.614
2339226.898;85.123;93.691;61.579;84.490;223.853;-5.998;-10.207;-8.345
2339226.906;87.321;95.330;67.316;85.384;226.572;-3.688;-9.239;-5.737
2339226.914;82.254;91.791;64.000;80.578;222.698;2.198;-2.496;-1.751
2339226.922;70.594;79.572;55.209;67.726;213.757;0.820;-2.570;-6.445
2339226.930;59.642;68.136;49.546;55.283;211.112;-3.874;-7.674;-9.723
2339226.938;47.609;57.593;37.290;46.156;189.282;-7.823;-13.150;-12.740
2339226.946;36.024;46.566;28.200;35.055;180.155;-3.427;-10.990;-7.488
2339226.954;20.973;31.628;13.933;18.701;166.595;0.596;-7.749;-3.241
2339226.978;17.546;29.281;10.915;16.652;162.497;1.974;-4.694;-0.559
2339226.986;14.938;26.971;9.574;15.013;157.319;-2.347;-6.594;-5.215
2339226.994;10.282;21.085;8.680;8.643;156.499;-2.831;-6.668;-6.109
2339227.002;3.800;14.231;7.413;2.496;154.264;-2.496;-4.955;-8.345
2339227.010;-9.090;1.378;-4.955;-8.792;135.750;-6.109;-11.884;-10.394
2339227.018;-12.331;-2.943;-5.215;-12.964;133.961;-9.425;-18.813;-13.113
2339227.026;-8.419;-0.894;1.267;-10.021;135.005;-9.499;-18.217;-12.629
2339227.034;-10.692;-7.562;3.539;-17.881;143.237;-6.929;-17.062;-7.749
2339227.042;-14.342;-10.543;-0.075;-21.346;136.457;-4.247;-14.789;-7.860
2339227.050;-14.566;-8.531;-1.267;-17.360;130.646;-4.023;-12.517;-10.245
2339227.058;-15.832;-10.729;-2.161;-20.750;127.070;-7.413;-13.970;-11.511
2339227.066;-22.948;-18.440;-7.413;-28.349;119.768;-13.001;-19.968;-17.211
2339227.074;-15.758;-10.580;0.335;-20.005;124.201;-8.345;-13.374;-12.852
2339227.082;-17.919;-12.778;0.112;-23.358;123.717;-8.047;-12.107;-13.374
2339227.090;-25.332;-20.862;-4.657;-30.249;119.805;-10.170;-15.013;-17.695
2339227.098;-26.077;-23.171;-4.992;-30.957;116.564;-12.591;-17.956;-21.048
2339227.106;-25.444;-22.687;-4.955;-31.218;118.129;-15.423;-20.973;-22.165
2339227.114;-29.020;-26.189;-6.892;-33.826;115.745;-12.815;-18.626;-18.030
2339227.122;-35.837;-32.671;-11.139;-39.153;109.710;-10.207;-17.509;-15.534
2339227.130;-40.196;-37.253;-15.721;-41.462;102.706;-10.245;-15.944;-16.727
2339227.138;-34.235;-32.224;-8.792;-35.912;112.616;-6.370;-12.144;-13.039
2339227.146;-32.634;-30.659;-5.364;-35.986;117.309;-6.184;-12.703;-11.250
2339227.154;-32.932;-31.032;-4.731;-36.955;119.954;-5.700;-13.076;-8.382
2339227.162;-29.206;-26.971;-3.055;-31.218;119.582;-3.725;-10.431;-9.239
2339227.232;-30.510;-28.312;-4.806;-31.665;117.011;-9.388;-14.044;-18.291
2339227.240;-24.103;-22.538;1.602;-24.959;125.803;-8.680;-11.101;-18.328
2339227.248;-16.578;-17.174;9.649;-17.211;134.557;-3.129;-3.912;-11.660
2339227.256;-17.136;-16.205;7.227;-17.248;131.950;-3.688;-2.943;-13.486
2339227.264;-17.323;-20.005;3.576;-18.813;129.193;-5.215;-4.396;-12.852
2339227.272;-12.070;-19.707;6.929;-17.472;132.881;-8.121;-8.009;-14.715
2339227.280;-11.474;-19.372;7.004;-20.489;135.936;-5.700;-7.413;-13.262
2339227.288;-10.096;-19.260;9.052;-22.724;140.779;-2.086;-4.843;-11.027
2339227.296;-7.115;-17.583;12.666;-21.607;147.894;-2.123;-4.359;-10.692
2339227.304;-6.706;-18.403;13.039;-21.793;150.576;-4.284;-6.184;-11.846
2339227.312;-5.849;-18.589;15.013;-22.165;155.866;-4.098;-5.849;-11.623
2339227.320;-3.390;-18.664;17.993;-20.899;162.013;-1.006;-3.576;-6.296
2339227.328;-7.339;-23.842;13.858;-24.848;158.101;-5.104;-7.004;-11.101
2339227.336;-7.935;-23.618;13.933;-22.538;158.884;-6.743;-7.041;-11.325
2339227.344;-6.817;-21.458;15.944;-18.589;163.242;-5.066;-4.917;-10.543
2339227.352;-11.474;-26.412;14.044;-23.320;164.248;-7.339;-9.723;-11.995
2339227.360;-12.368;-27.604;14.827;-24.885;168.458;-5.178;-11.101;-9.201
2339227.368;-12.591;-28.759;16.466;-26.859;171.736;-5.327;-12.070;-10.543
2339227.376;-12.890;-28.796;16.056;-25.816;170.171;-7.637;-12.852;-11.027
2339227.384;-12.107;-28.647;18.477;-23.991;173.263;-10.766;-12.629;-12.480
2339227.392;-9.090;-26.338;21.756;-19.558;174.083;-9.872;-9.909;-13.225
2339227.400;-3.316;-21.867;28.498;-15.646;180.267;-4.619;-4.396;-8.568
2339227.408;-4.172;-22.799;27.977;-16.652;175.945;-1.825;-1.900;-7.041
2339227.416;-1.676;-20.452;30.436;-15.050;177.994;1.453;0.112;-4.470
2339227.384;3.539;-15.087;36.508;-9.462;183.508;3.390;2.608;-1.565
2339227.392;3.614;-15.981;38.780;-11.101;184.514;-0.820;-2.198;-2.943
2339227.400;-2.719;-22.948;34.273;-18.254;176.020;-8.121;-10.692;-9.201
2339227.408;-0.484;-21.420;36.992;-15.721;173.748;-9.574;-11.623;-9.835
2339227.416;3.576;-16.913;40.047;-12.778;171.997;-9.201;-10.841;-10.468
2339227.424;4.023;-15.758;42.282;-12.219;172.891;-10.878;-10.394;-15.050
2339227.432;4.694;-14.417;43.660;-11.548;167.079;-8.531;-6.370;-14.417
2339227.440;6.221;-12.144;45.188;-9.947;163.764;-3.837;-1.043;-10.058
2339227.448;6.258;-11.288;41.500;-10.431;152.439;-1.639;1.639;-8.717
2339227.456;4.433;-13.076;37.774;-12.629;143.982;-1.378;2.570;-8.345
2339227.464;0.149;-18.217;34.906;-18.179;137.985;-5.253;-2.012;-12.107
2339227.472;-3.204;-22.277;32.671;-24.997;133.403;-9.201;-8.829;-14.566
2339227.480;-5.253;-23.730;32.634;-26.934;125.431;-11.027;-13.337;-14.603
2339227.488;-7.004;-23.432;33.267;-27.940;115.484;-9.835;-11.995;-12.629
2339227.496;-5.253;-20.564;35.986;-25.369;106.245;-7.004;-8.978;-9.574
2339227.504;-4.806;-18.552;34.086;-23.097;51.558;-4.396;-5.923;-8.494
2339227.512;-10.096;-22.054;29.393;-25.406;-11.288;-10.021;-9.611;-15.125
2339227.520;-13.746;-24.885;28.685;-27.306;-22.054;-9.574;-9.537;-12.815
2339227.528;-14.678;-25.034;29.914;-26.412;-23.358;-8.754;-8.717;-11.288
2339227.536;-14.566;-23.991;28.759;-24.587;-28.014;-11.623;-10.431;-15.199
2339227.544;-12.442;-21.122;32.894;-23.209;-24.103;-10.990;-8.978;-14.380
2339227.552;-11.921;-19.819;36.173;-21.756;-19.260;-9.723;-6.966;-14.827
2339227.560;-12.442;-20.936;36.992;-22.687;-16.540;-11.437;-11.027;-15.646
2339227.568;-7.153;-16.056;42.096;-16.578;-12.629;-6.743;-7.898;-11.772
2339227.534;-6.445;-14.007;42.990;-13.709;-10.431;-3.092;-5.439;-9.239
2339227.542;-11.027;-19.670;39.190;-21.793;-14.491;-1.565;-5.662;-10.990
2339227.550;-10.207;-18.664;42.617;-21.569;-6.594;0.559;-4.359;-8.494
2339227.558;-12.182;-19.111;41.723;-22.016;-5.849;-2.012;-7.153;-10.207
2339227.566;-6.817;-12.666;46.454;-15.497;-0.335;2.682;-1.676;-5.104
2339227.574;-5.104;-11.548;46.194;-14.417;0.112;1.788;-0.671;-5.029
2339227.582;-7.488;-14.752;42.766;-17.807;-1.565;-1.118;-4.284;-6.780
2339227.590;-9.276;-15.944;40.792;-18.813;-2.496;-3.204;-7.488;-9.425
2339227.598;-8.829;-16.764;43.325;-19.185;4.359;-1.825;-6.929;-7.600
2339227.606;-11.362;-18.664;39.861;-19.707;-0.335;-4.731;-8.307;-11.399
2339227.614;-9.425;-18.217;39.898;-18.626;1.937;-2.906;-6.892;-8.829
2339227.622;-5.141;-15.311;44.480;-15.907;11.027;0.149;-3.316;-7.078
2339227.630;-5.513;-17.323;44.219;-17.583;12.107;0.484;-3.651;-7.860
2339227.638;-0.484;-13.262;49.956;-15.460;24.028;5.290;0.671;-1.900
2339227.646;-1.565;-14.864;47.348;-17.993;20.489;1.863;-2.533;-5.625
2339227.654;-3.390;-16.503;44.294;-17.360;16.615;-2.161;-6.519;-8.047
2339227.662;-9.499;-23.432;38.669;-24.065;12.703;-5.327;-10.133;-10.431
2339227.670;-8.941;-24.810;37.700;-26.226;13.858;-6.855;-11.474;-12.144
2339227.678;-3.055;-19.297;43.623;-20.713;22.873;-2.421;-7.562;-7.451
2339227.686;-3.651;-18.105;42.282;-17.658;20.564;-2.682;-8.270;-7.451
2339227.694;-4.061;-15.832;41.164;-15.832;20.750;-5.811;-8.307;-11.027
2339227.702;-1.825;-13.076;44.294;-10.915;24.512;-5.253;-5.700;-11.399
2339227.710;3.502;-7.637;48.354;-7.041;26.822;-6.892;-7.823;-12.815
2339227.718;11.697;0.224;55.544;0.186;31.851;-6.966;-9.239;-11.623
2339227.683;25.369;13.188;69.588;13.225;45.560;-2.980;-7.525;-7.935
2339227.691;38.221;26.934;80.317;28.349;50.850;0.447;-4.359;-5.290
2339227.699;50.068;41.164;91.493;44.517;59.716;-1.304;-4.470;-10.356
2339227.707;84.639;76.257;125.989;80.876;93.542;5.066;5.290;-4.247
2339227.715;101.067;91.158;141.785;97.230;102.296;5.104;6.258;-3.651
2339227.723;105.612;94.436;149.310;100.993;110.641;2.496;2.123;-3.874
2339227.731;109.039;96.969;152.029;104.345;113.398;-2.421;-2.943;-8.047
2339227.739;112.839;100.359;155.419;107.847;117.235;1.751;-0.745;-3.949
2339227.747;115.708;102.893;157.952;111.535;121.891;6.072;2.980;0.671
2339227.755;111.982;98.273;153.035;107.326;117.943;2.347;0.484;-2.570
2339227.763;109.524;95.665;149.794;105.053;115.521;3.465;1.900;-0.708
2339227.771;92.909;76.704;131.764;85.272;101.440;0.633;-2.272;-2.980
2339227.779;74.208;57.817;112.318;65.826;85.160;-1.639;-5.774;-6.706
2339227.787;63.367;46.380;101.514;54.017;79.907;-2.608;-7.413;-6.557
2339227.795;56.550;38.557;94.436;45.970;76.853;-7.004;-11.846;-10.133
2339227.803;54.240;37.178;88.438;44.331;70.259;-4.396;-9.388;-6.817
2339227.811;49.509;32.969;83.745;39.414;69.365;-0.298;-4.955;-4.135
2339227.819;39.786;22.314;73.761;28.498;61.728;1.900;-3.614;-3.502
2339227.827;29.095;11.362;60.834;17.434;50.329;1.825;-4.470;-3.837
2339227.835;25.257;7.451;57.667;13.113;50.887;3.316;-4.061;-1.714
2339227.843;19.372;2.310;52.005;9.052;46.976;4.061;-1.602;-1.416
2339227.851;11.921;-5.960;42.543;0.335;40.270;-0.931;-4.992;-5.364
2339227.859;6.482;-11.213;36.769;-6.482;34.906;-6.109;-11.548;-9.947
2339227.867;9.611;-8.307;37.737;-3.912;36.359;-4.545;-10.356;-8.084
2339227.938;10.207;-8.531;37.551;-3.465;37.700;-1.080;-6.668;-4.545
2339227.946;5.662;-11.586;34.459;-5.290;37.514;4.284;-1.229;-0.037
2339227.954;-0.149;-16.503;28.759;-9.947;33.267;10.319;3.092;3.316
2339227.962;-2.272;-19.297;26.450;-11.958;33.081;14.566;6.333;4.359
2339227.970;-0.931;-15.646;26.785;-9.462;35.129;12.703;7.227;0.149
2339227.978;-3.353;-19.521;23.358;-13.709;30.547;6.817;2.570;-4.619
2339227.986;-6.817;-23.954;18.589;-18.254;24.587;4.806;0.522;-4.135
2339227.994;-6.333;-22.687;17.621;-16.689;26.189;4.470;0.149;-0.596
2339228.002;-8.047;-23.842;15.646;-18.962;26.003;3.763;-2.198;0.037
2339228.010;-5.625;-19.893;16.280;-15.981;26.412;5.513;0.671;0.484
2339228.018;-8.605;-23.283;12.219;-21.271;24.289;1.080;-3.539;-4.061
2339228.026;-9.499;-25.593;9.686;-24.810;23.991;0.820;-2.719;-4.098
2339228.034;-10.245;-26.561;7.562;-26.114;23.805;0.112;-3.316;-3.465
2339228.042;-18.068;-33.863;0.559;-35.316;19.893;-1.751;-7.115;-3.651
2339228.050;-21.718;-36.806;-2.086;-40.345;19.968;-0.112;-7.860;-2.235
2339228.058;-22.165;-35.390;-2.049;-39.451;20.899;1.490;-5.849;-3.092
2339228.066;-23.209;-36.322;-2.682;-40.196;20.936;-1.676;-8.084;-6.855
2339228.074;-19.930;-32.410;2.347;-34.831;26.748;-1.527;-5.700;-7.190
2339228.082;-22.389;-28.983;1.080;-33.043;23.209;1.378;-1.900;-6.147
2339228.090;-27.306;-32.522;-2.496;-36.247;19.260;1.937;0.261;-7.078
2339228.098;-23.134;-29.020;4.992;-32.745;27.046;-2.719;-4.731;-10.990
2339228.106;-21.271;-26.226;8.754;-30.026;32.708;-4.135;-6.519;-11.772
2339228.114;-25.965;-29.281;4.917;-32.671;30.249;-8.829;-10.580;-15.832
2339228.122;-21.905;-24.624;10.431;-28.349;34.980;-5.923;-8.121;-13.039
2339228.227;-23.395;-24.103;7.264;-26.077;28.759;-6.557;-7.115;-13.933
2339228.235;-24.550;-25.444;7.339;-26.748;29.989;-5.662;-6.333;-11.250
2339228.243;-26.152;-28.349;5.774;-29.095;27.344;-6.370;-7.898;-11.660
2339228.251;-22.165;-23.209;9.499;-25.928;30.771;-6.035;-7.153;-10.729
2339228.259;-19.222;-20.750;14.342;-23.283;38.035;-3.055;-5.402;-7.153
2339228.267;-18.738;-21.942;15.423;-21.756;39.265;-8.903;-12.890;-13.039
2339228.275;-18.850;-23.171;15.013;-23.767;40.866;-8.605;-12.517;-13.746
2339228.283;-23.209;-27.567;9.947;-27.008;35.688;-9.723;-14.007;-14.268
2339228.291;-17.285;-17.919;15.721;-18.813;41.574;-4.880;-8.345;-8.643
2339228.299;-20.675;-22.128;13.225;-21.979;38.967;-12.591;-18.589;-15.572
2339228.307;-20.452;-23.916;13.560;-23.395;39.376;-11.958;-19.297;-14.119
2339228.315;-19.893;-24.363;14.193;-22.165;41.723;-6.109;-12.964;-9.015
2339228.323;-17.285;-17.956;15.236;-16.950;42.580;-6.706;-12.927;-10.543
2339228.331;-11.064;-11.697;22.464;-7.674;50.217;-1.155;-3.986;-5.625
2339228.339;-13.411;-15.721;19.707;-11.846;46.082;-11.623;-17.285;-14.082
2339228.347;-6.780;-9.052;25.965;-3.912;52.266;-7.525;-13.001;-8.419
2339228.355;1.676;-1.602;30.808;1.751;53.942;-8.568;-11.958;-12.368
2339228.363;13.039;8.866;40.531;10.207;63.330;-9.760;-12.517;-13.560
2339228.371;26.263;20.638;52.527;20.824;73.053;-9.537;-12.703;-14.007
2339228.379;37.923;31.665;64.149;33.639;81.398;-11.325;-16.838;-16.056
2339228.387;51.595;44.852;77.523;49.621;90.823;-9.499;-16.950;-11.772
2339228.395;60.275;56.848;86.091;61.542;96.373;-11.772;-18.626;-12.219
2339228.403;67.651;64.783;95.442;66.720;105.128;-8.680;-14.678;-8.345
2339228.411;66.608;63.665;95.628;67.689;107.139;-4.210;-9.239;-6.296
2339228.405;64.634;61.803;91.866;64.559;106.730;-5.960;-10.729;-8.866
2339228.413;64.224;59.754;90.934;62.585;109.039;-8.047;-13.337;-9.909
2339228.421;65.714;61.095;93.579;63.963;117.943;-7.823;-11.995;-8.047
2339228.429;67.316;64.075;94.846;67.167;122.711;-2.570;-5.066;-4.172
2339228.437;56.215;50.552;82.366;49.621;111.386;-6.184;-12.852;-6.333
2339228.445;40.345;33.937;62.399;34.161;89.966;-14.678;-20.117;-14.976
2339228.453;32.112;24.773;54.576;25.705;86.725;-17.509;-23.022;-18.738
2339228.461;21.718;17.174;41.872;17.658;67.689;-19.595;-26.524;-20.452
2339228.469;13.486;9.425;32.298;8.568;58.003;-24.550;-31.590;-26.301
2339228.477;10.729;3.837;28.685;2.496;55.060;-26.636;-32.745;-27.902
2339228.485;8.605;0.708;26.301;-2.421;52.229;-24.810;-31.963;-25.779
2339228.493;12.219;4.321;27.865;0.708;52.005;-18.291;-26.636;-19.409
2339228.501;10.133;2.868;24.438;-0.708;47.423;-17.174;-27.195;-17.174
2339228.509;2.384;-5.849;17.025;-10.207;41.388;-19.260;-29.691;-18.701
2339228.517;2.347;-7.786;15.721;-13.076;40.829;-15.944;-26.077;-14.864
2339228.525;3.651;-6.445;14.342;-12.107;36.806;-11.995;-19.446;-14.119
2339228.533;2.906;-7.264;12.070;-12.815;33.677;-13.411;-21.234;-15.423
2339228.541;9.872;0.782;17.583;-4.247;38.221;-8.270;-15.646;-13.635
2339228.549;6.557;-3.837;13.039;-6.780;34.496;-5.849;-12.480;-12.442
2339228.557;9.686;0.969;15.087;-3.129;39.227;1.453;-3.614;-7.302
2339228.565;7.972;-1.527;14.231;-7.525;42.990;-0.671;-6.109;-9.015
2339228.573;2.645;-6.817;7.190;-11.660;34.608;-6.706;-10.431;-14.342
2339228.581;-0.708;-10.729;4.061;-15.907;32.745;-10.170;-15.050;-15.609
2339228.589;-8.941;-18.291;-3.837;-23.134;26.710;-11.064;-17.695;-15.162
2339228.584;-11.548;-21.495;-6.333;-27.306;27.679;-13.411;-21.420;-16.466
2339228.592;16.168;4.731;20.266;-0.447;55.246;13.299;2.980;10.319
2339228.600;16.727;8.084;18.068;3.129;53.272;16.242;5.737;12.815
2339228.608;-11.623;-18.775;-10.617;-23.991;25.406;-12.629;-21.905;-16.093
2339228.616;-9.350;-18.105;-7.562;-22.948;30.473;-11.511;-20.228;-14.044
2339228.624;-13.895;-23.916;-12.442;-28.685;25.183;-14.603;-22.277;-18.515
2339228.632;-0.596;-11.809;1.155;-15.311;40.121;-3.055;-10.282;-7.041
2339228.640;-9.984;-20.675;-9.723;-27.083;29.169;-16.876;-25.257;-20.452
2339228.648;-17.695;-30.175;-17.397;-37.067;22.054;-28.312;-36.992;-30.100
2339228.656;0.484;-12.070;1.118;-16.540;39.935;-12.703;-19.670;-15.385
2339228.664;0.261;-13.150;0.931;-17.807;43.176;-11.139;-16.578;-13.225
2339228.672;-12.778;-26.748;-10.803;-28.908;34.198;-19.297;-25.332;-21.644
2339228.680;-3.912;-17.583;-1.527;-18.552;44.033;-7.972;-15.385;-6.743
2339228.688;-15.423;-29.281;-12.144;-30.473;35.577;-19.707;-26.673;-17.211
2339228.696;-25.518;-39.786;-22.501;-40.866;27.083;-32.112;-36.247;-33.043
2339228.704;-8.270;-20.228;-6.855;-22.799;41.686;-22.352;-23.618;-24.885
2339228.712;-6.147;-17.621;-6.333;-20.303;41.462;-24.661;-26.934;-26.003
2339228.720;4.023;-8.158;0.745;-10.133;46.901;-15.832;-18.217;-18.291
2339228.728;7.600;-3.874;4.545;-9.537;53.458;-14.864;-17.434;-16.652
2339228.736;-7.711;-18.179;-12.256;-26.934;37.551;-25.071;-27.679;-26.003
2339228.744;-10.170;-20.005;-16.801;-27.977;31.516;-27.493;-29.132;-30.026
2339228.752;-4.135;-13.821;-10.803;-21.383;38.482;-18.217;-19.297;-21.793
2339228.760;-2.980;-13.374;-7.302;-21.942;42.580;-16.652;-16.838;-21.197
2339228.768;1.602;-5.066;-1.602;-15.199;46.492;-13.597;-14.715;-18.515
2339228.779;4.284;-1.825;2.719;-12.778;48.950;-10.617;-12.219;-15.423
2339228.787;5.029;-2.570;5.774;-15.423;48.652;-9.052;-10.915;-13.039
2339228.795;6.668;0.671;9.686;-8.717;50.105;-5.513;-8.158;-9.649
2339228.803;4.284;1.304;9.798;-7.600;48.578;-6.519;-10.319;-9.388
2339228.811;6.035;3.427;14.082;-6.557;50.776;-9.760;-13.411;-10.170
2339228.819;15.050;10.803;25.220;1.341;57.183;-11.325;-13.486;-10.356
2339228.827;15.795;11.884;26.561;2.384;53.793;-15.125;-16.689;-13.821
2339228.835;15.199;11.437;27.455;3.874;53.123;-16.242;-17.956;-16.801
2339228.843;21.607;19.893;34.273;11.548;59.046;-11.846;-13.299;-14.901
2339228.851;28.275;26.040;42.729;19.073;65.416;-8.829;-11.288;-11.437
2339228.859;37.327;34.608;51.968;27.902;72.867;-8.568;-12.517;-11.213
2339228.867;43.921;40.792;58.748;34.869;75.996;-14.789;-17.621;-17.248
2339228.875;61.356;58.785;78.082;53.607;93.132;-12.182;-14.417;-14.491
2339228.883;86.688;85.346;104.159;80.802;117.347;-1.676;-4.135;-4.470
2339228.891;109.561;108.592;126.809;104.681;136.904;5.737;2.161;1.788
2339228.899;119.582;117.831;136.495;114.255;143.871;-2.459;-6.668;-6.147
2339228.907;123.680;122.413;140.183;118.762;144.951;-8.754;-12.107;-12.219
2339228.915;129.417;127.628;147.298;123.642;151.359;-8.717;-11.958;-11.586
2339228.923;133.179;131.242;152.029;128.448;155.829;-5.439;-7.376;-9.611
2339228.931;126.809;125.468;144.616;123.344;148.341;-6.482;-7.413;-11.288
2339228.939;118.352;115.409;137.463;111.870;145.212;-6.892;-8.941;-9.537
2339228.947;104.718;100.695;124.536;95.665;136.122;-12.629;-14.678;-14.305
2339228.955;90.450;86.389;109.971;81.211;124.685;-15.423;-18.887;-14.193
2339228.963;82.329;78.045;101.328;73.761;119.731;-15.460;-18.068;-13.523
2339228.989;71.228;69.290;88.476;62.548;111.312;-18.477;-20.936;-16.876
2339228.997;64.932;62.287;81.733;55.656;106.618;-15.311;-20.303;-15.125
2339229.005;55.730;50.962;71.488;43.847;98.683;-14.082;-21.197;-15.683
2339229.013;51.670;45.747;67.763;38.743;97.565;-9.611;-17.472;-11.250
2339229.021;45.188;37.439;61.803;29.355;95.256;-10.356;-17.546;-10.207
2339229.029;40.419;32.634;57.444;24.214;93.430;-8.531;-14.938;-8.158
2339229.037;34.235;29.020;50.068;21.197;88.438;-6.258;-11.437;-7.264
2339229.045;33.490;29.691;47.237;23.134;85.719;-10.841;-14.380;-10.617
2339229.053;38.072;33.304;51.074;26.226;89.779;-11.586;-14.864;-11.101
2339229.061;39.116;34.757;52.676;26.636;93.840;-5.029;-10.803;-4.359
2339229.069;27.791;23.283;42.506;14.976;85.868;-7.339;-13.486;-6.072
2339229.077;15.609;10.654;32.112;3.278;75.325;-11.325;-18.366;-11.213
2339229.085;14.864;7.637;31.218;2.421;72.829;-13.486;-20.415;-15.646
2339229.093;30.175;23.469;44.741;17.323;86.688;-3.353;-9.611;-9.127
2339229.101;33.043;26.338;47.572;19.372;89.593;-3.949;-10.021;-11.474
2339229.109;29.206;22.240;42.953;16.205;86.352;-9.052;-13.113;-15.013
2339229.117;25.705;19.670;36.471;15.199;76.480;-6.594;-9.388;-11.846
2339229.125;22.128;14.566;32.671;10.170;74.357;-6.333;-9.723;-11.921
2339229.133;14.566;5.774;27.232;0.000;70.967;-9.201;-14.901;-13.933
2339229.141;5.774;-3.800;20.564;-10.394;66.198;-13.672;-20.601;-15.385
2339229.149;4.396;-5.886;20.005;-11.995;66.124;-13.299;-20.117;-12.033
2339229.157;5.290;-4.806;18.962;-9.350;59.530;-9.723;-17.434;-8.158
2339229.165;4.061;-6.855;18.217;-11.809;59.903;-11.772;-21.160;-9.574
2339229.173;2.980;-7.823;15.087;-13.039;53.793;-15.199;-23.581;-16.876
2339229.199;-6.109;-17.844;4.619;-22.985;42.617;-19.036;-28.200;-20.005
2339229.207;-8.345;-18.962;-0.149;-24.140;34.384;-21.607;-29.206;-21.718
2339229.215;-5.662;-17.285;1.043;-21.830;33.304;-16.727;-24.103;-18.030
2339229.223;-1.937;-15.348;3.912;-18.403;31.888;-13.933;-21.532;-15.832
2339229.231;5.104;-4.992;10.729;-10.543;39.525;-6.631;-13.001;-8.754
2339229.239;6.184;-5.327;12.256;-11.064;40.345;-8.382;-13.113;-11.325
2339229.247;-1.602;-15.162;2.719;-20.228;23.320;-13.560;-19.185;-16.913
2339229.255;-3.316;-13.821;-2.049;-20.191;16.727;-11.921;-17.434;-16.950
2339229.263;3.688;-7.711;3.427;-13.374;20.005;-6.855;-10.915;-12.293
2339229.271;-0.224;-13.374;-1.639;-18.962;11.399;-10.207;-13.262;-14.007
2339229.279;-1.863;-16.764;-2.570;-22.240;9.537;-11.474;-13.225;-13.374
2339229.287;-5.998;-21.979;-5.998;-28.051;5.811;-17.248;-18.738;-17.099
2339229.295;-6.147;-22.352;-5.960;-29.467;3.241;-16.689;-19.930;-13.933
2339229.303;0.037;-15.385;-0.410;-21.122;6.557;-10.990;-14.715;-10.058
2339229.311;-2.906;-16.391;-4.731;-21.420;-0.335;-7.600;-12.219;-6.743
2339229.319;-11.586;-25.742;-13.672;-30.771;-9.872;-17.695;-24.214;-13.448
2339229.327;-8.829;-24.065;-12.964;-29.095;-12.107;-17.658;-23.842;-12.964
2339229.335;-13.895;-29.802;-19.260;-33.975;-22.091;-23.805;-29.095;-19.446
2339229.343;-14.789;-31.367;-20.191;-34.682;-22.352;-25.928;-28.796;-23.544
2339229.351;-8.643;-25.481;-13.672;-28.946;-18.105;-17.658;-19.558;-18.105
2339229.359;-9.350;-24.512;-15.572;-27.604;-23.507;-13.448;-15.348;-13.672
2339229.367;-7.041;-22.501;-12.740;-24.624;-20.079;-9.313;-11.772;-6.407
2339229.375;-19.595;-36.620;-25.891;-38.110;-35.502;-21.532;-21.756;-20.601
2339229.383;-19.968;-34.235;-28.908;-38.259;-37.625;-21.197;-21.830;-22.464
2339229.317;-14.305;-27.046;-24.214;-30.622;-34.496;-14.976;-16.503;-17.658
2339229.325;-9.947;-22.426;-21.234;-23.879;-35.204;-15.981;-17.844;-16.615
2339229.333;-4.582;-16.838;-15.832;-18.477;-31.032;-15.832;-18.217;-13.448
2339229.341;-10.207;-22.426;-20.787;-24.922;-37.327;-22.352;-24.587;-19.670
2339229.349;-13.001;-25.146;-24.624;-28.163;-41.872;-26.077;-27.381;-21.011
2339229.357;-13.150;-25.369;-24.997;-28.908;-43.251;-25.034;-24.959;-20.228
2339229.365;-12.778;-25.667;-23.730;-29.802;-42.170;-20.862;-21.011;-17.323
2339229.373;-7.041;-21.458;-18.403;-27.381;-36.135;-17.732;-19.297;-14.082
2339229.381;-6.631;-21.011;-20.005;-30.361;-38.445;-20.750;-20.564;-19.483
2339229.389;-17.062;-30.622;-32.447;-42.096;-51.893;-29.504;-28.126;-29.318
2339229.397;-22.352;-34.608;-38.780;-44.890;-59.642;-28.163;-26.450;-29.504
2339229.405;-22.650;-33.565;-38.743;-44.592;-60.834;-25.108;-25.034;-26.971
2339229.413;-25.481;-34.273;-40.196;-47.758;-61.877;-25.816;-27.269;-26.673
2339229.421;-19.595;-27.083;-33.490;-39.116;-56.550;-19.744;-22.091;-20.377
2339229.429;-20.415;-26.710;-32.410;-36.731;-56.662;-17.136;-18.105;-16.764
2339229.437;-19.483;-24.401;-30.138;-32.969;-55.581;-8.568;-9.649;-10.319
2339229.445;-15.274;-18.850;-25.369;-26.338;-55.656;-2.906;-2.980;-7.264
2339229.453;-14.491;-19.185;-21.048;-26.859;-51.670;-4.880;-5.886;-9.127
2339229.461;-12.554;-17.360;-16.578;-25.891;-47.386;-3.092;-3.874;-5.849
2339229.469;-16.689;-19.670;-21.495;-27.567;-55.544;-8.941;-10.245;-11.884
2339229.477;-16.280;-19.260;-21.011;-27.120;-54.911;-11.176;-13.709;-14.119
2339229.485;-21.607;-24.475;-26.710;-30.398;-62.920;-19.856;-20.675;-21.905
2339229.493;-17.509;-20.266;-21.532;-26.561;-58.450;-17.323;-18.068;-17.285
2339229.501;-8.419;-11.437;-11.623;-18.589;-49.509;-14.864;-14.752;-15.497
2339229.454;-15.087;-17.583;-16.503;-24.512;-54.277;-19.111;-18.068;-18.775
2339229.462;-23.022;-25.816;-23.656;-32.187;-62.585;-21.532;-20.750;-19.483
2339229.470;-23.693;-26.226;-25.816;-31.441;-65.453;-21.011;-19.297;-19.707
2339229.478;-13.635;-17.285;-15.683;-22.389;-56.811;-14.491;-13.597;-13.337
2339229.486;-14.789;-19.707;-17.472;-25.481;-60.834;-13.821;-14.864;-15.050
2339229.494;-22.389;-28.498;-24.885;-32.485;-69.663;-14.864;-16.280;-16.280
2339229.502;-23.283;-28.051;-24.326;-34.831;-67.428;-15.832;-17.323;-16.168
2339229.510;-27.940;-33.379;-30.212;-39.190;-72.792;-22.165;-22.389;-23.805
2339229.518;-22.501;-28.908;-25.146;-34.682;-68.322;-21.942;-20.899;-23.916
2339229.526;-19.819;-25.965;-21.867;-32.075;-62.436;-25.071;-23.171;-26.375
2339229.534;-23.283;-29.355;-26.114;-34.086;-68.508;-27.195;-24.922;-28.238
2339229.542;-24.922;-30.324;-29.020;-34.049;-70.743;-24.661;-22.873;-25.444
2339229.550;-21.756;-25.965;-25.705;-29.244;-65.863;-19.558;-17.844;-19.446
2339229.558;-19.670;-23.544;-25.555;-26.375;-67.502;-15.832;-12.591;-15.609
2339229.566;-14.752;-19.372;-21.085;-21.681;-62.957;-13.746;-10.766;-14.193
2339229.574;-18.775;-23.358;-25.257;-25.630;-64.634;-16.317;-14.156;-17.621
2339229.582;-17.621;-23.507;-23.432;-26.934;-63.404;-16.987;-15.125;-19.409
2339229.590;-11.176;-17.248;-15.236;-18.813;-55.693;-15.385;-12.033;-17.248
2339229.598;-7.264;-11.027;-10.543;-14.342;-53.793;-13.970;-10.617;-16.280
2339229.606;3.576;1.155;0.782;-4.582;-41.835;-7.823;-4.955;-10.766
2339229.614;15.907;13.709;11.064;10.021;-35.018;-0.484;3.055;-3.539
2339229.622;18.328;15.497;13.709;12.144;-35.539;-3.576;0.224;-5.104
2339229.630;24.401;20.228;21.085;19.930;-29.504;-6.258;-1.974;-6.519
2339229.638;36.918;35.577;32.969;32.857;-20.750;-7.376;-4.023;-7.078
2339229.649;54.762;53.123;48.727;52.936;-8.829;-6.631;-3.539;-5.327
2339229.657;76.815;75.735;71.563;78.827;10.692;-0.484;2.496;0.298
2339229.665;77.412;77.151;72.978;81.062;8.345;-1.676;1.825;-1.416
2339229.673;73.388;71.451;66.198;77.188;-1.080;-4.619;-0.782;-4.843
2339229.681;76.853;72.420;69.849;77.896;6.072;-0.410;2.421;-1.155
2339229.689;70.110;68.508;64.857;71.004;5.029;-1.527;-0.373;-2.123
2339229.697;66.422;63.889;59.456;67.651;0.633;0.149;1.378;-0.410
2339229.705;59.754;55.842;51.819;58.524;-5.141;-1.565;1.267;-2.235
2339229.713;49.248;44.405;41.611;45.933;-13.150;-1.639;3.204;-1.863
2339229.721;40.904;35.614;32.000;37.514;-19.111;0.000;5.551;1.155
2339229.729;27.791;22.389;17.248;24.214;-31.702;-3.427;1.490;-1.863
2339229.737;29.244;24.028;17.211;26.934;-30.436;-6.631;-1.378;-3.986
2339229.745;22.724;15.795;12.144;19.260;-32.932;-11.511;-7.264;-9.164
2339229.753;16.093;9.462;6.184;12.591;-37.700;-6.407;-1.676;-5.849
2339229.761;14.715;9.015;3.092;12.293;-40.084;1.304;5.551;0.410
2339229.769;25.369;18.254;12.778;21.905;-29.840;9.574;12.144;10.170
2339229.777;26.077;18.328;12.629;23.283;-28.089;8.494;11.064;10.654
2339229.785;30.212;25.146;15.758;27.344;-26.710;11.735;15.721;10.096
2339229.793;27.306;22.054;13.784;26.152;-23.767;11.809;17.174;10.021
2339229.801;14.193;9.201;-0.112;13.188;-41.276;-1.490;2.868;-1.490
2339229.809;8.121;0.522;-5.141;1.863;-44.219;-9.984;-7.264;-7.935
2339229.817;7.302;-0.075;-6.109;1.155;-45.747;-6.407;-3.241;-5.662
2339229.825;2.980;-8.047;-8.866;-6.258;-45.374;-5.588;-3.166;-3.465
2339229.833;0.522;-10.356;-12.927;-10.058;-50.366;-8.009;-6.407;-2.831
2339229.829;1.937;-7.898;-12.629;-9.201;-48.876;-11.362;-8.717;-6.072
2339229.837;1.751;-7.004;-14.864;-5.662;-49.956;-9.649;-5.178;-5.774
2339229.845;-1.416;-9.239;-18.477;-6.557;-55.879;-9.947;-4.321;-6.855
2339229.853;-6.072;-14.193;-21.458;-11.921;-59.418;-11.064;-6.035;-9.723
2339229.861;-7.562;-17.658;-22.650;-15.311;-62.026;-8.494;-1.974;-8.531
2339229.869;-6.221;-16.503;-22.165;-13.895;-62.697;-1.974;4.843;-2.198
2339229.877;-6.780;-16.391;-22.948;-12.219;-62.995;3.576;8.717;4.247
2339229.885;-9.574;-20.526;-25.630;-16.987;-64.634;2.868;6.333;3.241
2339229.893;-13.933;-25.295;-29.840;-22.240;-67.316;2.049;4.508;3.166
2339229.901;-9.984;-20.899;-26.152;-16.950;-64.448;8.717;12.293;9.574
2339229.909;-15.795;-26.859;-31.814;-23.693;-71.563;2.198;5.849;3.837
2339229.917;-22.948;-34.757;-39.823;-28.796;-77.710;-4.470;-1.192;-1.937
2339229.925;-22.501;-30.883;-39.265;-28.051;-76.480;-10.692;-5.849;-5.923
2339229.933;-21.905;-30.361;-38.184;-28.014;-74.804;-15.087;-9.090;-7.190
2339229.941;-30.622;-39.190;-48.354;-38.333;-84.713;-21.681;-16.093;-15.236
2339229.949;-32.000;-40.904;-50.105;-40.382;-84.937;-23.060;-18.030;-16.242
2339229.957;-31.330;-40.531;-48.280;-39.488;-81.211;-19.707;-16.689;-11.995
2339229.965;-24.959;-34.124;-42.729;-32.671;-75.549;-13.113;-11.846;-6.519
2339229.973;-22.650;-30.883;-41.090;-29.206;-73.910;-6.743;-4.731;-2.235
2339229.981;-26.375;-34.980;-46.641;-35.092;-78.008;-9.537;-5.923;-6.668
2339229.989;-26.710;-34.906;-47.423;-37.178;-76.927;-13.225;-8.680;-9.425
2339229.997;-20.415;-27.455;-41.574;-30.696;-69.551;-10.282;-5.215;-7.562
2339230.005;-3.874;-9.798;-27.753;-14.417;-56.215;-0.410;6.258;0.894
2339230.013;-5.141;-10.617;-28.498;-15.683;-55.209;2.980;10.245;3.353
2339230.053;-11.548;-18.105;-35.316;-22.836;-59.679;3.763;12.219;3.166
2339230.061;-17.621;-24.140;-40.680;-29.691;-64.000;2.384;9.462;3.204
2339230.069;-20.973;-26.822;-42.692;-32.037;-64.708;1.602;6.892;2.161
2339230.077;-18.254;-24.177;-39.637;-28.424;-60.908;5.290;9.947;4.061
2339230.085;-22.464;-29.057;-39.712;-35.539;-60.387;2.123;6.109;2.235
2339230.093;-29.616;-35.167;-44.145;-40.121;-65.230;-1.080;4.061;0.112
2339230.101;-25.220;-30.622;-38.035;-34.906;-60.983;-3.390;1.788;-2.235
2339230.109;-21.160;-27.083;-31.628;-30.734;-55.283;0.559;5.253;0.410
2339230.117;-16.801;-22.389;-25.891;-30.100;-50.254;1.080;7.153;0.671
2339230.125;-13.560;-17.807;-21.458;-20.899;-46.082;-0.112;5.253;-0.335
2339230.133;-20.713;-24.177;-29.355;-27.083;-53.570;-6.966;-2.235;-8.643
2339230.141;-23.954;-28.946;-31.628;-31.367;-57.556;-10.580;-7.488;-11.697
2339230.149;-19.819;-26.226;-26.450;-27.120;-50.850;-5.178;-4.135;-3.129
2339230.157;-22.091;-26.710;-28.387;-31.330;-51.111;-8.009;-8.047;-3.055
2339230.165;-23.805;-28.759;-29.057;-34.124;-51.409;-7.115;-6.445;-3.986
2339230.173;-11.846;-16.317;-17.807;-20.862;-42.319;2.496;4.880;3.092
2339230.181;2.161;-3.800;-3.837;-8.568;-29.802;11.399;15.236;10.580
2339230.189;-9.649;-17.397;-15.460;-21.979;-40.792;0.224;2.459;-0.298
2339230.197;-8.717;-17.583;-15.832;-21.942;-41.053;1.118;2.645;1.714
2339230.205;-7.004;-16.727;-13.076;-20.787;-38.072;5.439;5.141;5.625
2339230.213;-2.272;-10.915;-7.376;-16.466;-32.112;10.952;11.027;11.250
2339230.221;-3.874;-12.331;-10.096;-18.254;-34.422;5.029;4.619;4.917
2339230.229;-8.829;-16.242;-16.876;-20.266;-41.313;-0.894;-0.820;-1.974
2339230.237;-7.376;-15.385;-15.646;-20.638;-40.233;-0.633;0.708;-1.341
2339230.278;-12.740;-21.905;-21.048;-25.779;-45.076;-1.565;0.782;-1.006
2339230.286;-10.133;-16.652;-19.744;-21.458;-44.070;-4.657;-2.533;-3.204
2339230.294;-0.782;-8.866;-11.474;-13.635;-38.072;-1.341;0.410;0.373
2339230.302;-2.608;-11.437;-14.715;-16.205;-39.712;-5.364;-1.937;-3.390
2339230.310;-6.668;-15.274;-19.744;-19.334;-43.698;-8.568;-4.694;-6.333
2339230.318;-1.527;-11.213;-13.523;-15.050;-38.408;-1.416;1.490;1.080
2339230.326;1.527;-8.717;-9.425;-13.262;-34.347;5.811;7.786;10.654
2339230.334;-1.937;-13.337;-11.250;-18.589;-33.639;1.192;1.490;7.190
2339230.342;-19.297;-31.106;-29.393;-35.837;-52.303;-16.391;-15.460;-13.299
2339230.350;-17.807;-29.579;-28.089;-33.975;-52.117;-16.354;-14.678;-13.374
2339230.358;-16.205;-28.126;-25.555;-32.000;-49.770;-15.534;-14.044;-11.884
2339230.366;-14.901;-26.226;-23.954;-30.175;-48.429;-18.813;-16.764;-14.231
2339230.374;-16.168;-27.008;-24.475;-28.834;-48.093;-20.750;-17.248;-14.603
2339230.382;-14.007;-26.226;-22.538;-27.157;-46.343;-20.489;-16.391;-15.646
2339230.390;-6.892;-20.042;-16.466;-19.893;-41.872;-19.670;-16.764;-14.640
2339230.398;-10.468;-24.401;-19.968;-25.816;-42.431;-16.503;-15.870;-11.548
2339230.406;-6.147;-19.595;-17.360;-20.638;-38.929;-11.362;-11.437;-7.935
2339230.414;-2.235;-14.566;-14.231;-13.597;-36.806;-5.029;-4.545;-3.129
2339230.422;-2.533;-15.795;-12.442;-13.933;-34.049;-5.849;-6.109;-2.757
2339230.430;-10.021;-24.810;-18.924;-24.773;-39.861;-16.801;-18.030;-11.735
2339230.438;-12.927;-28.238;-20.340;-29.132;-40.308;-18.775;-19.483;-12.666
2339230.446;-10.468;-25.220;-18.813;-25.406;-39.004;-16.578;-16.280;-10.133
2339230.454;-7.302;-22.613;-16.205;-23.842;-35.278;-15.646;-15.721;-8.456
2339230.462;-11.660;-27.418;-19.521;-29.728;-36.508;-17.919;-17.323;-9.574
2339230.415;-12.107;-27.418;-20.154;-30.398;-35.428;-20.787;-19.670;-10.431
2339230.423;-12.517;-28.387;-19.595;-32.447;-34.682;-21.718;-21.569;-11.548
2339230.431;-7.190;-24.065;-14.268;-28.983;-30.845;-18.254;-18.030;-9.425
2339230.439;-10.692;-27.269;-19.073;-32.447;-35.763;-21.458;-20.340;-13.337
2339230.447;-13.039;-27.493;-20.750;-29.914;-36.433;-20.899;-17.732;-13.039
2339230.455;-6.072;-19.670;-14.119;-21.644;-29.095;-13.523;-9.276;-5.513
2339230.463;-7.972;-21.905;-17.025;-24.624;-31.218;-13.895;-10.468;-6.929
2339230.471;-10.245;-25.891;-20.899;-28.946;-33.714;-16.280;-13.299;-9.276
2339230.479;-2.906;-17.323;-13.895;-21.383;-26.599;-4.172;-1.378;2.086
2339230.487;-6.072;-19.558;-17.285;-24.177;-30.547;-6.072;-3.502;-0.075
2339230.495;-5.998;-18.999;-18.887;-22.277;-33.267;-12.815;-12.070;-6.706
2339230.503;-1.751;-14.491;-15.870;-17.211;-30.473;-11.921;-11.548;-5.998
2339230.511;4.172;-9.760;-9.872;-13.523;-22.687;-7.264;-8.196;-1.155
2339230.519;4.396;-11.027;-9.388;-15.907;-21.309;-6.333;-6.035;-0.298
2339230.527;-5.066;-20.936;-20.750;-24.885;-32.708;-16.280;-13.374;-9.649
2339230.535;-4.061;-19.521;-19.409;-22.240;-31.851;-15.348;-12.182;-8.643
2339230.543;0.894;-15.125;-13.784;-16.689;-27.642;-13.225;-11.437;-7.488
2339230.551;7.376;-7.041;-7.711;-11.437;-23.022;-13.597;-11.101;-6.966
2339230.559;6.631;-8.568;-6.631;-12.778;-19.819;-15.534;-14.082;-9.611
2339230.567;14.603;-0.447;0.447;-3.204;-13.039;-8.568;-5.551;-5.923
2339230.575;17.509;2.682;3.427;0.410;-8.531;-8.568;-5.476;-6.072
2339230.583;19.222;4.731;4.359;2.459;-10.766;-11.921;-10.431;-9.425
2339230.591;26.971;10.729;11.846;6.780;-3.688;-11.548;-10.766;-5.066
2339230.599;40.308;21.532;23.544;18.813;6.296;-7.898;-6.594;1.118
2339230.579;50.515;34.198;33.192;31.553;14.082;-9.090;-7.376;-0.969
2339230.587;62.510;47.274;45.635;43.064;26.934;-10.207;-8.121;-1.416
2339230.595;81.770;65.751;62.808;62.995;40.382;-2.459;0.186;5.104
2339230.603;101.887;88.774;79.535;90.152;46.715;2.645;5.886;8.568
2339230.611;118.576;105.426;98.050;107.512;61.914;2.235;5.029;6.966
2339230.619;124.052;110.455;104.196;112.206;67.055;2.198;4.843;7.749
2339230.627;124.685;110.827;106.245;111.982;68.210;2.384;6.072;8.345
2339230.635;127.032;112.690;111.237;111.312;74.990;2.682;6.482;9.611
2339230.643;131.018;115.559;113.696;111.386;79.237;2.719;7.860;9.276
2339230.651;127.144;109.859;108.220;104.010;74.469;1.602;7.190;9.090
2339230.659;115.708;96.597;95.814;90.376;64.373;-2.123;2.682;6.333
2339230.667;107.437;89.519;85.086;81.509;56.513;0.894;4.545;11.176
2339230.675;97.193;79.796;74.133;69.290;48.876;3.204;7.898;11.399
2339230.683;86.166;68.657;62.399;57.481;41.984;2.012;8.382;6.109
2339230.691;73.314;57.854;48.839;46.492;26.114;5.066;12.256;4.582
2339230.699;64.932;49.993;40.419;39.451;19.185;7.302;15.348;5.551
2339230.707;57.183;44.145;32.410;35.092;13.150;7.264;13.746;6.333
2339230.715;50.478;38.743;26.859;31.255;9.798;9.537;14.231;10.803
2339230.723;44.331;32.857;20.936;28.051;3.912;10.468;14.715;14.119
2339230.731;45.933;35.875;24.624;33.453;8.754;13.672;17.770;15.870
2339230.739;44.070;34.720;22.985;34.198;5.290;6.668;12.890;5.551
2339230.747;38.184;28.610;16.503;29.989;-3.614;0.112;7.451;-1.639
2339230.755;38.333;28.685;17.881;31.702;-0.484;6.557;13.597;7.041
2339230.763;30.249;22.314;11.735;25.928;-7.078;7.041;12.517;9.686
2339230.789;27.493;19.409;10.394;23.469;-8.680;8.717;11.064;13.970
2339230.797;28.722;18.179;13.560;22.724;-3.651;13.821;14.156;20.005
2339230.805;18.626;6.966;4.321;12.405;-11.213;7.786;7.115;13.784
2339230.813;8.456;-3.204;-6.668;2.980;-26.412;4.694;4.247;10.952
2339230.821;10.729;-0.745;-3.949;6.109;-23.283;6.109;6.631;9.872
2339230.829;11.064;-0.484;-3.614;7.115;-22.762;3.092;5.737;4.247
2339230.837;7.749;-5.104;-6.445;1.751;-24.363;0.000;2.608;2.086
2339230.845;3.576;-10.580;-10.282;-2.943;-29.616;-1.267;2.012;4.768
2339230.853;3.688;-10.319;-8.009;-2.086;-25.146;0.410;1.527;10.431
2339230.861;-0.671;-14.417;-12.964;-6.780;-29.951;-2.794;-3.986;8.643
2339230.869;-1.565;-14.715;-14.640;-5.439;-35.577;-1.006;-2.086;7.376
2339230.877;-1.080;-12.666;-14.231;-3.837;-35.353;4.880;4.806;8.829
2339230.885;-2.757;-13.188;-18.738;-4.545;-39.339;5.253;6.184;7.600
2339230.893;-1.676;-11.511;-19.632;-3.651;-40.457;7.711;9.313;8.084
2339230.901;-2.235;-10.915;-20.750;-2.980;-40.904;9.760;10.803;12.703
2339230.909;-3.017;-11.660;-20.266;-4.880;-40.159;9.201;10.133;14.342
2339230.917;-4.470;-12.778;-21.383;-5.662;-40.419;5.141;9.127;8.680
2339230.925;-8.196;-14.454;-26.226;-5.476;-44.778;-0.075;6.147;1.676
2339230.933;-10.431;-15.832;-27.977;-6.557;-44.815;-3.241;3.017;-2.123
2339230.941;-14.156;-18.999;-32.708;-9.835;-50.031;-4.955;0.820;-1.676
2339230.949;-9.611;-13.597;-28.275;-4.247;-46.454;2.719;7.711;6.407
2339230.957;-1.788;-6.594;-21.085;2.310;-38.184;8.903;14.417;12.778
2339230.965;-2.310;-7.004;-19.819;1.751;-34.720;10.543;15.348;15.646
2339230.973;-6.333;-10.729;-21.942;-1.714;-37.402;9.686;12.591;15.646
2339231.029;-8.941;-12.890;-23.507;-3.241;-39.712;9.499;11.586;15.050
2339231.037;-6.184;-10.058;-18.179;-0.559;-34.533;11.511;13.076;17.136
2339231.045;-0.931;-6.258;-14.082;2.384;-29.914;16.056;20.154;19.968
2339231.053;-2.682;-10.058;-18.068;-1.118;-35.092;14.715;19.222;17.360
2339231.061;0.484;-5.886;-13.821;2.719;-32.075;16.801;19.819;22.240
2339231.069;-4.284;-9.537;-19.073;-1.341;-37.588;9.499;11.437;14.156
2339231.077;-6.668;-11.772;-22.352;-2.906;-42.394;10.915;10.431;15.683
2339231.085;-8.643;-15.087;-23.916;-6.072;-43.213;9.798;8.084;13.672
2339231.093;-4.694;-12.331;-19.409;-3.800;-39.227;11.027;7.413;14.007
2339231.101;1.751;-4.917;-12.480;1.751;-30.212;15.162;10.803;19.670
2339231.109;5.439;-0.447;-9.649;6.184;-27.269;17.919;14.864;23.730
2339231.117;3.353;-3.539;-12.033;3.055;-31.888;20.042;17.993;26.748
2339231.125;0.820;-6.706;-12.964;-0.112;-31.851;14.976;14.417;18.887
2339231.133;-0.522;-6.668;-14.901;0.261;-31.851;13.560;12.070;17.211
2339231.141;-1.900;-6.929;-15.274;-0.335;-30.771;14.566;12.331;19.036
2339231.149;-6.035;-10.207;-19.781;-2.086;-36.284;14.454;14.603;21.197
2339231.157;-10.058;-13.486;-25.928;-4.433;-42.506;13.039;14.938;19.185
2339231.165;-11.139;-14.044;-27.344;-4.135;-43.996;15.870;19.409;20.675
2339231.173;-10.468;-13.262;-24.885;-3.800;-41.611;19.521;22.091;25.183
2339231.181;-7.711;-11.586;-20.824;-4.023;-36.284;19.893;20.340;25.146
2339231.189;-5.104;-10.580;-18.105;-3.427;-32.857;23.954;23.246;30.287
2339231.197;-3.204;-9.499;-17.621;-2.198;-34.235;24.401;24.661;30.622
2339231.205;-3.874;-10.282;-18.887;-3.688;-33.937;18.328;20.154;23.916
2339231.213;-3.688;-9.649;-18.552;-4.880;-33.900;10.878;11.660;17.732
2339231.162;0.894;-4.508;-15.087;-0.075;-30.957;8.605;8.382;15.609
2339231.170;8.829;3.129;-7.302;7.488;-23.134;10.654;11.399;18.962
2339231.178;6.594;0.559;-9.201;5.253;-23.805;11.548;13.337;19.930
2339231.186;2.049;-2.719;-13.895;2.496;-29.281;12.591;16.317;20.154
2339231.194;-2.980;-8.382;-18.142;-2.831;-32.112;6.482;10.952;15.274
2339231.202;-10.692;-16.019;-25.891;-9.313;-40.531;-3.576;0.671;7.711
2339231.210;-11.176;-16.950;-26.710;-9.201;-42.506;-5.886;-1.751;6.333
2339231.218;-7.302;-13.672;-22.277;-5.551;-36.955;-0.447;3.017;10.878
2339231.226;-4.545;-11.474;-19.595;-3.055;-35.241;5.700;7.525;17.285
2339231.234;-5.662;-13.113;-20.340;-5.327;-33.677;5.364;6.706;17.844
2339231.242;-10.692;-18.068;-24.736;-11.437;-36.061;1.527;3.017;14.417
2339231.250;-13.709;-21.234;-25.891;-15.609;-36.359;3.166;3.912;16.354
2339231.258;-16.727;-26.003;-27.493;-21.495;-34.161;-2.459;-2.347;10.468
2339231.266;-23.022;-30.398;-35.875;-26.040;-44.443;-9.090;-7.637;1.416
2339231.274;-17.919;-24.401;-32.708;-19.222;-42.543;-3.502;-0.820;8.047
2339231.282;-12.293;-18.924;-27.493;-13.486;-35.800;3.725;5.998;16.764
2339231.290;-12.554;-18.552;-27.530;-13.858;-36.657;3.949;6.557;16.652
2339231.298;-10.543;-16.429;-25.816;-12.070;-32.149;2.272;5.104;13.374
2339231.306;-8.568;-14.901;-24.512;-10.096;-29.877;6.184;9.052;15.721
2339231.314;-3.502;-7.078;-20.750;-7.041;-24.103;13.039;15.907;20.489
2339231.322;-6.668;-10.021;-25.816;-10.543;-30.808;14.454;18.366;20.564
2339231.330;-9.239;-12.405;-29.355;-12.182;-34.943;12.629;18.291;16.205
2339231.338;-14.864;-18.142;-34.273;-18.477;-37.476;9.686;14.156;14.193
2339231.346;-16.280;-19.632;-35.912;-19.297;-39.376;8.047;11.958;15.050
2339231.300;-16.280;-20.117;-35.837;-20.005;-40.457;2.980;6.966;11.399
2339231.308;-11.623;-17.583;-30.473;-17.621;-33.006;4.619;8.047;12.331
2339231.316;-10.058;-15.721;-27.753;-14.901;-32.634;5.551;8.866;12.778
2339231.324;-1.863;-7.339;-18.142;-4.917;-25.593;14.082;18.701;22.911
2339231.332;-0.894;-7.488;-14.454;-5.886;-22.687;16.950;21.420;24.214
2339231.340;-6.929;-13.486;-21.532;-10.654;-30.696;12.666;17.881;19.073
2339231.348;-3.688;-9.313;-18.254;-3.055;-28.796;16.838;23.060;22.575
2339231.356;-0.224;-3.166;-14.044;1.490;-26.189;17.174;21.756;23.097
2339231.364;4.396;1.080;-7.749;9.723;-21.160;19.781;24.252;23.544
2339231.372;13.337;9.798;2.608;19.595;-13.076;22.762;26.040;26.114
2339231.380;21.942;18.328;11.921;28.461;-8.456;21.160;24.140;25.257
2339231.388;40.457;36.396;32.149;49.733;8.419;28.461;30.883;35.018
2339231.396;62.473;59.940;52.825;76.890;23.767;36.433;40.159;44.219
2339231.404;72.718;71.600;63.851;90.264;32.820;31.069;33.341;40.345
2339231.412;90.078;90.301;80.727;111.274;44.294;33.081;37.774;41.500
2339231.420;84.341;85.197;75.810;105.724;36.247;19.558;26.301;26.561
2339231.428;83.260;84.750;76.331;106.096;33.602;11.846;20.340;17.509
2339231.436;88.699;86.725;82.441;106.059;40.233;14.380;24.699;18.701
2339231.444;87.954;85.756;82.515;102.893;43.176;19.968;31.181;23.916
2339231.452;75.884;72.271;71.786;87.395;36.433;18.626;28.536;24.475
2339231.460;67.502;64.373;61.616;77.635;29.653;15.758;25.071;21.793
2339231.468;53.309;50.850;49.993;61.207;23.060;12.182;20.899;20.228
2339231.476;41.425;37.476;35.241;45.709;12.666;12.331;18.440;22.091
2339231.484;26.524;24.848;19.222;34.496;-0.671;13.486;19.222;23.991
2339231.492;26.897;26.673;18.813;35.167;-0.447;18.403;25.965;26.226
2339231.500;9.462;11.511;1.267;20.117;-16.466;11.772;19.707;19.372
2339231.508;13.746;14.566;5.141;19.930;-11.437;15.162;22.054;22.687
2339231.516;16.019;16.131;5.662;20.936;-13.113;14.640;22.389;18.924
2339231.524;9.201;10.543;-2.421;17.136;-20.601;16.056;24.475;18.738
2339231.532;-0.075;1.304;-8.792;7.302;-26.040;17.472;23.134;21.793
2339231.540;-4.992;-3.614;-11.958;1.229;-27.902;19.036;25.555;24.140
2339231.548;0.335;1.080;-5.625;6.333;-21.718;20.526;27.604;26.077
2339231.556;-3.017;-2.757;-8.196;4.284;-23.171;19.073;26.561;23.171
2339231.564;-1.974;0.410;-7.637;1.788;-22.538;13.933;22.873;17.248
2339231.572;2.161;1.453;-2.086;1.341;-17.397;12.442;21.905;16.764
2339231.580;2.645;1.043;-1.043;1.565;-15.385;14.342;21.271;19.893
2339231.588;2.347;1.639;-0.745;2.794;-13.821;20.973;26.971;24.550
2339231.596;-0.224;-1.304;-2.012;-0.857;-13.895;21.756;28.536;25.705
2339231.604;-5.849;-7.078;-6.445;-7.153;-18.142;17.360;23.209;21.569
2339231.612;2.347;0.857;0.931;-0.671;-11.213;23.991;30.547;26.077
2339231.620;7.749;5.327;6.482;3.502;-4.210;27.902;33.490;31.590
2339231.628;4.135;0.745;3.502;1.714;-3.986;24.252;29.318;27.530
2339231.636;4.284;2.831;1.155;1.676;-8.903;21.420;25.257;26.710
2339231.644;4.619;3.725;1.602;1.900;-6.109;20.973;24.363;25.891
2339231.652;1.714;-0.522;-0.931;-3.241;-8.717;17.248;19.893;20.415
2339231.660;8.866;6.780;5.439;3.204;-2.049;20.824;23.097;23.432
2339231.668;14.454;13.299;10.915;10.580;3.576;23.916;25.518;25.593
2339231.676;12.442;11.101;8.121;8.792;1.714;23.656;24.363;25.891
2339231.673;18.664;17.807;13.486;16.131;6.333;26.003;27.455;30.026
2339231.681;17.248;15.758;11.809;13.709;3.763;23.469;25.667;29.355
2339231.689;13.448;11.995;6.296;11.958;-4.321;21.681;23.730;26.748
2339231.697;13.784;11.772;8.866;12.033;1.639;22.054;24.103;28.089
2339231.705;1.676;2.012;-0.671;3.465;-5.141;14.231;16.131;22.314
2339231.713;-4.247;-6.966;-7.749;-7.525;-15.460;2.868;4.247;14.678
2339231.721;8.456;3.800;4.582;3.017;-2.645;6.743;9.239;19.148
2339231.729;10.431;3.949;5.886;3.278;-3.800;7.600;12.666;17.807
2339231.737;8.978;0.037;4.061;0.186;-6.557;7.078;12.182;15.646
2339231.745;12.293;2.608;7.190;2.421;-1.304;9.276;12.964;17.285
2339231.753;8.270;-0.075;1.527;0.075;-9.611;7.078;10.729;13.374
2339231.761;8.345;1.527;2.533;2.682;-7.935;15.497;20.377;18.999
2339231.769;11.921;6.333;5.662;7.264;-7.153;23.693;26.971;25.928
2339231.777;14.007;8.866;7.711;9.090;-5.253;27.791;29.616;28.871
2339231.785;10.878;2.906;5.439;2.310;-9.239;22.165;24.214;22.464
2339231.793;4.843;-3.688;-0.373;-2.161;-16.019;19.260;22.538;18.142
2339231.801;2.570;-6.221;-3.278;-4.061;-18.254;22.464;25.257;22.613
2339231.809;-3.055;-10.133;-11.027;-10.580;-25.555;24.214;25.481;26.301
2339231.817;-5.476;-13.597;-12.666;-14.156;-26.301;22.538;22.165;26.673
2339231.825;-3.241;-10.170;-10.505;-10.654;-24.475;27.269;26.487;30.808
2339231.833;-1.751;-7.488;-9.350;-8.829;-20.266;29.169;30.361;32.037
2339231.841;-8.307;-15.199;-16.876;-18.552;-27.120;18.999;18.477;25.332
2339231.849;-7.227;-12.517;-17.621;-15.162;-28.126;18.068;20.042;24.773
2339231.857;-8.047;-10.692;-18.440;-14.082;-25.593;13.337;15.981;19.222
2339231.974;-6.557;-8.829;-20.452;-11.474;-31.032;13.262;17.285;18.403
2339231.982;-10.878;-11.846;-25.332;-15.348;-35.316;10.282;15.981;14.789
2339231.990;-15.348;-16.354;-26.003;-20.787;-31.926;8.270;11.586;15.646
2339231.998;-12.256;-11.697;-25.108;-12.890;-36.918;12.144;19.372;15.609
2339232.006;-12.107;-11.809;-23.916;-13.672;-35.018;7.227;14.529;8.792
2339232.014;-14.715;-14.864;-23.954;-15.981;-32.037;-0.708;4.806;2.161
2339232.022;-14.305;-13.709;-20.079;-13.895;-27.418;-1.900;2.570;3.502
2339232.030;-19.111;-18.105;-23.209;-15.944;-32.783;1.490;5.588;6.706
2339232.038;-22.128;-21.346;-26.152;-18.217;-38.184;4.545;8.233;7.711
2339232.046;-28.461;-27.902;-28.424;-24.438;-39.265;2.794;7.264;7.376
2339232.054;-33.602;-33.155;-32.037;-28.834;-43.586;1.527;8.382;5.253
2339232.062;-34.422;-34.273;-33.975;-27.642;-46.976;2.347;9.313;5.476
2339232.070;-35.241;-35.688;-33.677;-28.424;-47.311;-0.708;3.427;2.608
2339232.078;-29.877;-29.467;-27.046;-23.693;-42.319;1.639;3.353;6.184
2339232.086;-23.767;-24.177;-17.993;-18.701;-32.298;6.817;6.855;13.039
2339232.094;-26.934;-27.008;-22.575;-20.489;-40.494;2.831;1.416;9.872
2339232.102;-23.246;-23.246;-20.377;-15.683;-40.531;6.035;6.966;11.884
2339232.110;-27.455;-29.095;-23.097;-21.607;-44.070;-1.341;1.118;4.433
2339232.118;-35.800;-37.923;-29.542;-30.249;-49.919;-6.221;-1.118;0.708
2339232.126;-39.861;-41.500;-31.702;-35.204;-50.180;-7.264;-3.017;0.894
2339232.134;-40.084;-42.766;-32.485;-36.731;-50.254;-6.631;-2.235;-1.527
2339232.142;-31.702;-33.937;-24.550;-29.095;-44.033;1.974;6.258;6.855
2339232.150;-22.165;-22.314;-15.236;-20.452;-35.018;10.468;14.417;14.268
2339232.158;-18.589;-20.601;-12.107;-18.850;-32.857;13.262;16.242;16.242
2339232.184;-22.873;-25.481;-15.236;-23.395;-36.359;8.829;11.660;11.288
2339232.192;-26.412;-30.063;-20.191;-28.424;-41.202;3.017;7.413;4.284
2339232.200;-23.805;-28.051;-18.254;-26.636;-39.898;1.565;7.525;0.373
2339232.208;-12.033;-15.870;-6.184;-15.125;-28.983;10.692;17.583;9.611
2339232.216;-18.254;-21.607;-13.150;-20.526;-35.129;3.763;9.201;5.625
2339232.224;-22.016;-25.667;-15.944;-26.710;-34.794;1.118;4.992;6.184
2339232.232;-18.105;-22.314;-12.442;-22.501;-30.883;3.986;8.084;9.872
2339232.240;-21.234;-25.891;-14.231;-25.257;-28.498;-0.671;2.198;6.184
2339232.248;-19.297;-24.438;-11.772;-20.936;-25.742;1.714;3.316;6.594
2339232.256;-17.732;-19.670;-12.107;-18.515;-30.957;-0.149;1.863;3.353
2339232.264;-1.229;-2.198;5.104;-1.490;-11.474;12.554;13.597;16.987
2339232.272;-1.118;-3.129;8.196;-1.155;-6.072;9.313;10.617;14.491
2339232.280;1.863;-1.602;10.394;-0.037;-9.239;3.651;5.588;8.009
2339232.288;16.540;12.293;25.705;15.385;5.588;11.064;15.050;14.193
2339232.296;26.077;22.277;34.831;26.114;12.442;14.864;19.819;19.670
2339232.304;31.367;28.014;39.190;32.373;11.474;11.139;16.093;15.385
2339232.312;29.653;27.008;39.004;31.590;8.978;2.868;7.078;6.221
2339232.320;47.274;44.368;57.220;50.589;24.736;10.356;12.852;13.635
2339232.328;66.087;61.281;74.916;66.720;37.998;14.417;16.280;18.254
2339232.336;73.798;67.316;82.776;71.600;42.506;14.491;12.740;20.973
2339232.344;86.613;79.758;96.336;85.346;53.160;19.707;18.626;24.699
2339232.352;96.560;91.195;106.469;97.826;60.759;24.661;26.338;26.599
2339232.360;78.939;75.176;88.662;80.988;42.319;13.411;15.758;14.305
2339232.368;83.409;77.561;93.915;80.802;49.397;17.099;19.521;19.111
2339232.379;82.217;75.325;91.903;76.853;50.552;17.509;20.750;19.670
2339232.387;68.396;62.212;78.753;63.516;43.027;2.533;6.109;4.061
2339232.395;64.634;58.636;75.400;60.238;44.294;8.307;11.101;12.927
2339232.403;45.933;39.674;57.593;41.723;27.753;-3.017;-1.825;2.682
2339232.411;41.351;35.465;52.117;36.731;24.959;-2.719;-2.198;3.614
2339232.419;31.665;25.854;40.866;26.040;14.603;-6.668;-6.706;0.820
2339232.427;26.040;19.446;35.204;18.589;12.666;-8.233;-8.531;0.149
2339232.435;23.805;17.993;31.292;16.727;12.480;-3.129;-4.172;6.370
2339232.443;15.460;11.399;22.538;10.654;6.817;2.757;0.037;10.915
2339232.451;12.070;8.680;19.521;8.754;5.588;9.611;6.780;16.056
2339232.459;16.019;11.660;24.475;11.697;14.752;15.087;12.852;20.564
2339232.467;6.706;0.112;14.491;-0.522;3.539;5.588;2.719;13.448
2339232.475;-2.794;-7.749;5.253;-12.442;-2.868;-3.129;-6.594;2.123
2339232.483;-4.396;-8.270;0.782;-11.288;-9.723;-2.906;-4.172;-0.298
2339232.491;-8.345;-13.523;-1.825;-18.105;-9.313;-6.445;-7.525;-3.465
2339232.499;2.012;-2.757;8.121;-8.196;1.527;3.800;3.688;6.035
2339232.507;0.000;-2.123;5.253;-6.594;-5.104;5.662;5.774;8.754
2339232.515;-0.820;-2.384;4.619;-5.588;-5.290;5.029;7.302;8.568
2339232.523;-4.210;-7.711;1.378;-10.058;-9.127;1.006;5.513;3.874
2339232.531;-4.917;-7.413;0.559;-14.827;-9.201;-2.459;1.453;2.310
2339232.539;-1.974;-3.017;1.527;-10.878;-9.276;0.037;2.868;5.178
2339232.547;-4.955;-5.439;-3.129;-11.846;-12.144;5.253;7.562;10.282
2339232.555;-12.517;-14.976;-11.027;-21.011;-15.311;6.445;8.568;11.399
2339232.563;-16.242;-16.280;-16.317;-25.444;-18.701;6.147;8.121;10.356
2339232.619;-21.867;-21.905;-23.097;-32.075;-23.358;3.800;4.694;7.674
2339232.627;-21.532;-22.277;-23.171;-32.857;-23.618;3.837;5.141;7.115
2339232.635;-18.626;-19.483;-19.856;-29.318;-20.713;4.359;7.413;5.253
2339232.643;-16.876;-19.372;-14.603;-29.169;-14.566;8.643;9.164;10.319
2339232.651;-27.455;-28.536;-23.209;-38.110;-21.309;2.049;0.000;4.098
2339232.659;-27.940;-29.244;-23.283;-37.961;-22.948;2.831;0.522;4.657
2339232.667;-25.630;-28.200;-18.887;-35.353;-19.595;0.671;-1.341;5.178
2339232.675;-27.195;-30.175;-17.472;-35.353;-18.366;-2.123;-5.849;4.470
2339232.683;-25.369;-29.057;-14.566;-33.155;-13.486;-5.104;-10.096;1.416
2339232.691;-26.524;-30.957;-15.274;-34.012;-15.013;-7.004;-12.480;-1.155
2339232.699;-28.722;-32.336;-15.981;-33.677;-16.317;-6.445;-10.170;-2.608
2339232.707;-27.455;-32.522;-12.219;-33.416;-13.113;-10.319;-13.858;-6.631
2339232.715;-28.573;-35.055;-13.299;-34.124;-17.099;-10.766;-14.268;-5.178
2339232.723;-30.175;-33.863;-14.044;-34.347;-14.938;-2.608;-6.557;5.029
2339232.731;-32.708;-36.247;-14.976;-35.688;-17.434;-9.462;-12.293;-1.527
2339232.739;-30.100;-34.198;-11.548;-32.485;-13.635;-12.405;-16.466;-5.998
2339232.747;-26.748;-31.814;-8.494;-28.536;-9.052;-9.499;-15.572;-2.496
2339232.755;-21.234;-28.238;-1.267;-25.108;1.974;-7.860;-14.789;0.596
2339232.763;-27.753;-32.075;-11.697;-26.897;-19.260;-14.082;-20.787;-7.488
2339232.771;-24.550;-27.902;-7.972;-20.005;-14.268;-11.623;-15.981;-5.774
2339232.779;-25.034;-27.716;-7.339;-19.036;-11.697;-10.356;-12.331;-4.098
2339232.787;-28.387;-29.765;-8.754;-21.532;-14.901;-10.915;-12.331;-4.098
2339232.795;-20.042;-23.432;0.075;-16.019;-7.488;-5.215;-8.531;3.502
2339232.803;-18.030;-21.607;1.527;-15.534;-7.860;-5.774;-9.947;3.576
2339232.873;-20.377;-25.667;-1.863;-19.856;-9.388;-9.537;-12.778;-0.708
2339232.881;-23.730;-29.802;-5.774;-23.730;-11.884;-9.388;-11.884;-0.782
2339232.889;-23.507;-28.573;-5.402;-23.358;-13.299;-7.227;-11.884;0.261
2339232.897;-18.701;-23.283;-0.857;-19.036;-10.170;-7.041;-11.884;-0.969
2339232.905;-20.228;-24.587;-4.359;-20.303;-15.423;-10.766;-14.901;-4.582
2339232.913;-15.087;-19.595;0.559;-15.534;-10.580;-5.849;-10.133;0.298
2339232.921;-9.015;-13.784;5.849;-10.766;-7.339;-0.410;-5.923;6.035
2339232.929;-11.288;-16.578;3.688;-14.715;-6.519;-2.794;-9.425;6.184
2339232.937;-14.119;-19.260;1.863;-16.503;-10.096;-4.657;-11.288;3.278
2339232.945;-13.448;-17.136;2.459;-12.182;-10.468;-1.900;-7.264;5.551
2339232.953;-17.658;-22.762;-0.484;-16.652;-13.225;-0.745;-3.949;6.109
2339232.961;-28.051;-33.826;-8.680;-27.679;-19.707;-12.219;-14.491;-4.284
2339232.969;-23.283;-28.498;-3.986;-20.899;-16.540;-12.331;-12.405;-6.445
2339232.977;-12.890;-17.099;7.190;-9.462;-5.960;-3.725;-4.806;2.086
2339232.985;-14.864;-18.887;6.966;-12.107;-4.172;-1.192;-2.496;4.694
2339232.993;-19.334;-21.979;0.373;-14.491;-16.764;-1.565;-0.410;-2.012
2339233.001;-16.838;-20.377;1.416;-12.666;-17.732;3.278;3.241;3.166
2339233.009;-13.374;-16.689;6.743;-8.196;-11.437;3.539;3.800;5.923
2339233.017;-17.360;-20.750;4.694;-12.740;-11.921;1.043;0.857;6.072
2339233.025;-15.013;-18.366;5.476;-9.947;-13.858;4.768;4.210;9.350
2339233.033;-8.643;-12.405;10.319;-4.768;-10.841;7.339;6.966;12.033
2339233.041;-14.007;-17.993;5.439;-9.090;-13.337;1.602;1.527;6.407
2339233.049;-22.799;-22.650;-5.960;-17.993;-29.765;-6.966;-6.109;-3.241
2339233.057;-19.148;-19.856;-3.055;-14.715;-28.647;-3.837;-4.098;2.384
2339232.993;-14.678;-17.695;4.098;-11.437;-17.434;-0.745;-1.416;8.270
2339233.001;-21.830;-23.842;-2.496;-17.695;-24.326;-8.382;-9.909;0.075
2339233.009;-19.446;-18.552;-2.347;-10.803;-28.461;-3.278;-5.811;4.843
2339233.017;-15.274;-14.119;-0.820;-4.992;-30.883;1.527;0.298;8.792
2339233.025;-12.815;-11.027;-0.149;-0.186;-32.410;2.235;4.396;5.402
2339233.033;-8.978;-7.637;3.092;3.800;-32.634;0.894;4.880;3.465
2339233.041;-9.239;-7.935;4.992;3.055;-29.467;1.267;4.917;5.104
2339233.049;-7.413;-6.072;4.545;5.849;-35.726;6.929;9.611;10.207
2339233.057;-12.219;-9.239;-2.682;-2.272;-44.405;2.608;4.731;4.619
2339233.065;-9.276;-6.706;0.894;0.075;-40.084;8.494;10.170;10.431
2339233.073;-12.480;-9.388;-4.321;0.596;-51.297;12.293;14.976;11.511
2339233.081;-13.486;-12.033;-3.129;-0.745;-51.558;9.984;13.076;10.319
2339233.089;-15.162;-15.758;-4.508;-5.029;-54.166;2.570;5.290;4.768
2339233.097;-3.725;-3.390;4.247;6.482;-50.925;3.166;7.264;6.109
2339233.105;12.256;14.789;16.689;23.581;-42.431;8.345;14.007;11.250
2339233.113;26.040;28.051;30.622;37.253;-30.324;8.568;16.168;11.809
2339233.121;38.408;40.904;40.829;50.180;-24.177;6.370;14.082;10.356
2339233.129;44.890;49.174;45.784;59.940;-24.512;4.955;11.362;8.829
2339233.137;66.534;72.196;67.949;83.521;-3.949;15.497;21.905;19.372
2339233.145;86.240;93.021;86.352;103.936;10.878;18.366;24.959;20.973
2339233.153;87.954;95.032;86.986;105.277;6.743;17.770;24.140;19.073
2339233.161;88.885;94.697;89.742;103.526;10.431;18.701;23.097;22.091
2339233.169;81.919;88.215;82.068;95.218;5.625;15.311;17.770;20.526
2339233.177;80.317;86.464;80.504;92.760;10.282;18.850;21.793;24.512
2339233.205;75.549;83.894;73.873;89.705;4.247;19.595;24.736;22.575
2339233.213;62.808;72.047;58.450;76.629;-10.654;9.499;16.876;11.921
2339233.221;61.877;70.743;56.773;72.829;-8.680;15.944;20.489;19.073
2339233.229;60.312;67.949;55.321;69.998;-8.643;21.458;25.257;24.252
2339233.237;47.758;53.346;42.133;56.811;-23.358;11.213;16.429;13.709
2339233.245;45.300;52.564;40.680;52.229;-25.034;11.325;17.323;15.534
2339233.253;45.300;52.340;42.245;51.595;-20.638;15.423;20.452;20.340
2339233.261;31.330;38.743;29.057;38.520;-38.818;14.827;18.068;18.142
2339233.269;32.447;39.339;32.820;39.823;-31.404;21.867;23.693;24.848
2339233.277;29.057;34.459;29.057;37.961;-31.628;23.656;25.742;26.561
2339233.285;31.032;36.694;30.696;41.872;-33.788;33.602;36.806;33.267
2339233.293;23.320;28.796;24.475;35.055;-39.190;30.734;35.577;27.381
2339233.301;11.362;17.583;13.262;23.581;-49.174;25.481;30.249;23.805
2339233.309;8.754;14.938;13.635;21.383;-44.629;32.149;35.912;31.516
2339233.317;0.708;6.333;7.488;13.895;-50.813;32.224;36.247;30.585
2339233.325;-1.043;4.545;4.955;12.554;-53.048;37.998;43.139;36.359
2339233.333;-4.657;-0.447;0.149;10.133;-56.699;41.611;47.758;41.202
2339233.341;-23.060;-16.317;-17.695;-4.806;-73.798;31.739;36.620;31.404
2339233.349;-31.069;-22.203;-24.326;-10.952;-78.268;27.753;31.255;28.312
2339233.357;-31.441;-22.277;-24.289;-10.729;-77.039;25.705;31.292;26.822
2339233.365;-31.926;-23.469;-25.108;-11.064;-75.810;20.489;27.046;20.936
2339233.373;-29.430;-20.564;-23.171;-8.345;-73.053;15.534;22.128;16.093
2339233.381;-21.495;-11.176;-15.907;-0.298;-68.359;20.117;25.928;21.718
2339233.389;-21.607;-11.809;-14.268;-2.645;-63.144;21.718;27.157;23.730
2339233.444;-15.236;-5.923;-7.413;1.229;-57.407;24.661;30.510;27.157
2339233.452;-18.179;-8.754;-9.798;-2.235;-60.052;19.856;25.071;20.675
2339233.460;-18.068;-10.096;-7.935;-3.763;-52.750;19.483;23.879;19.558
2339233.468;-13.597;-6.221;-4.284;-0.112;-48.764;23.618;26.450;23.954
2339233.476;-17.248;-8.531;-8.233;-2.533;-52.489;18.328;22.016;19.632
2339233.484;-26.263;-18.030;-17.546;-12.852;-63.106;10.431;14.454;13.225
2339233.492;-25.779;-16.801;-14.976;-12.927;-57.369;16.578;20.824;19.372
2339233.500;-28.722;-19.372;-17.881;-13.523;-60.722;12.480;17.211;14.380
2339233.508;-31.516;-22.799;-20.042;-17.770;-61.020;9.499;13.076;14.380
2339233.516;-42.394;-36.173;-28.834;-30.696;-67.540;1.676;4.321;9.947
2339233.524;-45.560;-39.563;-30.063;-33.081;-68.285;0.186;4.135;8.531
2339233.532;-42.990;-36.471;-27.306;-29.281;-65.118;1.416;6.258;8.233
2339233.540;-40.755;-34.757;-24.848;-28.946;-59.493;-0.633;4.768;6.966
2339233.548;-39.488;-33.416;-25.667;-28.051;-61.430;0.596;6.706;8.531
2339233.556;-41.947;-35.539;-28.349;-29.951;-64.075;-3.316;3.166;2.719
2339233.564;-37.439;-30.734;-22.352;-25.369;-58.003;-9.201;-3.614;-0.633
2339233.572;-35.912;-29.095;-19.558;-22.613;-54.464;-10.021;-5.029;-0.596
2339233.580;-34.161;-27.120;-18.589;-20.787;-53.979;-6.519;-2.719;2.384
2339233.588;-31.441;-25.518;-15.162;-20.005;-49.509;-3.204;-1.229;4.992
2339233.596;-28.946;-23.171;-13.374;-17.434;-45.560;-2.496;-0.149;2.645
2339233.604;-22.762;-14.268;-8.009;-10.617;-41.351;3.800;7.525;7.264
2339233.612;-24.326;-16.652;-8.903;-12.517;-42.021;4.433;8.829;8.717
2339233.620;-28.796;-20.526;-12.033;-16.503;-43.176;4.992;9.164;9.909
2339233.628;-32.708;-23.209;-15.981;-17.099;-47.535;5.998;9.425;12.517
2339233.697;-37.253;-27.753;-21.309;-19.409;-52.974;5.960;9.239;14.901
2339233.705;-30.361;-21.458;-14.454;-13.597;-45.747;3.278;7.749;10.543
2339233.713;-24.252;-15.795;-6.855;-7.749;-38.631;3.874;7.823;12.480
2339233.721;-25.034;-17.211;-6.817;-8.978;-38.110;2.719;6.519;10.803
2339233.729;-30.547;-23.842;-12.778;-16.876;-43.735;-1.341;2.123;6.817
2339233.737;-33.751;-26.003;-15.870;-18.179;-48.615;0.969;3.986;9.164
2339233.745;-29.281;-19.819;-11.511;-11.101;-43.623;7.525;9.909;13.486
2339233.753;-32.596;-21.979;-14.082;-12.703;-44.480;8.792;9.537;14.119
2339233.761;-32.000;-22.501;-13.895;-10.841;-44.815;8.680;9.313;12.107
2339233.769;-33.416;-23.395;-14.603;-12.852;-46.045;2.496;3.166;6.668
2339233.777;-32.745;-22.426;-13.486;-14.007;-44.219;0.820;-0.708;6.892
2339233.785;-24.177;-14.938;-5.588;-6.445;-34.682;7.376;5.178;13.895
2339233.793;-21.793;-12.815;-3.427;-4.843;-31.181;7.227;7.115;14.529
2339233.801;-25.555;-16.131;-7.972;-9.015;-36.135;5.253;6.370;13.113
2339233.809;-32.894;-22.501;-16.727;-15.125;-45.747;1.751;5.029;8.196
2339233.817;-27.269;-18.440;-11.213;-11.697;-39.674;3.800;7.190;11.660
2339233.825;-24.736;-16.242;-9.388;-7.972;-38.594;6.929;10.729;13.374
2339233.833;-31.479;-21.383;-16.727;-11.586;-48.056;5.774;9.798;8.605
2339233.841;-29.579;-18.477;-14.491;-9.239;-45.002;9.760;10.878;12.480
2339233.849;-25.295;-14.678;-9.425;-6.147;-38.967;13.448;13.970;18.254
2339233.857;-22.314;-12.256;-5.215;-5.290;-31.553;15.274;15.423;20.377
2339233.865;-27.269;-15.758;-12.070;-9.090;-40.904;11.735;13.374;14.082
2339233.873;-26.785;-14.454;-13.635;-8.307;-42.282;12.182;14.752;14.156
2339233.881;-27.083;-14.864;-15.497;-9.909;-43.921;11.176;13.821;12.964
2339233.862;-30.324;-18.924;-19.297;-15.758;-46.678;6.817;8.866;10.543
2339233.870;-35.428;-24.699;-24.363;-22.948;-49.621;3.949;5.290;9.537
2339233.878;-40.866;-30.547;-29.951;-27.157;-53.495;3.390;4.657;11.101
2339233.886;-40.270;-26.338;-28.834;-26.599;-51.446;6.929;8.568;14.454
2339233.894;-38.184;-24.922;-26.226;-24.140;-50.515;4.992;8.382;11.884
2339233.902;-41.500;-27.940;-29.877;-25.816;-56.252;-0.149;5.178;4.955
2339233.910;-51.409;-37.774;-37.812;-34.608;-64.000;-10.058;-3.390;-4.284
2339233.918;-49.546;-35.614;-34.235;-30.845;-58.860;-10.096;-3.539;-3.465
2339233.926;-42.915;-28.573;-25.630;-22.873;-50.031;-2.235;2.533;4.619
2339233.934;-47.460;-32.447;-29.504;-26.226;-57.034;-1.714;1.900;2.831
2339233.942;-45.374;-30.957;-25.779;-24.699;-52.787;-0.596;2.608;3.278
2339233.950;-44.964;-31.553;-23.544;-24.103;-51.446;2.086;4.098;5.513
2339233.958;-51.744;-39.414;-30.883;-28.983;-62.808;-1.863;0.112;1.192
2339233.966;-52.527;-41.276;-28.983;-30.659;-59.195;-4.247;-1.304;0.447
2339233.974;-42.915;-30.622;-17.881;-21.830;-47.609;4.955;8.158;10.543
2339233.982;-41.425;-30.100;-14.640;-19.483;-44.778;6.817;8.568;13.560
2339233.990;-42.468;-30.771;-14.603;-19.036;-43.586;5.066;5.551;9.537
2339233.998;-45.262;-32.820;-18.924;-20.228;-54.277;6.258;6.221;8.829
2339234.006;-46.119;-33.937;-18.552;-21.011;-52.489;3.874;3.092;6.333
2339234.014;-36.694;-26.487;-8.829;-14.380;-41.611;2.310;3.017;8.270
2339234.022;-29.877;-21.160;-1.974;-8.903;-38.818;1.825;3.278;9.574
2339234.030;-33.714;-25.220;-3.912;-14.454;-39.637;-1.788;-1.378;8.680
2339234.038;-43.772;-35.651;-13.188;-24.773;-48.205;-10.356;-10.952;-0.112
2339234.046;-41.276;-32.783;-9.760;-20.899;-44.145;-7.935;-8.047;1.751
2339234.014;-40.084;-32.149;-10.133;-21.122;-46.454;-7.451;-7.451;2.086
2339234.022;-38.892;-29.244;-10.058;-19.222;-47.237;-6.668;-7.451;3.539
2339234.030;-39.674;-29.020;-10.431;-19.558;-46.380;-6.296;-6.855;3.166
2339234.038;-43.511;-32.187;-15.832;-24.624;-53.197;-10.431;-11.213;0.708
2339234.046;-40.755;-29.430;-13.560;-22.538;-49.584;-9.798;-10.692;-0.969
2339234.054;-37.886;-25.183;-12.033;-17.844;-49.286;-9.909;-10.021;-2.235
2339234.062;-41.872;-30.138;-14.305;-24.103;-49.546;-13.225;-13.672;-3.800
2339234.070;-45.151;-33.230;-15.683;-26.375;-51.297;-11.437;-10.841;-3.539
2339234.078;-44.294;-32.298;-14.454;-25.518;-51.782;-7.153;-6.929;0.745
2339234.086;-44.033;-33.118;-13.895;-28.126;-54.240;-4.247;-5.886;2.719
2339234.094;-39.302;-31.218;-8.047;-28.126;-46.790;-5.290;-6.743;1.341
2339234.102;-39.376;-30.100;-9.537;-26.524;-49.509;-2.198;-3.129;2.533
2339234.110;-42.468;-32.932;-11.697;-27.865;-53.495;-1.043;0.261;3.427
2339234.118;-47.348;-37.886;-15.125;-32.000;-56.289;-5.960;-5.513;-0.335
2339234.126;-48.466;-39.004;-16.391;-33.416;-59.381;-5.998;-5.998;-0.261
2339234.134;-42.729;-33.751;-10.505;-28.685;-57.854;-6.370;-5.178;0.037
2339234.142;-40.345;-31.069;-8.345;-25.146;-57.183;-7.339;-6.557;-1.974
2339234.150;-39.637;-30.808;-6.892;-24.736;-56.289;-9.872;-8.903;-6.296
2339234.158;-36.955;-27.791;-3.949;-21.420;-55.581;-5.923;-3.017;-2.347
2339234.166;-36.694;-26.934;-2.794;-20.303;-54.128;-2.086;2.682;-1.565
2339234.174;-39.339;-28.647;-5.178;-22.352;-54.352;-4.619;-0.894;-4.135
2339234.182;-44.815;-32.037;-11.697;-25.444;-61.356;-8.829;-6.519;-7.972
2339234.190;-41.015;-29.728;-7.637;-23.916;-56.215;-2.235;-1.453;-1.341
2339234.198;-36.061;-25.891;-2.570;-20.862;-50.589;-0.596;0.075;2.012
2339234.150;-39.637;-29.169;-6.370;-23.730;-52.974;-4.172;-4.172;-1.304
2339234.158;-45.486;-33.714;-12.629;-28.275;-57.742;-9.909;-11.623;-7.823
2339234.166;-41.202;-28.759;-9.872;-21.234;-56.438;-8.047;-9.313;-8.270
2339234.174;-35.129;-24.438;-3.725;-16.168;-48.392;-4.731;-4.657;-5.402
2339234.182;-41.425;-26.524;-9.611;-21.122;-53.197;-10.356;-10.990;-9.052
2339234.190;-42.878;-28.536;-9.574;-23.022;-52.564;-7.898;-9.239;-5.253
2339234.198;-44.219;-29.802;-10.692;-23.134;-52.191;-7.674;-9.686;-3.763
2339234.206;-42.319;-26.822;-9.835;-19.222;-53.123;-9.537;-11.213;-5.811
2339234.214;-41.947;-26.412;-8.903;-19.595;-48.168;-12.517;-14.082;-7.786
2339234.222;-37.961;-21.122;-4.359;-13.895;-44.182;-5.066;-6.072;-2.049
2339234.230;-32.298;-16.168;0.447;-9.537;-40.568;-2.235;-3.278;1.565
2339234.238;-24.624;-7.339;7.451;1.192;-33.639;-1.490;-1.118;0.969
2339234.246;-18.403;-1.416;14.119;6.631;-26.859;2.719;2.086;3.986
2339234.254;-2.794;15.162;30.771;24.289;-11.213;16.093;15.870;17.732
2339234.262;7.190;23.991;41.164;32.745;-3.427;9.723;9.947;13.076
2339234.270;8.792;25.406;42.878;34.012;-5.290;0.373;-0.671;2.757
2339234.278;12.927;30.175;47.460;39.600;-4.619;-2.421;-2.906;0.447
2339234.286;29.840;45.858;64.373;56.028;8.903;-1.751;-1.863;0.522
2339234.294;48.317;66.906;82.552;73.798;23.469;0.633;-0.149;3.166
2339234.302;54.911;73.127;90.152;80.615;31.739;6.258;5.141;8.568
2339234.310;64.224;81.062;100.546;87.917;44.256;14.082;14.938;15.870
2339234.318;66.832;81.994;102.706;87.284;48.578;13.150;12.927;17.025
2339234.326;45.709;61.356;81.509;63.516;29.206;-3.316;-5.551;3.725
2339234.334;39.376;55.395;75.139;54.650;27.120;-0.484;-3.912;6.743
2339234.312;29.206;47.088;61.952;45.337;18.440;0.447;-2.570;5.476
2339234.320;22.911;41.872;53.532;40.084;14.193;4.247;2.347;6.929
2339234.328;17.136;35.204;47.721;33.118;12.703;5.811;3.204;9.537
2339234.336;5.327;23.246;36.806;21.420;4.880;1.490;-0.484;4.806
2339234.344;-3.837;14.640;28.051;12.554;1.006;-2.421;-3.576;0.671
2339234.352;1.416;19.856;34.645;18.254;9.611;4.061;5.029;8.307
2339234.360;-7.413;11.101;29.728;7.749;6.370;3.092;4.992;7.041
2339234.368;-23.283;-8.307;16.950;-11.809;-2.943;-6.892;-9.947;-0.447
2339234.376;-21.569;-6.221;17.248;-9.313;-2.645;-4.172;-9.164;3.576
2339234.384;-23.842;-6.594;17.025;-10.952;-6.668;-5.029;-7.600;1.900
2339234.392;-34.124;-17.546;9.052;-22.128;-14.901;-16.466;-19.073;-10.319
2339234.400;-32.596;-16.615;10.580;-20.675;-12.740;-15.125;-17.248;-10.543
2339234.408;-27.195;-12.107;15.311;-14.193;-9.350;-7.190;-9.909;-4.694
2339234.416;-29.914;-14.603;13.337;-14.082;-14.007;-5.141;-7.115;-2.943
2339234.424;-43.325;-26.561;0.149;-28.126;-26.673;-13.113;-16.317;-10.170
2339234.432;-39.563;-24.140;3.800;-25.518;-23.320;-7.935;-11.250;-5.439
2339234.440;-33.043;-16.503;9.984;-17.621;-19.930;1.751;-2.645;4.210
2339234.448;-30.883;-14.678;13.486;-14.976;-14.603;3.651;-0.522;5.364
2339234.456;-32.447;-18.999;14.938;-19.819;-9.388;-1.006;-6.258;3.092
2339234.464;-37.029;-22.464;8.233;-22.054;-22.799;-1.416;-6.482;2.831
2339234.472;-41.872;-27.232;3.874;-27.418;-27.157;-7.562;-12.070;-2.533
2339234.480;-38.221;-24.252;9.313;-25.779;-19.297;-5.774;-9.909;-0.969
2339234.488;-31.479;-15.385;13.374;-16.540;-18.291;1.155;-1.714;5.290
2339234.496;-40.159;-22.985;4.359;-23.730;-25.891;-8.866;-10.245;-6.333
2339234.538;-44.666;-28.796;1.900;-29.095;-25.779;-17.397;-20.787;-13.784
2339234.546;-34.273;-18.775;11.325;-17.695;-15.460;-5.923;-9.052;-2.645
2339234.554;-29.244;-13.039;17.323;-11.660;-6.407;-0.037;-2.980;2.235
2339234.562;-42.319;-24.103;0.969;-21.234;-33.081;-8.568;-11.176;-8.196
2339234.570;-41.686;-23.171;1.192;-20.601;-32.969;-8.531;-9.537;-9.984
2339234.578;-39.004;-21.681;5.402;-20.191;-25.481;-5.513;-5.364;-7.488
2339234.586;-32.745;-14.678;11.064;-15.236;-22.911;5.588;5.998;3.651
2339234.594;-33.788;-17.285;9.537;-19.670;-24.810;1.863;2.719;0.186
2339234.602;-25.220;-9.611;17.732;-11.288;-18.924;2.831;1.155;5.811
2339234.610;-38.221;-20.973;6.706;-22.575;-36.173;-9.276;-12.107;-5.253
2339234.618;-37.588;-22.613;7.004;-25.481;-37.774;-9.835;-13.858;-6.296
2339234.626;-32.671;-17.732;8.158;-22.464;-43.325;-3.763;-9.164;-1.378
2339234.634;-28.498;-13.597;13.448;-18.626;-37.849;2.347;-2.906;5.215
2339234.642;-27.753;-12.927;14.827;-15.385;-39.488;2.794;-1.714;7.339
2339234.650;-32.969;-19.446;10.058;-18.701;-46.156;-0.969;-4.508;2.086
2339234.658;-27.977;-12.293;14.007;-13.076;-44.815;0.708;-1.080;2.459
2339234.666;-37.886;-19.930;1.788;-21.197;-60.312;-7.823;-8.717;-7.711
2339234.674;-39.525;-22.426;-0.186;-23.916;-63.591;-10.207;-10.841;-9.201
2339234.682;-34.124;-16.727;3.874;-17.732;-59.046;-8.792;-10.021;-8.345
2339234.690;-40.568;-22.650;-3.353;-23.954;-69.737;-10.654;-12.331;-10.692
2339234.698;-38.110;-19.968;-0.969;-20.526;-68.918;-6.966;-7.153;-6.407
2339234.706;-36.508;-17.136;-1.751;-15.050;-69.700;-7.972;-7.190;-9.574
2339234.714;-38.110;-17.919;-3.465;-15.534;-70.520;-11.101;-10.133;-11.399
2339234.722;-35.428;-16.280;-0.708;-11.995;-67.316;-9.649;-7.711;-10.096
2339234.717;-41.574;-21.905;-7.190;-17.434;-71.861;-14.342;-11.735;-13.560
2339234.725;-36.135;-16.466;-1.565;-13.337;-63.702;-10.207;-8.047;-9.350
2339234.733;-32.708;-13.262;1.378;-10.394;-58.785;-11.586;-10.580;-10.803
2339234.741;-30.659;-11.995;1.639;-9.984;-55.246;-13.970;-12.815;-10.803
2339234.749;-27.902;-9.462;4.098;-5.737;-49.323;-15.087;-13.411;-11.660
2339234.757;-28.089;-9.611;5.290;-5.104;-43.064;-18.254;-15.572;-15.125
2339234.765;-28.238;-9.388;6.855;-6.258;-36.880;-17.881;-15.348;-13.895
2339234.773;-21.271;-0.820;13.486;3.166;-28.200;-10.133;-7.227;-5.066
2339234.781;-26.561;-6.706;6.668;-2.496;-34.347;-14.305;-13.821;-8.345
2339234.789;-16.987;0.969;15.981;5.551;-22.314;-11.697;-10.319;-10.096
2339234.797;-16.131;1.341;16.801;4.321;-19.670;-18.477;-16.280;-16.317
2339234.805;-12.033;7.711;20.675;6.817;-13.448;-14.976;-12.554;-11.735
2339234.813;-8.084;10.319;25.183;10.580;-4.657;-9.723;-8.866;-5.290
2339234.821;-19.595;-1.006;15.795;0.335;-14.305;-17.211;-17.248;-12.703
2339234.829;-20.862;-0.931;15.013;1.639;-16.019;-16.913;-16.913;-11.697
2339234.837;-21.905;-1.118;13.672;-0.224;-15.907;-18.887;-17.583;-14.193
2339234.845;-19.670;0.931;16.503;-1.714;-11.735;-17.472;-13.672;-13.188
2339234.853;-13.337;7.302;21.905;4.657;-4.433;-13.858;-8.941;-8.754
2339234.861;-15.534;5.998;18.142;1.080;-7.451;-18.552;-13.188;-14.529
2339234.869;-19.595;1.639;13.635;-5.737;-5.327;-19.856;-15.981;-14.827
2339234.877;-20.601;1.788;9.537;-5.588;-13.113;-14.827;-13.374;-8.866
2339234.885;-23.097;-0.596;7.153;-8.754;-13.113;-18.999;-16.354;-12.778
2339234.893;-26.003;-3.278;4.210;-11.437;-12.405;-17.956;-15.423;-12.368
2339234.901;-24.475;-0.261;5.849;-8.717;-12.256;-15.423;-12.890;-11.399
2339234.853;-22.724;1.974;6.519;-7.898;-15.460;-11.399;-8.643;-8.941
2339234.861;-17.509;6.817;14.678;-2.123;-6.184;-6.892;-3.614;-5.737
2339234.869;-14.156;7.935;19.744;1.043;-0.224;-6.557;-3.837;-5.029
2339234.877;-19.036;5.960;15.497;-1.602;-7.041;-15.721;-12.107;-14.640
2339234.885;-28.200;-2.347;10.021;-9.313;-12.144;-24.177;-20.973;-20.415
2339234.893;-30.138;-5.253;7.227;-11.511;-17.807;-25.891;-23.544;-22.016
2339234.901;-16.466;7.227;18.999;0.633;-8.866;-14.715;-11.958;-12.256
2339234.909;-14.640;10.319;21.793;4.731;-5.998;-10.170;-5.960;-9.090
2339234.917;-19.930;5.588;17.732;2.086;-9.984;-12.256;-8.792;-10.282
2339234.925;-24.140;1.863;15.758;-0.373;-12.070;-12.703;-10.170;-9.052
2339234.933;-33.155;-7.041;9.462;-8.121;-18.477;-17.658;-15.311;-12.107
2339234.941;-32.708;-7.227;10.356;-8.941;-21.085;-18.924;-17.881;-13.635
2339234.949;-29.281;-4.470;13.039;-5.141;-20.787;-14.678;-13.858;-9.686
2339234.957;-26.785;-1.863;15.236;-0.969;-17.807;-11.958;-10.878;-6.482
2339234.965;-24.922;2.161;18.142;4.023;-16.093;-9.239;-9.276;-3.874
2339234.973;-31.516;-4.694;10.990;-0.820;-24.512;-16.764;-18.291;-10.803
2339234.981;-27.604;1.378;15.236;1.974;-21.756;-15.236;-14.454;-7.302
2339234.989;-29.616;-0.857;14.231;-0.708;-20.489;-19.260;-17.807;-11.250
2339234.997;-30.100;-2.384;14.342;-0.931;-17.583;-19.372;-18.515;-12.666
2339235.005;-30.734;-2.123;14.380;-1.080;-20.675;-14.864;-12.293;-10.319
2339235.013;-33.006;-4.545;10.841;-3.949;-25.257;-18.887;-14.938;-13.486
2339235.021;-32.410;-5.513;13.076;-7.004;-18.105;-21.569;-18.701;-12.554
2339235.029;-28.126;-2.235;15.944;-4.582;-18.179;-20.675;-18.775;-12.890
2339235.037;-26.301;1.043;16.205;0.894;-18.887;-17.583;-16.131;-9.835
2339234.976;-23.730;6.743;18.068;8.345;-17.844;-13.150;-11.027;-6.035
2339234.984;-18.254;12.256;24.103;13.337;-11.548;-9.388;-4.992;-3.427
2339234.992;-23.432;7.935;16.727;8.494;-21.793;-15.460;-9.350;-10.692
2339235.000;-22.799;7.711;18.850;7.078;-18.328;-20.489;-13.001;-16.131
2339235.008;-17.211;12.740;25.183;10.841;-13.001;-20.936;-14.342;-16.391
2339235.016;-13.560;18.403;26.301;16.280;-17.583;-21.160;-14.193;-15.981
2339235.024;-5.998;26.189;34.384;23.432;-6.594;-16.503;-9.947;-13.001
2339235.032;-2.012;27.120;39.637;22.426;0.782;-8.866;-5.141;-5.737
2339235.040;-8.903;22.314;30.324;15.646;-15.981;-8.531;-5.625;-7.525
2339235.048;-19.297;11.511;19.372;5.886;-27.716;-14.305;-14.640;-11.697
2339235.056;-13.411;15.534;25.965;9.760;-18.328;-8.903;-11.660;-4.321
2339235.064;-4.917;22.724;33.192;18.254;-14.789;1.080;0.112;5.215
2339235.072;-5.364;23.395;32.559;19.819;-17.099;2.198;1.863;5.066
2339235.080;-13.709;15.497;24.326;10.803;-29.244;-1.639;-3.129;1.416
2339235.088;-16.093;12.852;22.352;7.190;-31.516;-6.296;-5.066;-4.135
2339235.096;-14.305;15.758;23.432;11.288;-30.287;-9.201;-5.811;-7.227
2339235.104;-17.807;14.976;18.999;13.299;-36.024;-9.686;-6.333;-6.817
2339235.112;-29.504;2.757;5.402;1.863;-49.248;-19.521;-14.938;-18.850
2339235.120;-36.471;-3.614;-3.129;-3.725;-62.101;-25.928;-21.309;-24.773
2339235.128;-30.920;2.980;2.459;3.353;-58.599;-20.452;-15.572;-18.068
2339235.136;-20.973;12.182;11.399;12.070;-49.770;-14.640;-11.288;-13.039
2339235.144;-16.205;15.832;16.317;14.529;-43.772;-14.827;-11.884;-14.044
2339235.152;-20.675;9.239;11.325;6.817;-50.105;-14.566;-13.262;-13.374
2339235.160;-26.412;5.364;1.825;3.576;-65.975;-19.856;-19.111;-18.850
2339235.139;-24.363;7.153;3.166;5.029;-62.399;-15.758;-17.323;-12.852
2339235.147;-11.474;20.154;15.385;18.626;-49.360;-0.149;-2.086;4.619
2339235.155;-17.695;14.417;9.090;13.746;-59.567;-6.482;-7.898;-2.682
2339235.163;-20.862;10.505;5.737;9.872;-64.634;-11.511;-11.586;-7.823
2339235.171;-25.891;6.333;-0.037;6.855;-67.577;-17.248;-13.858;-14.901
2339235.179;-28.834;3.949;-3.129;3.614;-68.918;-19.297;-16.056;-16.093
2339235.187;-25.667;6.035;-1.676;4.582;-69.067;-19.707;-17.770;-13.970
2339235.195;-24.065;7.972;-0.447;6.407;-67.726;-20.154;-17.956;-14.007
2339235.203;-24.326;7.898;-0.373;7.115;-65.640;-18.701;-17.360;-14.231
2339235.211;-24.736;7.153;-0.112;6.407;-60.871;-16.950;-16.876;-14.454
2339235.219;-27.344;6.221;-3.241;5.178;-63.814;-13.821;-14.901;-10.952
2339235.227;-29.802;2.943;-5.551;1.118;-65.491;-16.838;-15.944;-12.144
2339235.235;-28.759;2.161;-6.035;0.112;-65.640;-19.595;-17.397;-15.050
2339235.243;-25.891;5.476;-3.912;2.310;-60.275;-10.915;-10.058;-7.749
2339235.251;-20.340;10.990;0.969;6.109;-52.862;-2.012;-2.794;0.037
2339235.259;-25.593;5.290;-3.092;-1.043;-53.830;-6.855;-8.419;-4.731
2339235.267;-27.232;4.992;-6.035;-2.533;-52.825;-6.855;-7.339;-5.551
2339235.275;-30.585;2.794;-12.182;-5.402;-56.624;-11.735;-11.250;-10.841
2339235.283;-26.189;7.600;-9.947;-2.272;-50.962;-8.158;-8.605;-5.215
2339235.291;-28.163;6.668;-12.144;-4.768;-50.180;-7.451;-9.350;-4.396
2339235.299;-36.843;-1.304;-21.905;-12.629;-60.461;-11.064;-12.815;-8.754
2339235.307;-33.602;2.943;-15.497;-7.376;-49.695;-6.109;-8.121;-1.565
2339235.315;-34.310;2.235;-13.076;-7.786;-44.294;-13.523;-14.305;-8.903
2339235.323;-27.642;8.866;-3.241;-0.969;-33.267;-15.795;-15.981;-13.746
2339235.332;-25.891;12.293;-0.559;3.055;-34.049;-13.262;-11.697;-13.523
2339235.340;-31.777;7.041;-3.949;-1.341;-36.210;-14.491;-13.150;-15.087
2339235.348;-31.181;4.806;0.298;-1.788;-28.871;-15.758;-17.025;-14.007
2339235.356;-20.824;18.030;11.697;10.058;-16.652;-7.972;-8.531;-6.780
2339235.364;-14.491;25.295;18.589;19.073;-10.319;1.676;1.527;2.235
2339235.372;-27.940;9.760;6.333;3.763;-24.326;-11.064;-14.305;-12.517
2339235.380;-27.083;10.952;9.052;4.619;-22.128;-9.350;-12.740;-11.325
2339235.388;-17.062;20.936;19.483;14.119;-10.133;-1.192;-3.241;-4.582
2339235.396;-3.278;34.943;31.404;29.393;1.900;3.912;2.608;1.378
2339235.404;-9.537;29.542;24.252;23.991;-9.239;-7.823;-9.499;-7.674
2339235.412;-6.594;33.192;26.897;26.748;-10.245;-7.749;-11.027;-6.966
2339235.420;4.470;41.835;36.582;34.645;-2.682;-6.519;-9.723;-6.966
2339235.428;10.803;48.578;42.580;41.276;0.186;-3.800;-6.780;-5.513
2339235.436;20.750;59.828;52.191;53.123;5.141;-4.210;-6.221;-6.706
2339235.444;34.310;73.612;65.416;68.806;14.976;-0.745;-2.086;-1.341
2339235.452;39.488;79.572;70.296;76.741;17.174;-1.267;-2.198;-2.608
2339235.460;49.211;90.264;80.988;90.487;25.965;-2.757;-1.937;-5.960
2339235.468;66.496;105.873;99.391;106.022;43.139;0.037;1.900;-3.949
2339235.476;77.300;116.453;108.182;118.390;48.876;2.757;5.141;-1.192
2339235.484;74.692;113.323;106.432;114.702;45.784;-2.757;-2.086;-3.986
2339235.492;73.537;111.312;106.506;110.380;49.435;-8.792;-8.531;-8.382
2339235.500;77.002;113.845;109.971;111.572;56.364;-5.811;-5.737;-2.347
2339235.508;75.474;111.535;107.177;109.076;56.066;-3.316;-3.502;0.633
2339235.516;62.063;97.379;92.350;93.058;45.672;-6.445;-7.115;-4.992
2339235.574;48.392;82.813;78.715;77.561;35.651;-6.966;-7.935;-5.886
2339235.582;31.926;66.236;62.697;58.822;23.767;-12.256;-14.864;-9.872
2339235.590;18.626;52.266;48.131;42.729;13.262;-17.993;-21.569;-12.740
2339235.598;16.503;47.460;45.002;36.918;13.225;-16.540;-19.632;-11.399
2339235.606;16.205;47.237;43.586;37.141;14.156;-16.801;-17.919;-14.380
2339235.614;21.346;53.383;47.833;45.113;21.495;-7.264;-6.109;-7.749
2339235.622;19.036;52.080;44.182;44.256;18.477;-2.831;-0.894;-5.104
2339235.630;14.119;47.199;39.116;39.376;13.411;-1.900;-1.118;-4.396
2339235.638;11.735;43.847;36.247;36.694;14.231;-1.229;-1.118;-2.272
2339235.646;10.729;43.735;33.230;36.992;11.101;-1.676;-1.714;-2.496
2339235.654;12.554;44.927;34.757;37.551;13.262;-0.484;-1.378;-1.043
2339235.662;6.743;39.525;29.877;31.739;8.680;-3.353;-4.545;-3.725
2339235.670;-3.241;28.946;20.452;20.340;1.043;-6.706;-9.015;-7.302
2339235.678;-3.949;26.785;19.334;19.446;3.427;-3.204;-6.668;-4.657
2339235.686;-4.992;26.524;17.174;21.160;0.708;-3.502;-6.817;-4.023
2339235.694;-3.912;28.610;17.211;23.767;1.453;-2.198;-5.439;-3.278
2339235.702;-8.084;24.997;13.150;18.217;-0.373;-3.241;-7.115;-5.588
2339235.710;-9.835;22.314;12.293;14.119;-0.186;-5.178;-8.531;-7.190
2339235.718;-13.597;17.919;7.041;9.537;-5.327;-8.829;-10.915;-10.282
2339235.726;-14.156;16.950;4.806;9.649;-5.923;-11.139;-9.947;-12.070
2339235.734;-12.517;17.621;6.594;11.399;-2.198;-14.640;-11.846;-13.933
2339235.742;-13.486;16.317;4.992;11.958;-2.161;-18.813;-15.274;-16.317
2339235.750;-10.319;20.079;7.637;16.429;0.820;-16.317;-14.901;-11.623
2339235.758;-6.743;23.395;10.654;18.775;4.359;-11.139;-11.846;-8.419
2339235.752;-8.382;19.856;9.127;14.901;6.445;-12.144;-14.938;-9.127
2339235.760;-12.629;15.907;3.576;11.288;-0.037;-14.193;-16.168;-12.033
2339235.768;-12.815;14.789;1.974;9.798;-0.857;-9.313;-11.809;-8.009
2339235.776;-12.740;14.901;0.894;10.841;-1.267;-8.754;-11.176;-7.898
2339235.784;-13.374;14.491;-0.112;11.697;-0.559;-10.207;-12.405;-9.201
2339235.792;-14.082;13.411;-2.347;10.207;-2.049;-12.144;-14.454;-9.798
2339235.800;-12.033;15.385;-0.745;12.852;-1.378;-12.852;-14.640;-11.362
2339235.808;-18.552;6.482;-5.960;5.476;-6.817;-16.652;-19.260;-16.056
2339235.816;-19.372;8.829;-7.078;5.439;-6.258;-14.529;-17.919;-14.268
2339235.824;-17.360;9.649;-4.955;5.104;-1.118;-13.411;-17.360;-12.740
2339235.832;-14.156;10.952;-1.863;7.562;2.757;-8.792;-13.039;-6.072
2339235.840;-17.434;7.637;-7.004;5.327;-4.470;-8.941;-13.709;-6.035
2339235.848;-23.805;0.373;-14.529;-1.937;-9.909;-11.064;-15.534;-7.674
2339235.856;-25.742;-2.719;-16.652;-6.817;-6.445;-12.591;-16.652;-8.494
2339235.864;-23.171;-1.006;-16.056;-7.302;-6.109;-7.302;-9.276;-4.582
2339235.872;-26.897;-6.109;-22.128;-12.331;-11.697;-11.846;-12.219;-8.978
2339235.880;-34.496;-13.262;-30.622;-21.085;-16.242;-21.383;-22.128;-16.503
2339235.888;-37.737;-16.578;-35.763;-25.444;-19.781;-20.117;-19.222;-15.348
2339235.896;-35.167;-12.182;-35.092;-21.793;-19.148;-16.354;-14.938;-12.703
2339235.904;-33.900;-10.766;-31.665;-22.911;-16.019;-17.621;-17.062;-13.784
2339235.912;-40.643;-17.956;-37.365;-28.946;-22.948;-18.179;-18.217;-15.162
2339235.920;-41.872;-19.372;-38.743;-30.585;-24.773;-16.913;-18.142;-15.572
2339235.928;-48.615;-25.444;-44.480;-37.737;-29.728;-22.650;-24.401;-22.538
2339235.936;-46.641;-21.271;-39.637;-33.751;-23.320;-16.056;-18.738;-15.683
2339235.888;-50.962;-23.879;-41.127;-35.949;-24.363;-16.727;-20.601;-16.578
2339235.896;-52.899;-27.381;-41.611;-37.774;-26.301;-17.956;-22.501;-17.546
2339235.904;-51.521;-23.730;-40.159;-36.471;-27.418;-14.529;-18.179;-13.597
2339235.912;-46.790;-18.701;-36.992;-30.547;-25.667;-8.121;-11.995;-7.935
2339235.920;-45.113;-17.695;-35.986;-30.100;-23.916;-11.250;-15.236;-11.325
2339235.928;-48.876;-21.718;-37.998;-34.943;-27.977;-18.775;-23.656;-18.440
2339235.936;-38.445;-11.511;-27.530;-23.954;-17.658;-9.798;-14.417;-9.649
2339235.944;-25.593;0.931;-16.019;-9.499;-8.158;-1.751;-6.072;-1.825
2339235.952;-23.581;2.421;-14.342;-5.662;-5.625;-0.708;-4.992;-0.410
2339235.960;-33.006;-5.737;-25.891;-13.635;-15.981;-7.190;-7.600;-9.201
2339235.968;-37.141;-9.201;-29.653;-19.595;-17.881;-10.394;-9.239;-14.678
2339235.976;-33.230;-5.923;-26.152;-16.168;-14.529;-9.164;-9.760;-14.938
2339235.984;-34.682;-7.749;-28.722;-16.652;-19.260;-17.285;-19.185;-22.873
2339235.992;-30.249;-3.576;-23.656;-11.027;-11.995;-16.838;-18.738;-19.968
2339236.000;-14.827;9.574;-7.786;0.410;3.390;-11.735;-12.629;-14.082
2339236.008;-7.711;17.434;-1.714;8.680;7.339;-13.672;-12.927;-15.497
2339236.016;5.141;28.871;11.176;18.142;18.291;-9.872;-9.015;-9.686
2339236.024;17.770;40.792;23.022;28.871;29.132;-4.172;-2.943;-3.912
2339236.032;18.515;42.692;22.687;33.602;24.810;-12.629;-11.586;-11.548
2339236.040;20.079;44.256;23.991;35.502;26.375;-16.578;-15.795;-15.832
2339236.048;43.474;68.583;46.007;61.654;43.437;-5.141;-4.619;-3.986
2339236.056;49.509;74.022;51.074;69.067;45.262;-13.970;-14.864;-13.523
2339236.064;63.479;86.129;65.565;79.833;59.456;-15.013;-16.429;-15.534
2339236.072;70.781;95.144;70.855;88.774;60.797;-14.044;-14.119;-16.987
2339236.098;70.743;95.181;70.482;89.966;60.499;-13.188;-12.442;-15.758
2339236.106;76.592;100.136;77.561;96.112;69.924;-7.674;-7.339;-9.723
2339236.114;75.400;96.485;75.735;91.046;70.184;-4.694;-6.407;-7.190
2339236.122;67.055;88.699;65.640;82.552;61.952;-2.570;-2.719;-6.035
2339236.130;56.997;78.082;56.773;70.967;56.736;-4.508;-2.645;-6.892
2339236.138;48.541;70.557;47.907;62.361;50.291;-3.502;-3.055;-3.539
2339236.146;41.947;64.410;39.563;55.730;44.815;2.049;0.857;3.912
2339236.154;27.940;50.366;23.693;41.462;30.883;-5.253;-7.525;-2.757
2339236.162;24.140;45.002;20.228;34.496;33.490;-2.645;-5.886;-1.192
2339236.170;20.117;40.866;14.007;31.069;25.816;0.410;-3.614;0.298
2339236.178;16.093;36.880;9.984;27.381;22.687;0.410;-2.123;-2.570
2339236.186;12.815;32.559;8.382;23.171;25.071;1.118;-0.261;-1.378
2339236.194;2.943;21.979;-2.757;12.927;14.156;-5.029;-7.302;-6.557
2339236.202;2.086;19.930;-5.364;10.841;10.431;-6.855;-9.276;-5.476
2339236.210;2.496;20.303;-4.321;10.058;14.193;-7.376;-9.052;-5.290
2339236.218;0.708;17.546;-6.780;5.476;12.293;-7.451;-9.015;-6.929
2339236.226;-5.402;10.096;-12.666;-3.576;7.264;-7.674;-11.437;-7.115
2339236.234;-3.688;11.027;-11.250;-2.608;10.766;-4.880;-9.723;-4.284
2339236.242;-9.798;0.596;-15.087;-13.970;11.213;-9.611;-14.566;-10.356
2339236.250;-11.139;1.565;-17.844;-15.274;6.706;-4.694;-8.047;-6.668
2339236.258;-14.007;0.373;-22.464;-12.517;2.049;-4.359;-5.551;-7.786
2339236.266;-15.460;-1.788;-23.730;-13.188;2.421;-7.413;-8.121;-9.872
2339236.274;-14.938;-2.533;-23.507;-13.635;4.694;-5.923;-5.588;-9.611
2339236.282;-20.750;-8.494;-29.430;-20.489;-2.310;-8.494;-10.058;-13.821
2339236.294;-17.025;-5.849;-26.524;-18.142;2.459;-5.551;-8.866;-9.611
2339236.302;-19.446;-8.456;-29.728;-21.346;-1.118;-8.792;-12.405;-10.654
2339236.310;-28.685;-16.689;-40.531;-28.759;-11.846;-15.087;-16.764;-15.236
2339236.318;-32.224;-20.303;-46.752;-32.149;-16.466;-22.240;-22.836;-21.793
2339236.326;-35.055;-22.128;-49.584;-33.490;-17.174;-22.389;-20.824;-22.464
2339236.334;-41.202;-28.014;-54.501;-38.445;-21.085;-20.117;-19.521;-20.787
2339236.342;-38.445;-27.083;-51.856;-36.731;-17.695;-11.660;-12.219;-10.729
2339236.350;-41.686;-33.751;-55.656;-42.543;-20.489;-11.884;-13.486;-9.686
2339236.358;-39.302;-29.020;-55.991;-40.531;-21.271;-10.543;-11.958;-9.537
2339236.366;-32.671;-23.842;-48.429;-34.235;-12.070;-4.396;-6.929;-3.427
2339236.374;-36.508;-27.493;-52.303;-37.141;-14.752;-16.913;-19.260;-16.131
2339236.382;-42.617;-33.155;-59.493;-41.761;-21.495;-27.157;-27.977;-27.046
2339236.390;-43.921;-34.831;-62.287;-43.474;-24.252;-26.412;-25.220;-26.003
2339236.398;-41.761;-33.155;-60.685;-41.723;-22.091;-25.220;-23.097;-23.916
2339236.406;-36.061;-28.312;-55.283;-37.141;-16.131;-19.036;-16.913;-16.838
2339236.414;-36.396;-30.212;-55.358;-39.525;-16.168;-17.025;-16.652;-15.125
2339236.422;-31.814;-25.928;-51.334;-34.980;-11.735;-7.711;-8.978;-8.568
2339236.430;-33.341;-27.083;-53.681;-35.353;-12.852;-3.614;-4.359;-7.078
2339236.438;-38.743;-32.410;-59.418;-40.494;-18.142;-7.711;-7.562;-9.425
2339236.446;-40.233;-34.198;-61.207;-42.357;-19.111;-15.050;-13.784;-16.354
2339236.454;-27.232;-20.638;-49.360;-30.063;-6.184;-10.394;-8.233;-11.101
2339236.462;-17.770;-12.480;-41.276;-21.122;1.378;-4.545;-3.017;-6.743
2339236.470;-18.999;-11.399;-44.629;-23.134;-0.224;-2.868;-0.782;-7.004
2339236.478;-18.775;-9.462;-46.231;-24.624;1.155;-1.155;2.123;-6.929
2339236.517;-19.073;-10.729;-46.939;-25.555;-1.043;-3.614;0.410;-9.574
2339236.525;-18.626;-11.548;-46.790;-24.736;2.421;-2.272;1.192;-5.849
2339236.533;-28.573;-22.389;-55.619;-36.582;0.522;-14.231;-10.058;-16.429
2339236.541;-30.771;-23.805;-56.438;-37.737;-2.719;-13.970;-10.207;-12.778
2339236.549;-34.422;-26.636;-60.685;-40.047;-10.915;-14.268;-11.586;-12.778
2339236.557;-30.249;-23.730;-54.576;-38.184;-1.416;-9.909;-7.898;-9.723
2339236.565;-29.057;-22.016;-51.595;-35.651;1.751;-9.239;-7.339;-8.382
2339236.573;-25.257;-17.844;-46.976;-30.100;6.519;-5.662;-3.725;-4.396
2339236.581;-19.036;-11.735;-37.737;-24.773;14.864;-0.186;1.565;0.112
2339236.589;-24.587;-15.609;-43.437;-27.977;4.806;-5.625;-3.166;-7.525
2339236.597;-27.418;-19.185;-44.443;-31.963;3.465;-7.227;-7.264;-9.462
2339236.605;-23.358;-14.491;-40.382;-25.295;4.321;0.857;1.006;-3.688
2339236.613;-22.016;-12.368;-37.476;-22.799;5.811;2.831;3.949;-1.825
2339236.621;-15.348;-5.439;-29.281;-15.944;10.468;5.290;6.482;0.149
2339236.629;-20.042;-10.170;-35.353;-20.303;-1.490;-0.782;-1.267;-4.582
2339236.637;-23.730;-13.821;-39.898;-24.252;-8.941;-6.221;-7.860;-8.605
2339236.645;-19.744;-9.947;-34.273;-20.117;-3.837;1.714;-1.527;0.075
2339236.653;-28.238;-17.062;-43.511;-27.791;-20.936;-3.427;-7.972;-3.912
2339236.661;-27.493;-19.297;-41.611;-32.559;-20.862;-5.364;-10.915;-5.439
2339236.669;-25.779;-19.409;-40.233;-32.894;-21.309;-6.631;-11.250;-6.892
2339236.677;-27.567;-22.538;-43.288;-35.204;-27.418;-7.488;-10.841;-8.158
2339236.685;-26.003;-20.973;-42.692;-30.845;-31.628;-5.253;-4.806;-7.711
2339236.693;-19.670;-12.256;-38.818;-24.736;-33.528;-2.943;-3.316;-5.476
2339236.701;-18.328;-11.362;-38.035;-23.693;-33.155;-0.559;-1.937;-2.496
2339236.712;-18.813;-11.437;-39.749;-22.389;-36.806;3.166;2.310;-1.453
2339236.720;-23.432;-16.280;-45.151;-25.965;-44.070;5.215;3.986;-2.198
2339236.728;-31.181;-24.922;-53.495;-33.751;-55.023;3.912;3.241;-7.227
2339236.736;-23.060;-17.472;-46.678;-25.965;-47.199;13.635;14.193;-0.075
2339236.744;-20.005;-15.907;-45.523;-25.108;-49.658;18.366;17.174;6.184
2339236.752;-21.309;-17.658;-49.099;-26.785;-55.470;16.540;14.193;6.594
2339236.760;-27.530;-24.177;-54.650;-33.081;-60.834;11.623;8.680;4.284
2339236.768;-28.946;-26.450;-55.805;-35.018;-63.255;10.617;8.903;3.017
2339236.776;-25.965;-24.252;-51.707;-34.049;-57.705;10.431;7.115;4.955
2339236.784;-23.432;-19.148;-50.589;-29.169;-56.401;10.505;6.072;5.066
2339236.792;-32.894;-30.249;-59.158;-38.780;-62.957;3.241;-1.192;-2.012
2339236.800;-34.943;-32.149;-58.785;-42.133;-60.499;1.006;-3.539;-3.204
2339236.808;-33.267;-28.647;-58.375;-39.004;-58.599;-0.708;-3.651;-7.264
2339236.816;-27.940;-22.873;-53.234;-31.441;-50.962;1.304;-0.596;-5.104
2339236.824;-15.721;-11.288;-39.861;-20.787;-36.024;7.674;5.476;2.347
2339236.832;-25.332;-21.569;-51.111;-31.665;-51.036;-1.825;-6.892;-5.960
2339236.840;-27.381;-22.464;-55.172;-32.075;-55.991;-0.037;-6.780;-5.327
2339236.848;-25.593;-20.862;-53.160;-28.834;-53.681;1.751;-2.719;-5.066
2339236.856;-25.332;-21.271;-51.893;-29.691;-53.160;-0.559;-5.104;-6.780
2339236.864;-15.795;-11.660;-41.910;-19.148;-44.107;4.992;1.080;-0.410
2339236.872;-11.958;-10.617;-38.743;-14.827;-41.649;3.539;-0.298;0.112
2339236.880;-7.898;-3.912;-36.173;-8.903;-42.357;-2.012;-4.992;-5.439
2339236.888;-1.378;4.545;-30.547;-0.708;-39.712;-3.949;-6.855;-7.376
2339236.896;20.154;26.971;-9.760;24.289;-20.899;6.519;3.092;3.427
2339236.863;40.047;46.492;10.319;45.523;-1.602;15.274;11.846;11.884
2339236.871;50.925;57.220;20.973;56.140;7.749;20.117;15.944;15.609
2339236.879;63.516;68.173;35.129;67.912;21.085;19.670;16.987;12.070
2339236.887;65.677;69.514;37.588;70.669;20.862;10.617;6.370;4.582
2339236.895;64.522;67.875;36.731;69.737;20.191;3.502;0.075;-2.645
2339236.903;62.063;66.608;35.539;69.328;22.240;0.782;-1.192;-4.992
2339236.911;62.324;66.794;34.235;70.408;21.048;-1.229;-0.633;-7.190
2339236.919;67.726;74.767;38.035;73.798;29.169;3.241;5.998;-1.974
2339236.927;59.903;64.708;30.771;60.722;27.642;0.186;0.969;-3.055
2339236.935;55.768;59.903;27.120;55.358;28.014;1.639;1.118;-1.453
2339236.943;42.096;46.678;12.107;41.127;13.337;-2.682;-5.849;-4.843
2339236.951;34.757;37.812;4.843;31.106;9.537;-0.596;-5.364;-1.900
2339236.959;14.454;16.838;-14.938;11.884;-7.749;-10.692;-13.374;-11.846
2339236.967;7.525;12.144;-23.022;7.749;-14.529;-10.021;-11.213;-14.193
2339236.975;11.623;15.721;-19.968;10.952;-9.462;-2.943;-3.465;-8.643
2339236.983;6.072;6.147;-22.538;0.708;-4.992;-3.837;-4.880;-7.264
2339236.991;-8.084;-7.711;-37.178;-12.815;-18.701;-9.984;-10.394;-13.113
2339236.999;-9.611;-8.382;-38.967;-12.517;-18.999;-3.800;-3.539;-8.121
2339237.007;-3.129;-1.267;-33.304;-4.955;-11.884;7.898;8.009;1.937
2339237.015;-3.763;-1.416;-34.422;-6.706;-11.437;8.456;7.600;1.341
2339237.023;-11.846;-10.841;-42.878;-15.646;-21.160;1.378;-0.745;-5.886
2339237.031;-7.413;-6.333;-39.414;-12.629;-16.391;3.502;1.974;-4.806
2339237.039;-2.719;-3.502;-33.341;-11.213;-5.402;7.898;6.370;-1.639
2339237.047;-15.274;-17.472;-45.523;-25.891;-19.632;-0.559;-3.651;-8.754
2339237.043;-8.717;-12.778;-40.606;-22.016;-13.858;-3.241;-7.749;-10.468
2339237.051;4.582;0.633;-28.089;-8.754;0.857;7.078;2.719;0.745
2339237.059;2.049;-0.782;-31.739;-9.872;-4.806;10.952;7.488;4.582
2339237.067;-9.686;-12.331;-42.915;-22.352;-18.552;3.204;1.788;-2.906
2339237.075;-8.941;-11.846;-41.090;-21.085;-14.976;7.637;7.786;0.075
2339237.083;-14.603;-17.658;-47.460;-26.189;-18.328;4.470;2.794;-2.123
2339237.091;-20.899;-22.724;-54.762;-33.751;-26.077;1.751;-0.894;-3.539
2339237.099;-19.260;-21.197;-53.085;-29.281;-23.395;5.215;3.837;-1.229
2339237.107;-11.884;-14.268;-44.852;-21.569;-13.933;9.164;5.849;3.502
2339237.115;-17.248;-22.762;-49.099;-31.628;-16.727;1.788;-2.794;-1.304
2339237.123;-22.836;-27.455;-55.917;-36.359;-26.450;-6.445;-10.058;-9.127
2339237.131;-16.019;-19.260;-49.286;-28.573;-19.185;-3.912;-5.998;-6.109
2339237.139;-12.666;-16.801;-45.411;-26.003;-14.082;-0.335;-1.639;-3.725
2339237.147;-9.947;-14.082;-43.400;-22.836;-14.603;6.594;4.582;2.123
2339237.155;-19.222;-25.295;-52.601;-33.639;-21.867;-1.974;-4.768;-4.843
2339237.163;-20.899;-26.934;-55.321;-36.247;-23.097;-7.153;-8.754;-9.947
2339237.171;-11.623;-16.615;-46.864;-27.567;-13.188;-1.639;-3.986;-5.141
2339237.179;-12.293;-17.248;-47.684;-28.312;-13.411;-2.384;-5.364;-5.290
2339237.187;-11.735;-16.578;-47.348;-28.312;-9.723;-0.633;-3.986;-3.688
2339237.195;-16.019;-19.521;-51.968;-31.628;-14.007;-3.614;-5.886;-6.184
2339237.203;-23.916;-26.524;-60.648;-37.998;-22.948;-7.525;-9.201;-9.649
2339237.211;-25.891;-28.536;-62.399;-42.133;-21.234;-6.296;-8.941;-10.245
2339237.219;-22.613;-25.406;-57.071;-41.798;-11.586;-2.198;-4.508;-6.184
2339237.227;-16.391;-18.701;-47.944;-35.614;1.490;4.470;2.012;0.522
2339237.239;-23.209;-24.587;-54.874;-40.606;-9.984;-0.484;-3.055;-2.049
2339237.247;-23.767;-24.997;-54.389;-41.313;-11.064;-5.104;-6.929;-7.004
2339237.255;-20.303;-19.595;-48.764;-34.049;-7.227;2.086;0.857;-2.533
2339237.263;-14.491;-14.715;-38.780;-29.057;6.594;4.135;3.912;-3.241
2339237.271;-11.399;-11.176;-35.428;-26.561;6.035;4.582;3.688;-3.241
2339237.279;-12.144;-12.331;-35.986;-27.828;1.229;3.129;0.969;-5.662
