Timestamp,AFz,AF3,AF4,AF7,AF8,Pz,P3,P4,2024-04-10 12:44:26.974,fs=125
2338183.326;-41.053;-13.448;-48.205;-19.819;-20.973;-2.384;3.912;-5.774
2338183.334;-38.035;-9.499;-44.182;-16.429;-15.274;-1.118;7.451;-8.568
2338183.342;-29.430;-2.384;-35.390;-10.766;-4.917;3.353;12.405;-5.476
2338183.350;-29.802;-3.316;-35.800;-11.697;-6.333;4.619;12.182;-2.868
2338183.358;-33.714;-6.966;-40.084;-15.162;-11.437;4.768;8.568;-1.751
2338183.366;-31.516;-3.688;-38.780;-10.803;-11.437;5.327;6.519;-1.863
2338183.374;-17.993;9.276;-24.550;3.390;2.794;14.082;15.050;7.562
2338183.382;-16.242;9.611;-21.458;5.700;6.929;15.721;17.397;10.952
2338183.390;-23.581;1.714;-29.430;-1.863;-0.633;3.912;4.098;2.757
2338183.398;-25.146;-1.527;-30.436;-6.482;-1.192;2.757;1.639;5.402
2338183.406;-34.869;-11.474;-39.786;-17.099;-11.213;2.198;0.708;7.488
2338183.414;-38.147;-15.236;-42.021;-21.346;-14.529;-4.284;-2.794;1.602
2338183.422;-34.682;-11.735;-40.419;-17.472;-14.082;-9.499;-6.072;-6.333
2338183.430;-29.355;-5.327;-38.929;-11.697;-11.027;-4.098;1.080;-5.402
2338183.438;-31.628;-5.998;-46.268;-13.150;-14.901;2.049;7.898;-3.763
2338183.446;-32.410;-5.066;-52.825;-12.480;-17.472;6.594;11.362;-2.012
2338183.454;-34.533;-6.780;-59.195;-15.758;-19.185;5.104;8.345;-4.433
2338183.462;-27.753;-2.347;-55.395;-12.442;-10.319;5.029;7.153;-5.178
2338183.470;-24.177;0.894;-55.656;-9.499;-8.047;6.184;9.760;-4.806
2338183.478;-22.165;3.390;-55.321;-6.557;-5.923;5.402;9.350;-3.837
2338183.486;-25.183;1.304;-58.860;-10.766;-6.147;1.751;4.470;-3.278
2338183.494;-25.034;4.135;-59.903;-8.158;-4.657;9.798;13.523;5.215
2338183.502;-21.122;9.052;-55.768;-2.347;0.559;14.789;19.558;9.611
2338183.510;-24.103;5.923;-59.605;-5.253;-4.992;15.870;21.681;8.568
2338183.550;-35.800;-7.972;-69.737;-20.713;-16.019;9.164;14.901;-0.298
2338183.558;-34.049;-6.258;-66.049;-18.030;-12.442;9.425;13.709;0.075
2338183.566;-30.175;-1.006;-63.032;-11.958;-13.858;9.909;11.846;1.155
2338183.574;-32.224;-3.278;-62.399;-15.683;-12.070;11.325;12.554;1.937
2338183.582;-26.971;0.857;-55.246;-9.984;-3.725;7.711;9.090;-1.006
2338183.590;-31.516;-4.359;-59.716;-14.901;-8.717;4.210;6.370;-5.998
2338183.598;-26.934;0.112;-55.693;-11.437;-4.731;4.508;4.731;-1.714
2338183.606;-36.620;-9.052;-63.479;-20.824;-12.070;-1.192;-5.290;-0.522
2338183.614;-42.282;-14.864;-68.396;-26.189;-17.062;0.298;-6.333;1.602
2338183.622;-32.149;-4.061;-58.711;-13.746;-7.786;9.239;5.402;7.413
2338183.630;-24.885;3.725;-52.340;-3.129;-2.645;14.305;15.050;8.568
2338183.638;-30.883;-3.166;-57.556;-9.649;-5.439;7.637;8.792;0.894
2338183.646;-27.716;0.484;-53.160;-6.780;-3.316;8.382;8.978;2.459
2338183.654;-23.767;3.278;-48.168;-5.327;1.974;13.076;12.405;7.115
2338183.662;-17.397;7.302;-41.462;-0.037;8.792;1.267;1.080;-3.874
2338183.670;-23.246;1.900;-48.019;-6.445;1.863;-1.751;-0.186;-8.531
2338183.678;-19.409;5.588;-44.405;-2.868;3.614;7.898;10.021;-3.166
2338183.686;-23.767;0.224;-47.721;-7.339;-0.671;6.296;5.811;-4.657
2338183.694;-27.865;-4.210;-50.738;-14.044;-0.894;9.164;3.837;4.843
2338183.702;-32.708;-7.711;-63.740;-16.876;-6.445;5.811;0.820;6.743
2338183.710;-35.241;-10.505;-73.984;-19.148;-7.711;3.241;0.782;3.204
2338183.718;-42.543;-18.291;-84.862;-26.934;-16.578;0.596;2.161;-1.341
2338183.726;-48.764;-24.512;-94.399;-33.081;-24.810;-2.459;0.261;-4.470
2338183.734;-48.690;-24.550;-94.101;-33.155;-21.420;-3.465;-1.751;-5.364
2338183.747;-50.701;-25.257;-98.459;-33.304;-27.120;-9.499;-7.004;-12.070
2338183.755;-42.655;-16.131;-92.275;-24.214;-20.117;-3.651;0.782;-7.637
2338183.763;-32.634;-6.631;-82.739;-14.044;-10.096;3.129;9.201;-3.241
2338183.771;-34.198;-8.345;-85.309;-15.162;-13.635;1.602;7.488;-7.264
2338183.779;-33.528;-6.892;-84.899;-13.448;-13.337;8.158;11.139;-2.235
2338183.787;-27.493;-2.086;-80.764;-9.127;-9.984;16.838;16.019;7.935
2338183.795;-28.647;-4.992;-79.162;-13.858;-5.476;16.801;12.331;12.070
2338183.803;-36.694;-11.921;-86.762;-21.569;-12.554;13.262;9.499;11.995
2338183.811;-35.763;-11.027;-87.433;-20.117;-15.348;7.451;7.413;7.227
2338183.819;-33.081;-10.133;-85.011;-19.297;-11.958;9.201;11.809;8.829
2338183.827;-32.559;-9.052;-85.309;-15.981;-13.821;6.407;10.543;6.482
2338183.835;-41.351;-18.738;-94.473;-25.891;-23.134;-4.619;-2.459;-3.576
2338183.843;-48.392;-25.667;-101.589;-32.559;-29.989;-12.070;-10.133;-10.952
2338183.851;-46.380;-23.395;-98.459;-31.739;-24.512;-14.119;-12.666;-13.672
2338183.859;-36.955;-15.013;-89.146;-23.469;-16.280;-10.841;-8.941;-10.468
2338183.867;-40.233;-20.787;-92.052;-28.796;-17.807;-16.503;-15.125;-14.268
2338183.875;-34.198;-15.125;-87.172;-22.985;-13.858;-6.668;-6.333;-3.614
2338183.883;-27.120;-4.172;-81.286;-14.231;-6.966;0.261;-0.522;2.682
2338183.891;-24.661;-1.974;-79.907;-10.543;-9.201;4.359;5.402;4.061
2338183.899;-24.810;-2.198;-80.392;-9.872;-10.170;4.619;7.078;4.806
2338183.907;-27.157;-4.694;-83.335;-11.250;-12.890;-2.459;0.894;-2.235
2338183.915;-22.054;0.075;-79.609;-5.811;-11.139;-3.539;1.006;-3.651
2338183.923;-25.108;-2.645;-83.335;-7.153;-17.360;-3.465;0.782;-4.880
2338183.931;-35.763;-13.709;-92.015;-19.111;-22.538;-2.868;-0.820;-5.588
2338184.045;-26.338;-4.545;-81.435;-9.127;-12.852;5.476;7.227;1.900
2338184.053;-24.997;-3.166;-80.951;-7.898;-14.491;5.253;5.849;0.782
2338184.061;-21.458;-0.037;-78.008;-5.327;-10.282;5.998;8.121;-1.267
2338184.069;-8.084;13.113;-64.000;8.419;4.023;9.537;11.958;4.061
2338184.077;-14.789;7.190;-70.184;2.421;-3.017;2.608;3.539;-2.123
2338184.085;-25.854;-4.061;-80.988;-8.531;-14.976;0.894;1.080;-5.737
2338184.093;-20.340;1.006;-75.251;-2.868;-10.841;8.941;10.543;2.608
2338184.101;-22.464;-3.725;-75.139;-6.147;-9.723;10.319;12.591;6.184
2338184.109;-15.646;3.614;-69.328;-0.037;-3.390;8.717;10.356;7.004
2338184.117;-17.583;1.565;-72.457;-0.894;-7.711;0.857;1.676;-1.602
2338184.125;-14.268;3.465;-68.359;1.863;-3.241;1.118;3.017;-1.416
2338184.133;-11.548;5.253;-65.193;3.502;0.410;-1.863;-0.037;-2.608
2338184.141;-18.068;-0.931;-71.861;-3.353;-7.227;-6.929;-5.104;-5.625
2338184.149;-28.349;-12.107;-80.355;-14.566;-15.721;-13.821;-11.697;-9.909
2338184.157;-19.409;-4.284;-70.594;-4.917;-6.258;-14.678;-11.958;-9.984
2338184.165;-16.540;-0.633;-69.030;0.075;-6.072;-15.087;-10.282;-13.448
2338184.173;-20.899;-3.800;-75.214;-1.676;-13.039;-13.076;-7.488;-15.311
2338184.181;-8.903;8.792;-62.548;11.809;-2.496;-4.582;0.373;-10.394
2338184.189;-9.350;7.488;-61.803;9.723;-3.576;3.278;6.780;-4.172
2338184.197;-21.309;-5.178;-72.382;-4.508;-13.821;1.378;3.166;-5.066
2338184.205;-14.827;1.863;-65.900;5.066;-7.674;1.900;2.719;-2.086
2338184.213;-26.412;-8.866;-77.970;-5.588;-20.452;-10.915;-9.760;-13.933
2338184.221;-34.608;-17.658;-84.564;-16.689;-24.103;-18.924;-17.770;-20.079
2338184.229;-14.156;1.453;-64.075;1.453;-2.049;-13.150;-11.437;-12.591
2338184.301;-18.142;-3.763;-69.961;-6.333;-5.476;-14.715;-13.337;-12.964
2338184.309;-29.095;-14.417;-84.862;-18.701;-17.099;-18.701;-14.640;-16.093
2338184.317;-15.981;-0.894;-76.406;-6.221;-5.215;-12.852;-4.917;-12.517
2338184.325;-9.537;6.072;-74.841;0.969;-1.341;0.410;9.947;-5.625
2338184.333;-5.811;9.649;-74.133;2.868;1.900;14.193;22.128;3.502
2338184.341;-4.098;11.437;-74.618;2.719;-0.298;19.521;26.524;8.307
2338184.349;-16.950;0.037;-89.370;-10.021;-11.511;8.792;15.050;0.112
2338184.357;-26.487;-7.711;-96.783;-18.254;-12.144;1.453;4.396;-4.433
2338184.365;-18.440;1.229;-88.625;-9.090;-4.321;8.531;9.462;6.147
2338184.373;-23.693;-4.731;-93.393;-16.429;-7.525;-1.676;-2.235;-0.037
2338184.381;-30.547;-11.958;-100.508;-24.065;-15.385;-16.913;-17.844;-13.858
2338184.389;-18.477;-0.149;-86.762;-11.325;-3.166;-19.483;-18.515;-16.838
2338184.397;-18.664;-0.708;-86.166;-9.984;-4.061;-17.434;-14.640;-14.976
2338184.405;-9.462;9.239;-76.406;-0.969;6.221;-9.313;-3.390;-9.127
2338184.413;-4.992;15.199;-72.084;3.241;7.302;4.023;11.623;0.559
2338184.421;1.527;21.085;-64.112;8.866;15.795;13.895;20.228;7.339
2338184.429;-2.980;17.770;-67.912;6.147;11.921;15.907;19.222;9.239
2338184.437;-1.825;19.297;-65.379;7.413;14.119;18.887;19.558;13.858
2338184.445;-14.231;5.923;-77.374;-6.519;2.198;7.786;7.823;5.029
2338184.453;-20.862;-2.198;-82.441;-14.678;-1.192;2.347;1.900;2.868
2338184.461;-14.566;3.912;-74.059;-8.494;8.717;8.903;7.898;9.835
2338184.469;-19.483;-0.075;-80.280;-12.293;1.416;5.066;3.874;5.178
2338184.477;-20.228;0.708;-80.541;-11.511;1.527;-4.172;-3.166;-3.204
2338184.485;-22.016;0.037;-81.249;-11.995;1.602;-5.513;-3.278;-2.980
2338184.508;-30.994;-9.350;-90.040;-20.303;-10.580;-9.462;-4.619;-8.047
2338184.516;-22.538;-2.496;-78.715;-14.007;0.894;-3.390;4.806;-4.619
2338184.524;-12.927;7.041;-69.663;-2.831;8.643;8.084;17.062;3.092
2338184.532;-13.374;4.172;-69.141;-4.470;8.978;10.394;17.211;5.066
2338184.540;-7.935;11.399;-63.442;-0.969;13.970;11.437;14.678;8.233
2338184.548;-13.597;4.359;-68.657;-7.935;11.213;14.193;15.534;12.293
2338184.556;-12.703;4.359;-67.241;-9.276;12.368;11.809;11.548;11.027
2338184.564;-8.345;8.754;-61.989;-5.402;19.893;9.425;9.760;8.754
2338184.572;-4.880;11.027;-59.865;-3.725;21.420;8.382;7.749;9.164
2338184.580;-10.431;4.917;-66.236;-10.245;16.801;9.052;7.600;10.170
2338184.588;-15.050;0.820;-71.600;-13.337;11.846;8.456;6.557;9.499
2338184.596;-19.185;-3.763;-76.443;-19.185;9.835;9.574;7.637;9.350
2338184.604;-18.403;-3.204;-76.927;-19.185;8.270;12.778;14.007;9.239
2338184.612;-11.139;4.582;-69.141;-11.474;16.801;18.291;23.209;12.591
2338184.620;-9.276;5.141;-66.012;-10.505;20.228;17.732;23.581;11.064
2338184.628;-8.717;5.104;-63.591;-11.027;21.681;10.803;13.895;7.302
2338184.636;-16.093;0.335;-73.127;-14.827;10.394;2.645;4.806;0.708
2338184.644;-20.750;-3.986;-76.741;-19.185;8.680;4.545;4.210;3.316
2338184.652;-19.446;-4.396;-74.916;-20.042;9.574;7.041;5.104;5.290
2338184.660;-14.938;-0.596;-69.439;-16.913;16.652;15.944;11.697;12.778
2338184.668;-6.445;7.972;-61.318;-7.488;22.464;15.907;12.890;10.654
2338184.676;-5.588;10.952;-63.293;-3.129;19.185;11.958;13.262;6.519
2338184.684;-11.027;4.843;-67.018;-9.835;16.652;15.311;20.750;8.009
2338184.692;-4.657;9.201;-59.865;-4.545;21.681;15.274;21.830;8.345
2338184.690;-4.657;10.431;-60.014;-6.929;21.011;19.372;23.060;12.517
2338184.698;-10.356;2.682;-64.075;-13.374;17.397;18.850;19.111;13.895
2338184.706;-13.858;-2.198;-66.608;-16.950;14.678;14.827;13.374;10.654
2338184.714;-18.589;-7.525;-70.594;-21.122;11.437;10.207;7.451;7.413
2338184.722;-23.171;-12.666;-73.873;-26.226;8.866;2.459;-0.931;1.788
2338184.730;-24.475;-15.311;-74.282;-29.132;6.855;-0.671;-3.278;-1.267
2338184.738;-21.718;-13.299;-70.855;-27.157;9.239;1.639;-1.192;1.788
2338184.746;-15.087;-7.749;-62.361;-21.420;19.372;7.264;3.092;7.413
2338184.754;-17.881;-9.164;-64.820;-21.942;13.933;10.692;7.786;7.972
2338184.762;-22.501;-12.107;-70.184;-23.507;7.711;14.007;12.815;7.004
2338184.770;-30.361;-20.191;-77.374;-31.255;-0.820;14.193;11.958;5.551
2338184.778;-22.538;-11.772;-69.067;-21.830;4.843;16.801;13.858;7.637
2338184.786;-21.979;-13.523;-67.838;-23.767;6.594;17.099;13.113;9.537
2338184.794;-30.100;-22.650;-74.580;-33.379;0.671;14.901;10.394;9.164
2338184.802;-22.836;-14.268;-68.210;-23.842;5.439;16.838;14.342;11.735
2338184.810;-34.347;-25.444;-78.753;-34.682;-3.651;7.860;5.476;3.204
2338184.818;-37.588;-29.951;-80.131;-40.419;-6.184;-0.522;-1.863;-3.986
2338184.826;-27.679;-20.564;-70.855;-31.404;1.527;1.229;0.410;-1.751
2338184.834;-29.542;-25.965;-72.047;-36.806;1.304;2.086;0.484;-1.155
2338184.842;-23.991;-18.850;-67.651;-31.367;5.290;7.078;5.923;2.794
2338184.850;-23.767;-17.434;-67.987;-28.275;3.688;6.706;7.711;1.490
2338184.858;-31.069;-24.363;-75.437;-34.049;-4.433;2.868;6.258;-3.129
2338184.866;-26.114;-19.930;-69.812;-28.573;0.522;3.278;6.445;-2.310
2338184.874;-25.257;-20.154;-66.310;-29.318;4.284;5.513;5.253;2.198
2338184.945;-27.828;-24.177;-67.838;-33.677;1.192;-2.161;-4.843;-2.794
2338184.953;-27.046;-23.879;-67.540;-32.112;1.974;-5.327;-8.941;-4.284
2338184.961;-26.226;-23.618;-65.565;-32.745;4.917;-3.278;-6.407;-1.490
2338184.969;-23.507;-21.979;-61.765;-31.926;6.855;-11.623;-11.586;-8.643
2338184.977;-16.131;-15.087;-54.426;-25.779;12.740;-11.399;-7.786;-9.127
2338184.985;-8.196;-6.929;-45.635;-16.689;21.979;-6.668;-3.465;-4.917
2338184.993;-6.184;-5.662;-42.431;-14.752;27.679;-1.676;1.751;-2.645
2338185.001;-8.903;-7.302;-46.417;-16.056;20.973;-1.118;4.768;-6.109
2338185.009;-16.838;-14.044;-54.799;-21.383;11.511;1.714;8.903;-7.078
2338185.017;-15.981;-13.597;-50.552;-21.830;15.423;1.378;7.600;-6.668
2338185.025;-6.221;-4.359;-40.010;-10.729;24.736;8.382;12.219;3.241
2338185.033;-8.568;-7.525;-42.804;-12.852;18.291;9.462;12.144;5.253
2338185.041;-19.111;-15.870;-53.756;-23.842;5.625;-2.272;-1.043;-5.662
2338185.049;-13.597;-11.660;-48.578;-18.887;10.505;-1.043;0.224;-3.465
2338185.057;-15.236;-13.337;-50.329;-19.409;8.456;-3.353;-1.006;-6.035
2338185.065;-21.607;-19.781;-54.687;-25.481;7.302;-7.302;-4.508;-8.941
2338185.073;-28.014;-26.897;-59.865;-32.149;-0.708;-17.621;-13.076;-18.403
2338185.081;-23.656;-24.252;-54.166;-29.579;5.290;-20.154;-13.784;-21.495
2338185.089;-23.767;-26.450;-53.346;-33.118;4.694;-14.566;-7.935;-17.397
2338185.097;-14.566;-17.062;-45.151;-22.389;9.164;-14.119;-7.935;-18.328
2338185.105;-13.933;-14.603;-43.809;-18.999;8.382;-12.778;-6.743;-18.440
2338185.113;-17.248;-17.956;-46.343;-23.879;6.482;-9.052;-3.949;-14.752
2338185.121;-9.164;-11.660;-36.769;-19.148;16.615;1.192;2.868;-2.123
2338185.129;-9.015;-12.554;-36.769;-20.899;14.342;-5.029;-5.700;-4.619
2338185.142;-22.203;-24.103;-48.913;-31.702;0.782;-14.827;-17.434;-11.176
2338185.150;-25.369;-26.226;-49.844;-33.565;0.410;-11.735;-14.678;-7.264
2338185.158;-17.956;-17.472;-42.394;-23.171;3.986;-15.050;-15.311;-12.070
2338185.166;-12.256;-12.144;-38.669;-17.472;6.072;-12.442;-10.282;-13.523
2338185.174;-4.582;-5.886;-30.063;-10.282;14.156;-8.047;-1.416;-14.268
2338185.182;0.335;-0.522;-24.699;-4.582;17.323;-2.384;7.786;-13.039
2338185.190;-2.012;-3.465;-25.891;-9.350;16.466;1.155;9.686;-10.543
2338185.198;-13.225;-16.131;-36.024;-20.564;6.333;-1.639;5.327;-10.133
2338185.206;-7.339;-10.394;-28.387;-13.262;12.591;-1.341;5.551;-6.966
2338185.214;1.416;-1.155;-19.856;-4.694;16.615;-0.782;3.837;-2.868
2338185.222;-8.829;-12.331;-29.802;-18.552;6.966;-5.998;-2.645;-7.339
2338185.230;-9.537;-14.603;-28.163;-22.203;10.394;-6.370;-5.327;-5.364
2338185.238;2.272;-2.980;-15.870;-11.511;19.409;-6.817;-6.557;-4.992
2338185.246;-0.969;-6.519;-19.781;-14.231;13.635;-13.374;-11.586;-11.213
2338185.254;0.447;-4.545;-19.148;-11.288;13.523;-15.572;-11.362;-15.162
2338185.262;-7.600;-13.150;-26.450;-20.117;4.619;-16.578;-10.841;-17.993
2338185.270;-14.342;-22.054;-30.883;-28.946;3.316;-9.686;-1.155;-13.150
2338185.278;-16.131;-24.885;-30.920;-30.696;2.570;-6.929;1.639;-14.454
2338185.286;-22.538;-28.089;-38.669;-35.092;-7.376;-9.425;-2.533;-15.795
2338185.294;-18.738;-25.555;-35.651;-32.187;-2.347;-10.878;-4.657;-13.560
2338185.302;-17.211;-25.071;-35.092;-30.920;-0.186;-13.523;-7.637;-12.815
2338185.310;-20.303;-27.828;-41.239;-34.422;-4.284;-15.609;-10.803;-13.374
2338185.318;-22.836;-28.647;-48.019;-35.502;-6.706;-12.964;-9.611;-10.878
2338185.326;-27.902;-32.596;-57.481;-40.866;-10.990;-8.382;-6.743;-7.451
2338185.321;-21.830;-26.971;-52.191;-36.843;-1.192;-7.711;-6.929;-6.557
2338185.329;-24.065;-29.914;-57.630;-40.047;-6.035;-14.976;-13.225;-13.858
2338185.337;-18.105;-21.905;-53.979;-32.894;-1.043;-11.176;-7.339;-11.437
2338185.345;-10.319;-13.709;-46.864;-26.003;9.649;-2.272;4.210;-3.465
2338185.353;-19.222;-20.899;-56.885;-32.634;-1.974;-5.215;5.960;-8.531
2338185.361;-27.083;-27.381;-63.218;-38.967;-7.525;-3.502;9.462;-8.009
2338185.369;-23.767;-24.624;-59.120;-36.992;-4.321;1.006;11.697;-4.582
2338185.377;-21.793;-24.177;-56.438;-36.620;-2.459;-1.155;6.706;-7.302
2338185.385;-21.197;-23.469;-54.352;-35.167;0.037;-1.639;5.960;-7.413
2338185.393;-30.100;-31.963;-63.330;-42.878;-12.033;0.149;4.768;-4.694
2338185.401;-25.705;-27.865;-58.077;-38.780;-6.333;1.006;3.986;-0.633
2338185.409;-24.475;-25.406;-55.619;-35.241;-5.364;-1.974;1.565;-0.894
2338185.417;-18.477;-18.105;-47.982;-27.567;1.900;4.843;7.041;4.433
2338185.425;-17.881;-17.472;-48.466;-26.971;2.421;5.551;8.605;1.192
2338185.433;-10.245;-11.437;-39.861;-19.930;10.505;11.772;16.131;4.619
2338185.441;-12.591;-11.288;-41.910;-22.613;5.811;13.560;20.340;4.917
2338185.449;-14.901;-14.119;-44.145;-25.220;1.192;9.835;16.354;1.788
2338185.457;-6.855;-6.445;-35.241;-17.993;10.729;12.554;18.403;6.668
2338185.465;0.894;1.788;-26.040;-9.052;19.111;19.670;24.661;14.380
2338185.473;-5.811;-5.662;-31.516;-17.099;13.970;14.715;19.297;12.107
2338185.481;-15.870;-14.491;-40.978;-25.816;4.284;3.204;8.866;1.937
2338185.489;-11.474;-10.803;-35.316;-20.489;8.978;1.863;9.052;0.671
2338185.497;-10.319;-9.313;-34.012;-18.366;10.841;5.774;13.039;5.960
2338185.505;-14.566;-12.554;-38.184;-20.750;3.837;0.261;7.004;-0.037
2338185.484;-13.486;-11.697;-37.029;-20.564;3.912;-0.112;7.711;-1.714
2338185.492;-7.041;-4.359;-30.547;-14.454;10.990;8.196;15.609;4.955
2338185.500;-2.384;-0.894;-27.083;-11.735;14.864;15.274;20.489;12.070
2338185.508;-9.164;-8.605;-33.863;-19.222;10.282;4.172;8.307;3.055
2338185.516;-13.821;-14.417;-37.439;-26.934;7.078;3.129;7.153;2.868
2338185.524;-14.752;-16.987;-37.514;-29.802;6.594;1.676;5.513;2.794
2338185.532;-3.949;-6.966;-27.493;-20.079;18.403;5.215;7.935;8.196
2338185.540;-1.118;-3.278;-25.667;-16.056;19.707;4.694;8.196;8.829
2338185.548;-7.413;-7.376;-33.043;-18.999;11.474;4.955;8.978;6.966
2338185.556;-4.657;-6.445;-29.318;-16.876;17.770;10.990;15.795;9.872
2338185.564;-1.304;-1.155;-26.301;-12.219;20.117;13.262;18.887;9.686
2338185.572;-6.482;-5.513;-31.702;-19.073;15.721;17.360;22.464;11.250
2338185.580;-3.204;-2.645;-27.940;-15.907;19.595;20.824;25.742;14.715
2338185.588;3.800;4.172;-21.383;-7.935;23.395;22.464;25.965;17.472
2338185.596;1.937;0.708;-21.420;-11.586;23.842;18.552;21.681;16.019
2338185.604;-13.001;-14.938;-34.459;-28.536;9.835;-1.043;1.527;-1.192
2338185.612;-16.429;-19.297;-38.035;-33.230;6.221;-4.508;-1.788;-2.906
2338185.620;-11.735;-14.864;-34.310;-27.865;8.754;-4.955;-1.825;-2.682
2338185.628;-8.866;-12.144;-31.739;-25.369;12.368;-3.837;-1.714;0.186
2338185.636;-9.947;-12.554;-34.086;-25.518;8.382;-0.112;1.155;3.055
2338185.644;-8.941;-11.176;-33.863;-22.948;8.196;0.596;1.714;1.788
2338185.652;1.192;-1.602;-23.656;-12.517;19.819;10.058;12.591;10.096
2338185.660;-0.224;-2.496;-23.432;-13.299;20.042;11.064;14.938;9.052
2338185.668;-9.201;-10.915;-32.298;-22.054;7.786;7.711;12.033;4.247
2338185.652;-14.044;-16.801;-35.428;-28.349;1.974;8.270;12.442;4.098
2338185.660;0.149;-2.459;-18.775;-13.709;20.452;20.452;25.854;16.131
2338185.668;-3.092;-4.731;-21.756;-13.933;18.254;10.468;16.578;6.817
2338185.676;-4.023;-5.364;-21.681;-12.778;19.744;8.233;14.156;4.955
2338185.684;-0.224;-1.900;-17.993;-8.643;23.358;11.101;16.801;8.382
2338185.692;-0.745;-2.347;-20.154;-8.643;19.036;12.964;19.483;8.345
2338185.700;-0.447;-3.166;-19.409;-9.127;19.036;13.970;21.681;8.494
2338185.708;2.608;-1.080;-13.895;-9.388;26.748;15.125;20.973;11.809
2338185.716;7.302;3.427;-9.872;-4.731;28.163;14.044;17.248;12.778
2338185.724;12.293;7.153;-4.694;-1.527;33.453;16.652;18.254;15.646
2338185.732;13.299;7.376;-3.055;-1.304;34.459;16.205;17.174;14.156
2338185.740;9.499;2.794;-5.625;-4.731;34.422;16.205;14.976;14.603
2338185.748;2.272;-4.880;-12.144;-10.952;27.269;13.039;10.207;12.368
2338185.756;7.376;1.900;-7.711;-1.974;30.398;10.990;9.872;10.058
2338185.764;8.158;2.757;-7.600;-0.447;30.287;12.703;13.262;11.586
2338185.772;10.654;5.364;-5.327;1.341;30.920;22.464;23.916;20.824
2338185.780;17.695;12.778;0.633;8.680;37.700;31.702;35.092;28.126
2338185.788;11.437;4.955;-3.651;-0.633;33.192;30.845;35.465;28.051
2338185.796;3.055;-3.390;-9.239;-8.643;27.008;18.030;23.395;14.603
2338185.804;10.133;5.551;-3.576;3.390;29.132;24.177;29.057;18.515
2338185.812;12.331;7.600;-1.378;7.339;32.037;31.143;34.682;25.481
2338185.820;2.570;-1.043;-10.096;-0.224;25.108;29.691;32.447;24.885
2338185.828;1.863;-3.278;-8.009;-2.012;27.269;22.016;22.724;19.148
2338185.836;7.115;2.198;-2.794;3.837;30.883;23.656;22.687;22.911
2338185.845;7.562;3.055;-1.863;4.545;30.734;18.105;16.838;18.775
2338185.853;7.711;1.304;-0.037;2.608;34.831;13.858;14.529;14.454
2338185.861;5.588;-0.745;-1.416;1.304;32.037;12.331;15.981;13.709
2338185.869;5.439;-0.373;-2.086;3.949;28.834;11.735;18.477;12.815
2338185.877;-6.706;-12.703;-13.821;-7.525;19.856;4.321;11.325;5.066
2338185.885;-6.407;-13.523;-13.113;-7.376;19.856;5.551;12.480;6.109
2338185.893;-1.118;-9.947;-7.153;-1.788;24.401;7.115;12.740;7.711
2338185.901;-1.378;-8.903;-5.551;-4.619;27.791;5.402;9.611;7.041
2338185.909;0.820;-7.749;-2.235;-4.694;30.510;4.098;5.476;7.451
2338185.917;6.221;-3.241;2.943;1.341;35.949;4.768;5.551;9.350
2338185.925;2.906;-6.333;-0.373;0.671;32.894;8.754;8.643;14.007
2338185.933;-5.551;-15.683;-5.476;-8.307;27.195;5.029;4.210;11.548
2338185.941;-3.353;-13.858;-1.937;-7.115;31.739;0.559;1.378;5.625
2338185.949;5.774;-4.247;6.929;2.533;39.116;5.811;7.786;8.792
2338185.957;11.548;0.633;13.039;7.562;44.182;9.835;13.113;10.617
2338185.965;6.482;-5.402;8.233;1.267;39.153;4.582;8.829;3.539
2338185.973;10.692;-1.341;12.293;5.923;42.170;1.602;7.190;2.608
2338185.981;11.064;-0.261;13.225;7.004;41.313;0.075;5.886;3.092
2338185.989;17.621;4.955;20.154;12.666;47.646;12.815;17.732;16.205
2338185.997;18.477;6.706;20.415;11.772;49.137;12.554;15.683;14.342
2338186.005;13.858;2.347;15.944;8.568;43.213;8.419;9.537;8.084
2338186.013;16.578;3.241;19.744;10.803;45.821;13.188;12.591;14.044
2338186.021;12.480;-1.118;15.236;6.631;39.749;14.454;13.188;15.572
2338186.029;14.231;2.496;16.503;12.182;39.451;14.342;14.901;14.119
2338186.071;8.792;-3.166;11.437;7.413;34.831;13.448;16.913;10.915
2338186.079;-0.224;-12.591;3.465;-1.155;26.189;5.104;11.623;1.714
2338186.087;10.692;-1.825;16.205;10.505;38.743;7.972;15.646;6.258
2338186.095;7.302;-6.594;14.342;5.551;35.688;5.700;11.213;6.482
2338186.103;-6.407;-20.936;2.384;-9.835;24.810;2.272;4.359;4.508
2338186.111;-10.803;-26.226;-0.559;-15.125;22.203;-2.235;-1.602;2.421
2338186.119;-6.817;-22.203;3.166;-10.654;24.848;-3.651;-3.986;2.682
2338186.127;-1.900;-16.764;5.886;-3.986;26.077;1.155;0.708;6.035
2338186.135;-2.757;-16.354;2.980;-4.023;26.561;-4.247;-3.055;-1.341
2338186.143;4.694;-9.127;7.115;1.639;30.585;1.825;5.327;2.906
2338186.151;10.394;-4.284;9.127;5.476;34.757;7.004;12.442;5.513
2338186.159;2.645;-12.517;-3.688;-2.459;26.636;4.843;13.746;1.378
2338186.167;-3.017;-14.752;-14.827;-6.929;17.583;1.974;14.305;-1.714
2338186.175;-2.012;-12.517;-15.944;-8.121;19.297;0.000;11.474;-1.863
2338186.183;-3.353;-15.497;-19.856;-11.958;17.732;-2.459;6.184;-1.304
2338186.191;-6.296;-17.062;-25.295;-14.082;12.890;-5.402;0.224;-1.416
2338186.199;-8.456;-18.924;-26.412;-16.205;14.529;-10.394;-6.743;-2.943
2338186.207;-3.949;-13.635;-21.681;-10.617;15.832;-14.827;-11.548;-6.296
2338186.215;-1.565;-9.686;-18.775;-6.035;18.403;-16.429;-14.789;-7.637
2338186.223;5.066;-2.310;-10.207;0.633;26.114;-14.342;-12.964;-5.551
2338186.231;12.368;5.923;-1.639;9.239;31.143;-7.786;-5.327;-2.310
2338186.239;6.929;1.565;-5.886;5.700;27.791;-4.880;-0.112;-3.316
2338186.247;11.809;6.109;2.049;10.431;36.918;0.186;9.499;-2.012
2338186.255;16.503;12.256;7.860;17.844;39.712;6.780;18.887;1.490
2338186.235;17.025;12.964;9.313;19.781;39.525;15.534;26.226;11.027
2338186.243;9.537;5.141;4.806;13.113;34.124;12.070;18.664;10.729
2338186.251;4.433;-2.198;1.639;6.482;30.845;7.674;10.356;10.170
2338186.259;9.462;4.657;8.196;8.456;38.780;13.188;13.560;15.832
2338186.267;6.706;0.782;6.370;5.513;36.992;8.978;7.711;13.262
2338186.275;8.121;1.229;6.855;6.855;34.198;8.345;5.625;12.778
2338186.283;10.803;3.986;9.686;9.649;36.359;1.639;0.261;5.402
2338186.291;17.136;8.643;15.050;17.583;39.600;1.416;5.364;0.931
2338186.299;17.956;11.884;16.131;20.042;39.265;5.588;15.460;-2.831
2338186.307;13.411;8.903;12.666;17.732;35.502;13.709;27.567;0.410
2338186.315;11.362;6.706;13.933;16.578;39.153;15.646;27.530;6.929
2338186.323;14.640;10.319;17.323;20.601;39.153;20.042;28.573;15.683
2338186.331;3.204;-1.788;5.849;7.190;26.077;12.666;18.515;10.692
2338186.339;6.743;1.453;9.499;8.345;29.691;8.531;12.629;8.792
2338186.347;7.786;0.671;11.064;7.302;33.192;6.370;10.431;6.780
2338186.355;11.958;3.316;16.503;8.941;37.663;2.421;5.141;4.210
2338186.363;13.858;5.923;17.919;11.735;40.010;2.794;5.141;5.960
2338186.371;7.749;0.745;9.947;5.998;32.708;-3.502;-2.123;1.788
2338186.379;0.261;-7.488;2.682;-2.235;26.487;-8.270;-5.290;-5.625
2338186.387;0.969;-7.302;2.943;-0.522;26.748;-0.261;5.215;-1.006
2338186.395;-3.278;-11.213;-1.155;-1.416;20.750;-0.820;7.041;-2.161
2338186.403;1.453;-2.496;3.241;7.153;24.624;7.935;17.025;6.519
2338186.411;0.969;-4.321;1.751;6.519;22.501;11.958;20.452;11.213
2338186.419;3.390;-3.017;4.955;6.668;27.753;9.909;18.999;9.723
2338186.415;0.484;-5.662;2.012;3.763;23.618;3.204;12.256;3.986
2338186.423;-3.651;-10.356;-0.335;-1.192;24.289;-0.447;7.413;1.341
2338186.431;9.909;2.421;15.721;11.548;38.557;1.006;9.052;2.012
2338186.439;16.689;8.717;21.346;18.738;41.500;4.172;12.331;3.017
2338186.447;18.850;11.884;22.165;21.681;41.127;6.370;14.752;2.757
2338186.455;23.544;18.142;26.338;28.051;43.400;8.829;18.328;1.639
2338186.463;27.679;22.613;30.547;33.192;47.125;12.144;20.340;4.210
2338186.471;21.756;16.242;23.991;27.493;38.259;15.162;20.526;9.090
2338186.479;12.666;8.047;15.981;20.154;30.771;20.191;24.438;17.732
2338186.487;9.611;3.241;17.881;15.125;34.273;17.919;22.314;18.030
2338186.495;0.373;-7.227;10.617;5.290;27.306;6.147;11.101;6.780
2338186.503;-4.917;-11.884;5.923;0.782;20.899;-1.863;3.427;-1.118
2338186.511;-2.384;-9.574;8.456;2.049;20.973;-7.264;-2.570;-6.333
2338186.519;1.937;-6.631;13.299;4.694;25.667;-9.686;-5.849;-9.164
2338186.527;3.241;-9.201;15.721;3.800;27.828;-12.442;-7.711;-11.660
2338186.535;13.001;3.204;26.226;14.156;37.886;-13.709;-9.127;-12.144
2338186.543;12.293;4.359;23.842;16.764;33.081;-6.221;-1.937;-5.327
2338186.551;9.574;0.671;22.575;13.635;33.863;5.290;7.525;7.637
2338186.559;-8.866;-18.552;4.508;-4.359;16.876;-1.043;0.857;2.496
2338186.567;-11.101;-20.824;1.043;-5.998;11.697;8.829;12.293;11.437
2338186.575;-1.192;-11.474;12.144;3.912;20.750;8.531;15.534;8.270
2338186.583;6.184;-4.210;20.824;12.368;27.753;6.445;14.342;5.513
2338186.591;5.886;-4.694;21.085;12.591;28.685;8.419;14.976;7.823
2338186.599;13.448;1.304;30.845;17.434;39.488;8.158;13.448;8.270
2338186.553;18.291;6.743;34.161;23.618;38.929;3.800;9.090;5.215
2338186.561;15.199;4.210;30.845;20.750;33.602;-5.327;0.745;-3.278
2338186.569;11.288;-0.261;26.748;16.578;30.287;-5.215;1.788;-2.943
2338186.577;5.178;-5.960;21.905;11.548;23.879;-9.723;-1.825;-6.780
2338186.585;-0.224;-10.319;17.844;7.451;21.234;-7.153;1.825;-3.874
2338186.593;3.688;-4.955;19.595;13.411;20.824;5.029;12.815;7.823
2338186.601;4.470;-5.029;20.228;13.299;20.377;7.264;13.113;10.617
2338186.609;3.278;-6.855;21.048;10.468;21.532;1.304;6.258;5.700
2338186.617;-5.811;-17.285;15.944;0.112;17.583;-10.170;-4.880;-4.135
2338186.625;-7.041;-20.266;17.285;-2.161;17.919;-16.429;-9.313;-8.419
2338186.633;-3.837;-18.999;22.203;0.075;23.991;-18.291;-10.431;-10.692
2338186.641;2.645;-10.766;28.498;5.998;27.269;-12.517;-6.482;-5.141
2338186.649;9.201;-3.614;34.943;13.150;33.081;-10.468;-6.557;-3.912
2338186.657;9.686;-3.651;36.508;14.529;33.081;-9.499;-7.823;-4.098
2338186.665;5.104;-8.196;32.112;10.729;29.802;-6.445;-6.557;-1.267
2338186.673;9.798;-4.321;37.216;14.938;34.310;-0.969;-0.745;3.576
2338186.681;19.744;5.178;47.758;24.997;45.635;8.792;10.803;12.964
2338186.689;8.382;-5.998;36.620;13.672;33.118;5.960;8.345;10.431
2338186.697;-1.490;-16.876;28.834;2.608;24.363;0.969;3.651;5.625
2338186.705;2.235;-13.858;32.820;4.843;26.599;-3.241;-0.894;1.937
2338186.713;0.298;-15.423;29.318;4.433;19.930;-15.609;-11.474;-9.984
2338186.721;1.118;-14.007;30.734;6.706;19.856;-21.458;-15.162;-16.429
2338186.729;1.304;-13.337;32.187;7.227;22.650;-19.222;-12.331;-15.497
2338186.737;6.035;-9.499;37.067;10.692;26.450;-17.807;-11.101;-17.174
2338186.776;6.184;-10.096;36.284;12.629;23.320;-11.884;-4.619;-12.890
2338186.784;5.476;-8.121;35.912;12.740;24.028;-7.972;-0.857;-9.425
2338186.792;13.299;0.298;43.996;21.979;30.249;-2.868;2.272;-3.316
2338186.800;27.865;14.380;59.158;37.178;44.554;9.350;12.815;10.841
2338186.808;12.629;-2.645;46.007;19.930;33.118;2.012;4.917;1.378
2338186.816;6.892;-8.196;41.947;15.274;27.567;-3.651;-0.186;-5.327
2338186.824;11.884;-1.900;48.615;21.830;34.310;-3.837;0.857;-3.465
2338186.832;11.027;-1.900;49.621;23.246;32.224;-8.196;-3.129;-6.221
2338186.840;10.133;-2.347;49.211;23.656;28.610;-4.545;0.000;-3.166
2338186.848;13.746;1.192;55.283;26.785;33.677;1.676;5.476;0.782
2338186.856;14.529;2.533;58.375;28.238;35.651;-3.949;1.043;-4.955
2338186.864;13.560;0.559;58.003;25.630;35.688;-3.539;2.161;-4.731
2338186.872;10.654;-3.092;55.693;22.426;33.788;-6.147;-2.012;-6.780
2338186.880;13.150;-0.596;58.673;25.555;35.353;-9.462;-5.327;-8.307
2338186.888;11.846;-4.135;54.725;21.160;30.585;-7.413;-1.639;-4.321
2338186.896;4.359;-12.144;45.747;11.362;27.753;-8.531;-1.974;-4.843
2338186.904;10.617;-5.141;49.248;16.391;33.788;-5.588;1.155;-3.278
2338186.912;16.205;0.447;49.844;21.905;36.284;-2.980;3.949;-1.639
2338186.920;10.729;-5.178;43.176;14.603;35.465;-5.327;2.608;-4.470
2338186.928;5.402;-9.686;35.837;10.282;31.814;-10.356;-1.900;-10.021
2338186.936;19.968;6.258;46.231;27.455;40.643;-1.602;6.706;-1.751
2338186.944;16.652;4.396;42.729;24.289;39.078;0.075;7.153;1.192
2338186.952;14.007;2.049;41.164;21.458;41.984;3.129;8.605;6.929
2338186.960;15.274;3.502;41.723;23.544;41.798;5.923;9.984;11.399
2338186.956;12.629;1.043;38.594;20.862;36.843;6.407;7.264;12.033
2338186.964;10.468;-0.335;37.998;18.477;39.339;13.188;13.337;17.136
2338186.972;14.007;3.688;43.623;22.575;42.059;17.025;19.707;18.477
2338186.980;7.823;-2.645;38.221;16.652;34.794;10.952;15.758;11.586
2338186.988;1.900;-9.015;35.763;10.841;33.118;4.061;9.239;4.768
2338186.996;5.662;-5.066;41.015;16.801;38.669;3.241;9.015;4.210
2338187.004;8.009;-2.868;43.064;21.271;34.310;4.321;10.319;6.296
2338187.012;4.657;-5.104;40.568;17.770;31.330;-0.522;4.359;0.149
2338187.020;12.666;3.278;49.546;23.283;40.829;4.731;8.680;5.551
2338187.028;18.738;9.611;55.656;30.026;44.070;4.247;8.792;5.662
2338187.036;23.693;14.417;61.356;34.869;49.807;2.459;6.929;5.849
2338187.044;25.220;15.460;62.734;36.731;50.478;7.302;11.809;12.033
2338187.052;23.246;14.119;62.436;35.092;48.727;11.995;16.466;15.087
2338187.060;27.679;18.850;69.849;40.270;55.879;18.552;21.495;21.644
2338187.068;23.991;15.534;67.092;37.365;51.297;20.638;23.507;19.372
2338187.076;11.139;3.651;54.240;26.971;35.129;14.268;17.434;8.903
2338187.084;11.325;1.937;55.097;27.008;34.720;8.680;10.952;5.327
2338187.092;22.464;14.342;67.130;37.216;45.411;8.047;12.256;6.370
2338187.100;23.544;15.423;69.849;36.433;48.839;8.605;14.193;8.419
2338187.108;17.919;9.350;65.193;30.361;40.494;-1.155;4.321;-1.490
2338187.116;15.199;6.221;63.740;26.785;39.898;-3.055;1.676;-2.496
2338187.124;6.445;-1.378;54.613;18.217;30.547;-1.490;1.974;0.969
2338187.132;9.201;0.894;57.109;18.552;33.602;4.098;7.637;6.594
2338187.140;12.703;3.539;59.865;20.452;37.216;5.588;7.637;7.823
2338187.167;12.740;3.092;58.636;19.297;36.545;5.737;5.811;8.047
2338187.175;10.841;1.602;57.518;16.354;37.141;5.439;4.657;9.015
2338187.183;7.376;-0.671;52.713;14.938;29.653;1.229;0.633;5.588
2338187.191;10.915;3.278;55.060;19.372;32.559;1.304;0.559;6.184
2338187.199;5.178;-2.012;48.801;14.268;27.157;-1.006;-1.043;2.570
2338187.207;5.625;-0.969;48.131;15.311;24.363;-2.049;-1.788;-0.075
2338187.215;15.087;8.978;58.189;25.257;34.198;0.484;1.714;2.757
2338187.223;15.758;9.239;60.461;25.518;36.061;-3.055;0.708;-0.894
2338187.231;15.199;8.196;59.046;25.146;32.373;-8.233;-3.017;-5.774
2338187.239;21.234;13.858;64.746;31.404;39.265;-7.302;-3.837;-2.123
2338187.247;22.464;16.056;67.577;33.118;42.878;-6.594;-5.551;-0.373
2338187.255;23.991;17.695;69.141;35.465;43.102;-5.066;-5.551;1.453
2338187.263;24.922;18.552;68.992;37.029;41.462;-0.931;-3.055;5.215
2338187.271;30.659;23.879;77.039;41.611;49.770;5.253;2.012;10.841
2338187.279;28.536;20.973;76.182;39.265;47.646;3.055;0.410;6.296
2338187.287;29.244;21.048;77.188;39.786;49.286;6.258;7.786;7.004
2338187.295;18.142;9.425;66.422;28.722;37.365;2.608;6.258;1.714
2338187.303;14.417;6.221;63.330;27.008;34.571;0.149;3.502;1.937
2338187.311;23.209;15.013;72.196;37.029;42.170;4.880;7.749;9.276
2338187.319;8.382;-0.298;57.817;21.383;28.387;-6.147;-3.688;-0.820
2338187.327;6.184;-1.453;56.401;18.552;28.200;-8.047;-5.178;-3.166
2338187.335;10.431;3.576;60.759;24.177;31.777;-7.786;-3.837;-5.513
2338187.343;4.843;-1.825;53.793;18.440;24.326;-11.139;-8.419;-9.276
2338187.351;13.225;4.172;62.808;23.991;33.751;-12.629;-10.654;-9.947
2338187.286;26.785;16.876;76.853;35.688;49.137;-1.304;-1.900;2.980
2338187.294;27.269;16.913;75.921;34.422;45.784;-0.075;-2.719;6.258
2338187.302;18.105;8.307;66.385;27.418;37.290;-0.075;-3.278;5.588
2338187.310;20.936;10.543;69.924;29.206;41.910;10.096;9.090;13.076
2338187.318;39.674;31.777;88.327;51.856;56.699;18.738;20.228;18.962
2338187.326;35.986;28.200;83.819;48.392;51.819;16.019;19.744;15.832
2338187.334;23.879;15.385;72.569;35.204;41.127;14.044;16.801;15.385
2338187.342;31.963;23.209;81.323;43.586;48.280;12.964;14.417;16.131
2338187.350;32.485;23.693;82.217;44.294;47.795;10.766;13.001;13.560
2338187.358;33.155;24.177;83.670;44.480;47.460;12.927;16.540;13.374
2338187.366;31.032;21.644;80.019;41.239;41.164;10.766;14.007;8.941
2338187.374;25.257;14.417;75.102;33.937;38.445;-0.149;2.459;-0.037
2338187.382;18.403;7.227;70.035;26.822;35.353;-9.462;-6.892;-6.221
2338187.390;14.678;4.210;65.789;25.891;29.728;-13.150;-8.978;-7.451
2338187.398;11.511;1.155;63.702;23.358;27.083;-7.786;-2.906;-2.719
2338187.406;10.245;-1.639;62.212;21.718;26.412;5.960;12.480;9.127
2338187.414;20.228;7.525;73.202;28.573;37.961;14.640;22.389;14.715
2338187.422;26.226;13.858;79.833;32.783;44.405;4.098;12.591;3.688
2338187.430;16.280;2.496;69.812;21.122;33.863;-1.229;5.402;-0.596
2338187.438;22.687;9.052;77.225;28.051;39.972;2.980;8.233;5.923
2338187.446;25.332;10.692;80.988;31.702;44.815;5.327;9.686;9.574
2338187.454;18.068;4.359;74.767;25.816;36.806;3.539;5.662;8.158
2338187.462;18.366;5.960;76.778;27.530;38.259;-2.086;-2.235;4.470
2338187.470;24.624;12.517;80.988;36.173;42.878;-9.760;-6.855;-2.421
2338187.420;16.913;4.582;73.314;27.716;35.614;-15.236;-6.557;-10.021
2338187.428;18.515;6.966;74.133;29.281;34.682;-13.858;-0.596;-11.176
2338187.436;17.658;6.557;72.494;30.212;32.298;-9.611;5.662;-8.158
2338187.444;28.461;17.695;81.472;44.852;39.823;10.207;24.773;10.319
2338187.452;17.993;11.437;69.439;35.837;27.195;4.396;16.242;4.210
2338187.460;14.454;6.817;67.316;30.100;24.177;-5.253;4.172;-4.359
2338187.468;16.131;8.270;69.290;31.628;25.406;-10.729;-3.502;-9.388
2338187.476;17.285;7.227;72.271;29.691;27.306;-14.342;-9.462;-12.890
2338187.484;21.979;13.113;76.368;35.241;29.542;-14.752;-10.654;-10.990
2338187.492;18.962;9.760;72.196;30.808;26.338;-21.756;-18.962;-14.678
2338187.500;16.391;7.190;68.210;29.095;22.650;-23.507;-21.905;-13.076
2338187.508;11.921;2.496;63.144;24.326;16.540;-25.481;-21.458;-13.784
2338187.516;13.895;1.900;65.863;20.936;21.756;-19.111;-12.740;-10.692
2338187.524;21.569;10.207;71.339;30.212;28.834;-1.155;6.631;0.894
2338187.532;17.770;7.525;64.336;27.753;25.332;6.109;13.337;5.625
2338187.540;14.305;6.557;59.754;23.358;24.885;5.849;11.772;5.960
2338187.548;8.829;-0.671;50.925;17.025;17.062;4.023;8.419;6.184
2338187.556;8.345;-3.725;49.248;13.001;18.924;0.820;4.917;1.304
2338187.564;19.036;7.190;58.562;21.979;31.479;4.433;9.574;4.359
2338187.572;9.388;-0.186;46.268;13.374;20.824;-8.941;-3.949;-8.494
2338187.580;21.458;13.001;56.922;25.779;31.926;-8.829;-6.594;-4.396
2338187.588;4.247;-5.476;40.233;6.370;17.844;-19.222;-20.713;-10.990
2338187.596;-5.513;-15.870;32.634;-6.855;11.139;-19.856;-21.160;-9.127
2338187.604;-0.931;-10.766;37.998;-2.794;15.087;-16.019;-13.225;-7.451
2338187.721;4.061;-5.439;41.872;4.210;18.813;-5.700;-0.261;-2.906
2338187.729;1.378;-9.313;41.611;-1.006;21.458;2.086;7.711;3.241
2338187.737;8.568;-4.359;51.185;6.221;28.163;2.347;6.519;3.390
2338187.745;9.947;0.969;50.813;10.841;25.295;5.364;7.674;7.674
2338187.753;10.580;0.894;53.756;9.425;31.702;11.660;12.629;14.417
2338187.761;11.362;1.304;54.017;11.735;28.312;-1.304;-1.974;4.098
2338187.769;-1.304;-10.431;40.568;0.820;15.013;-13.262;-15.870;-6.519
2338187.777;0.484;-10.170;44.107;-1.155;20.638;-15.981;-19.930;-9.127
2338187.785;5.104;-5.998;50.589;2.012;27.493;-14.789;-18.291;-10.505
2338187.793;-1.043;-9.574;43.288;1.006;15.274;-19.334;-20.675;-14.566
2338187.801;-3.837;-12.256;41.276;-1.341;15.348;-19.334;-18.403;-9.723
2338187.809;7.749;-1.453;51.446;8.494;30.547;-5.215;-1.788;4.247
2338187.817;-3.353;-12.852;34.347;-2.421;17.583;-10.729;-5.588;-4.321
2338187.825;-10.356;-19.521;26.338;-8.941;8.866;-17.658;-12.107;-11.623
2338187.833;-6.855;-15.907;30.287;-4.359;12.219;-17.099;-12.144;-10.096
2338187.841;2.570;-7.264;39.823;5.849;22.016;-15.423;-11.213;-8.270
2338187.849;5.811;-1.565;41.127;9.872;21.234;-16.242;-14.789;-8.829
2338187.857;3.725;-4.508;39.004;6.221;19.744;-15.497;-17.509;-9.052
2338187.865;8.233;-1.490;44.666;6.929;26.375;-12.331;-15.087;-5.886
2338187.873;11.846;1.639;46.641;8.307;26.040;-9.127;-14.156;-2.906
2338187.881;23.060;13.448;55.842;20.489;35.018;-3.763;-6.631;0.000
2338187.889;21.420;12.442;53.644;18.179;34.757;0.037;-0.224;2.719
2338187.897;16.019;6.706;47.050;13.635;27.344;1.267;3.353;2.235
2338187.905;7.935;-2.906;38.296;3.129;17.993;2.123;5.141;1.974
2338187.961;18.813;5.364;51.074;8.196;35.167;14.044;17.174;14.864
2338187.969;12.666;1.043;43.996;4.843;27.865;5.402;9.909;7.078
2338187.977;0.894;-9.388;30.957;-4.172;15.721;-7.600;-1.751;-6.668
2338187.985;-1.229;-10.468;28.647;-4.694;12.033;-8.382;-2.459;-6.594
2338187.993;-0.112;-7.637;29.020;-0.857;10.356;-6.296;-1.453;-4.023
2338188.001;3.986;-3.316;35.837;3.166;19.372;0.894;4.806;2.496
2338188.009;1.080;-7.711;34.198;-2.868;18.962;-1.825;1.527;-0.149
2338188.017;5.104;-3.614;38.221;0.410;20.936;5.178;8.047;6.929
2338188.025;6.855;-2.123;38.557;1.974;18.515;10.952;12.256;12.890
2338188.033;1.974;-7.562;34.720;-2.384;14.193;10.654;9.760;13.821
2338188.041;0.149;-6.296;33.826;-3.465;13.113;13.262;12.442;17.025
2338188.049;5.290;-1.565;39.861;1.080;20.191;14.715;15.683;17.919
2338188.057;6.072;0.820;39.972;5.662;18.813;3.763;8.494;5.402
2338188.065;10.878;5.327;43.437;10.878;19.334;2.906;10.617;2.943
2338188.073;9.574;3.986;42.431;10.282;17.285;3.353;11.437;1.453
2338188.081;0.000;-6.855;33.565;0.000;8.345;0.782;6.184;-0.596
2338188.089;-5.737;-13.076;30.473;-4.545;7.264;2.161;5.662;2.794
2338188.097;-5.513;-13.113;33.826;-4.396;12.666;5.215;9.090;4.582
2338188.105;0.931;-5.588;39.674;4.433;16.242;8.233;14.640;4.284
2338188.113;-6.892;-13.262;31.777;-3.353;7.153;3.129;12.070;-2.794
2338188.121;-6.370;-13.672;32.783;-5.886;8.047;-3.949;3.427;-6.482
2338188.129;-9.127;-16.727;30.696;-8.754;5.327;-15.013;-9.425;-11.362
2338188.137;-18.328;-25.891;21.569;-17.099;-3.688;-14.454;-11.586;-6.966
2338188.145;-13.374;-21.830;28.089;-13.523;3.390;-12.591;-11.176;-2.943
2338188.126;-3.055;-12.852;39.376;-6.482;16.205;-12.070;-9.984;-4.731
2338188.134;-2.012;-13.746;40.196;-7.413;16.056;-8.233;-6.706;-2.310
2338188.142;-1.714;-15.125;40.121;-6.668;14.752;-7.227;-5.513;-1.080
2338188.150;5.476;-5.737;47.013;-0.261;21.420;-4.880;-2.384;0.857
2338188.158;2.906;-7.227;43.660;-0.820;19.521;-3.614;-1.825;0.186
2338188.166;2.943;-6.929;43.996;0.224;19.819;-7.190;-5.737;-4.955
2338188.174;15.087;5.774;55.470;14.417;27.493;-0.820;-0.596;-1.155
2338188.182;18.924;7.786;61.020;15.758;33.863;2.570;1.937;1.565
2338188.190;13.709;1.527;55.879;7.711;27.791;-1.304;-2.906;1.527
2338188.198;16.540;6.817;57.518;15.907;27.195;-3.017;-4.880;3.949
2338188.206;7.451;-2.272;49.174;6.855;19.148;-14.007;-13.970;-5.066
2338188.214;1.378;-8.047;43.139;1.453;13.299;-16.540;-14.938;-9.052
2338188.222;-3.055;-12.703;38.370;-1.863;9.015;-13.933;-10.170;-8.866
2338188.230;-10.729;-20.862;32.037;-10.468;1.229;-17.174;-10.282;-13.486
2338188.238;-8.829;-17.658;34.347;-7.413;1.267;-8.941;-2.757;-7.525
2338188.246;-4.508;-13.001;38.818;-2.347;4.098;-4.284;0.931;-4.843
2338188.254;-5.104;-14.156;39.153;-2.980;6.668;-3.166;0.708;-3.092
2338188.262;5.700;-3.874;48.839;8.196;13.597;-1.006;2.198;0.298
2338188.270;6.370;-3.576;52.527;8.345;16.205;-5.811;-3.129;-5.476
2338188.278;9.909;-0.335;57.034;11.735;22.203;-3.800;-0.559;-2.831
2338188.286;8.978;-2.161;54.240;9.611;18.738;-6.184;-3.166;-2.980
2338188.294;3.539;-9.127;48.429;3.874;9.276;-11.250;-10.207;-5.886
2338188.302;1.676;-12.070;49.882;2.794;11.586;-13.262;-13.225;-4.731
2338188.310;-3.017;-13.746;48.093;-1.863;9.760;-13.225;-12.591;-5.066
2338188.336;0.149;-11.511;49.844;0.708;11.139;-10.729;-8.829;-4.433
2338188.344;4.582;-7.562;51.968;5.700;10.990;-5.215;-4.284;-1.788
2338188.352;9.574;-2.906;56.513;9.723;15.013;-1.974;-2.347;2.161
2338188.360;9.574;-2.682;57.481;10.952;14.938;-9.164;-9.760;-3.129
2338188.368;9.760;-2.049;59.307;12.480;18.887;-8.419;-8.382;-0.969
2338188.376;9.947;-2.831;58.413;11.995;13.635;-9.462;-7.637;-1.006
2338188.384;4.619;-8.903;53.793;5.513;9.052;-17.621;-14.342;-10.990
2338188.392;3.614;-9.201;53.011;5.998;6.407;-21.122;-17.807;-17.285
2338188.400;4.880;-8.531;53.905;6.519;7.488;-20.415;-18.254;-15.199
2338188.408;-3.055;-16.503;45.113;-1.118;0.633;-17.956;-17.211;-11.213
2338188.416;-5.588;-17.434;38.221;-2.049;-6.482;-16.727;-15.087;-10.431
2338188.424;-6.966;-18.850;35.129;-5.960;-5.439;-13.970;-12.405;-9.872
2338188.432;-11.213;-23.171;29.169;-13.597;-7.898;-15.870;-14.082;-13.784
2338188.440;-9.127;-20.303;27.083;-12.219;-7.413;-13.672;-13.299;-14.044
2338188.448;-3.763;-13.374;27.865;-5.253;-3.353;-4.843;-5.774;-7.898
2338188.456;-0.186;-8.568;29.169;-0.484;1.974;-1.714;-3.763;-5.066
2338188.464;-3.055;-10.282;26.450;-3.763;3.539;-3.092;-6.072;-4.210
2338188.472;-4.172;-9.164;23.879;-2.421;-3.576;-3.204;-5.625;-2.198
2338188.480;-4.396;-8.456;23.171;-1.341;-4.508;-6.706;-9.015;-2.347
2338188.488;-16.652;-20.862;12.033;-11.921;-12.927;-16.354;-17.583;-10.356
2338188.496;-16.280;-17.770;11.884;-9.574;-12.629;-16.578;-17.025;-11.101
2338188.504;-3.912;-3.129;23.991;3.241;-2.272;-10.394;-9.425;-4.955
2338188.512;-8.754;-9.499;19.744;-3.614;-6.929;-13.374;-11.399;-9.872
2338188.520;-2.794;-4.619;26.971;2.868;-0.522;-10.878;-7.190;-10.245
2338188.561;4.694;3.316;35.129;11.809;4.433;-5.439;-1.639;-6.780
2338188.569;4.359;2.980;35.129;11.623;4.657;1.602;3.688;-0.671
2338188.577;9.276;7.637;40.829;16.801;12.927;2.012;2.980;0.522
2338188.585;8.345;5.774;41.649;14.529;15.348;-1.974;-3.688;-1.229
2338188.593;3.800;2.012;36.545;10.431;8.345;-5.588;-8.196;-4.545
2338188.601;3.129;2.906;34.273;13.560;2.906;-3.986;-7.413;-3.278
2338188.609;2.161;2.012;33.714;13.448;3.278;0.671;-3.055;2.012
2338188.617;8.382;7.302;41.537;18.068;13.337;1.192;-0.596;2.757
2338188.625;5.290;4.992;37.253;17.323;5.588;-3.800;-3.017;-2.645
2338188.633;2.049;1.043;33.192;12.629;1.714;-6.780;-4.284;-6.035
2338188.641;-1.863;-2.235;30.622;9.164;1.304;-11.735;-8.419;-10.058
2338188.649;-4.508;-4.098;28.498;8.605;-1.490;-14.938;-11.735;-13.337
2338188.657;1.863;2.757;35.055;15.758;4.359;-13.150;-10.431;-13.188
2338188.665;12.144;13.001;45.709;24.587;16.354;-1.416;0.186;-1.378
2338188.673;9.350;8.792;45.188;19.297;16.540;3.502;2.198;5.253
2338188.681;14.268;12.778;51.111;23.842;21.085;5.439;2.757;9.649
2338188.689;13.523;13.001;50.589;25.146;19.744;7.264;4.396;13.262
2338188.697;-5.625;-8.158;33.304;4.098;5.253;-1.602;-5.625;5.551
2338188.705;-3.465;-6.780;35.912;6.855;7.413;5.551;3.055;10.878
2338188.713;7.376;4.247;46.492;17.062;16.466;13.374;15.013;16.317
2338188.721;13.188;10.356;51.148;22.724;21.346;12.219;16.019;13.970
2338188.729;4.247;3.576;39.749;18.440;9.052;1.192;3.874;1.602
2338188.737;-1.080;-1.453;34.906;13.746;6.407;-3.502;-2.533;-2.310
2338188.745;-3.725;-5.364;32.000;9.574;4.545;-2.645;-4.470;-0.149
2338188.815;-0.335;-3.725;33.826;12.517;4.619;-3.837;-6.445;-1.788
2338188.823;1.192;0.522;34.124;14.380;8.158;-1.043;-2.943;-1.304
2338188.831;1.565;1.863;33.490;14.566;8.196;4.433;1.751;4.843
2338188.839;8.009;6.296;40.680;18.142;16.354;13.709;10.133;15.944
2338188.847;0.894;-0.112;33.081;14.007;7.227;4.061;2.421;5.402
2338188.855;6.445;6.296;37.998;21.718;10.692;8.531;10.282;8.084
2338188.863;0.000;-0.559;31.255;15.125;6.184;8.568;12.293;5.402
2338188.871;4.023;2.347;36.135;18.105;12.517;7.711;11.548;3.725
2338188.879;10.245;8.307;43.586;24.997;18.068;8.456;11.697;6.147
2338188.887;6.631;3.204;41.127;20.638;15.758;1.006;3.539;0.186
2338188.895;4.321;2.719;38.147;17.956;12.219;-5.998;-3.017;-5.551
2338188.903;3.055;0.112;38.594;15.348;12.591;-7.711;-5.849;-6.743
2338188.911;-1.974;-6.333;34.496;9.798;9.015;-9.015;-8.717;-7.935
2338188.919;4.433;-0.335;41.462;15.050;18.589;-3.949;-4.508;-2.794
2338188.927;5.513;2.980;40.084;17.583;15.758;0.671;-0.447;0.820
2338188.935;8.866;6.258;43.772;22.016;19.446;2.384;1.341;2.161
2338188.943;9.649;5.998;44.778;22.799;18.515;4.619;5.849;3.241
2338188.951;1.416;-0.298;36.731;17.919;9.798;5.513;7.786;2.421
2338188.959;-8.196;-9.760;28.014;7.823;2.421;1.825;4.247;-0.708
2338188.967;-7.190;-8.941;28.498;9.798;0.857;-5.290;-1.080;-6.780
2338188.975;1.341;-1.080;37.514;17.881;10.245;-8.680;-4.545;-8.270
2338188.983;-3.129;-6.482;32.745;11.921;3.204;-17.658;-14.454;-15.646
2338188.991;-1.639;-5.662;34.571;11.809;6.519;-13.262;-12.890;-10.505
2338188.999;6.072;1.490;44.443;18.291;15.981;-8.345;-10.878;-3.837
2338189.025;10.133;5.960;48.168;23.320;15.907;-3.576;-6.147;1.639
2338189.033;10.207;4.247;47.833;22.352;13.262;-6.743;-8.605;-2.794
2338189.041;11.325;6.445;49.509;23.320;14.976;-7.562;-10.394;-4.582
2338189.049;9.686;4.806;49.695;20.526;18.366;-1.192;-4.582;2.086
2338189.057;19.334;14.380;57.966;31.367;22.165;-0.298;-2.384;3.651
2338189.065;12.442;6.631;50.366;23.693;14.529;-6.370;-7.637;-2.533
2338189.073;3.576;-2.719;42.766;14.380;9.164;-7.190;-5.662;-3.502
2338189.081;3.874;-3.017;43.288;15.311;7.376;-7.004;-2.906;-3.763
2338189.089;0.857;-5.513;40.755;13.337;4.470;-16.168;-11.809;-11.735
2338189.097;5.327;-0.410;46.268;16.764;9.462;-19.036;-16.205;-14.231
2338189.105;22.314;16.354;62.697;32.783;23.246;-9.984;-8.680;-2.645
2338189.113;11.586;5.104;52.340;21.309;11.809;-20.750;-22.538;-10.692
2338189.121;10.319;2.459;50.925;17.993;11.288;-20.526;-23.805;-9.872
2338189.129;11.139;3.241;50.478;19.185;8.717;-11.995;-14.342;-4.359
2338189.137;9.686;0.335;50.627;17.025;10.245;-14.976;-17.993;-10.133
2338189.145;11.884;3.837;53.160;18.813;12.442;-12.480;-16.093;-9.090
2338189.153;7.860;-1.192;48.503;14.305;6.333;-9.835;-12.368;-7.190
2338189.161;7.935;-2.570;49.621;13.411;7.227;-10.282;-10.990;-5.998
2338189.169;11.846;1.192;53.383;17.732;10.766;-7.525;-7.376;-1.006
2338189.177;5.923;-4.396;46.901;13.337;4.619;-10.207;-9.052;-2.459
2338189.185;7.413;-2.980;49.248;15.423;6.296;-12.442;-11.362;-4.806
2338189.193;1.043;-9.835;42.021;8.531;-2.012;-20.564;-18.254;-13.560
2338189.201;11.660;0.559;53.309;19.111;8.419;-20.489;-16.280;-16.391
2338189.209;22.911;12.219;62.473;32.447;14.752;-13.486;-8.494;-12.070
2338189.206;16.205;5.849;55.805;26.934;7.823;-4.843;-2.086;-4.657
2338189.214;9.723;-0.484;50.478;20.340;3.055;-1.900;-1.527;-0.708
2338189.222;6.855;-2.831;47.758;17.434;1.416;3.427;1.304;6.147
2338189.230;11.288;1.676;52.117;21.830;5.923;4.135;1.602;7.860
2338189.238;11.213;1.714;52.676;22.389;6.407;-3.092;-4.023;0.782
2338189.246;8.419;-1.602;49.025;19.781;0.112;-3.949;-3.204;-1.676
2338189.254;12.703;0.149;53.570;21.830;2.682;-1.825;1.527;-0.969
2338189.262;11.437;-0.484;53.458;17.807;4.657;-3.949;0.782;-4.321
2338189.270;14.715;4.843;56.773;22.613;6.109;-3.316;1.006;-4.619
2338189.278;20.005;10.543;61.691;30.771;7.339;-4.023;-1.341;-4.508
2338189.286;17.211;5.923;60.312;26.487;8.419;-7.488;-6.892;-6.817
2338189.294;23.618;11.139;66.571;31.888;13.821;-1.974;-3.055;1.490
2338189.302;35.763;23.842;78.678;44.331;24.885;9.388;8.903;13.597
2338189.310;20.973;9.611;63.367;31.516;8.307;1.341;1.676;3.539
2338189.318;10.692;-2.272;55.246;19.707;0.671;0.931;0.671;3.539
2338189.326;10.468;-3.353;55.544;18.403;1.043;1.676;1.788;4.023
2338189.334;15.423;3.092;59.083;25.630;5.588;5.439;6.072;7.562
2338189.342;9.052;-2.831;50.440;18.328;-1.453;-1.639;-0.261;2.123
2338189.350;16.093;4.731;56.066;25.481;6.743;-4.470;-1.118;0.596
2338189.358;8.494;-2.310;44.331;17.397;-2.049;-8.345;-5.662;-7.041
2338189.366;-2.049;-12.852;28.983;4.098;-14.901;-9.835;-5.029;-12.964
2338189.374;3.129;-7.488;29.802;8.047;-8.605;-4.917;1.565;-7.711
2338189.382;3.763;-5.029;26.822;10.133;-8.456;-8.643;-4.284;-8.643
2338189.390;7.078;-2.235;27.083;12.480;-6.519;-7.786;-5.253;-4.955
2338189.386;22.687;13.821;41.127;29.989;10.319;9.723;10.319;15.050
2338189.394;7.153;2.310;24.773;16.093;-4.545;0.112;-1.304;3.688
2338189.402;9.350;3.949;26.450;16.801;-1.416;3.949;2.459;4.172
2338189.410;16.503;11.399;33.490;23.991;5.551;12.144;11.474;10.766
2338189.418;15.832;10.952;34.198;22.464;6.258;11.884;12.442;9.723
2338189.426;11.288;6.370;31.516;18.552;7.637;4.172;5.476;4.917
2338189.434;10.356;7.339;31.441;20.228;4.657;-9.462;-5.662;-5.290
2338189.442;13.858;10.617;34.608;25.108;6.519;-13.337;-8.941;-8.196
2338189.450;17.807;13.672;38.855;28.834;9.052;-12.107;-8.084;-6.780
2338189.458;5.551;2.086;27.716;16.131;-1.974;-16.317;-13.709;-13.448
2338189.466;6.817;3.874;28.536;17.583;-1.825;-7.078;-4.694;-5.700
2338189.474;11.586;9.313;32.745;22.464;0.149;-0.149;2.570;-0.186
2338189.482;26.152;22.724;47.907;37.476;14.529;9.984;14.827;9.350
2338189.490;18.254;15.497;40.047;29.057;9.984;0.633;6.147;0.000
2338189.498;14.231;14.603;35.353;25.518;4.806;-3.278;1.788;-5.141
2338189.506;17.211;17.807;39.153;29.840;10.245;0.857;5.960;-1.080
2338189.514;15.683;16.801;37.439;28.536;9.015;3.427;7.972;1.118
2338189.522;10.505;9.425;33.714;20.601;7.115;0.224;2.347;0.447
2338189.530;13.337;12.368;35.986;25.705;7.562;-2.235;-0.373;0.335
2338189.538;21.569;20.415;45.113;34.608;16.540;5.662;6.445;8.382
2338189.546;9.537;7.674;33.453;20.675;4.619;1.304;0.671;3.055
2338189.554;5.290;2.459;28.573;14.789;-0.857;5.290;4.172;5.923
2338189.562;21.830;18.626;45.560;31.702;15.721;20.266;19.297;19.968
2338189.570;14.938;13.858;37.923;29.393;5.960;12.405;13.448;10.990
2338189.625;5.923;4.172;30.659;18.701;-0.447;4.657;7.264;2.570
2338189.633;22.613;19.409;47.311;32.224;17.397;18.403;19.893;17.174
2338189.641;23.618;21.569;48.093;33.639;16.168;19.185;19.148;19.670
2338189.649;35.763;34.086;60.014;44.927;29.430;32.820;32.559;32.708
2338189.657;9.388;6.668;33.490;19.632;2.831;8.531;7.339;6.817
2338189.665;10.729;7.227;35.949;20.154;3.204;2.980;-1.006;3.502
2338189.673;5.327;3.241;30.547;13.188;-1.043;-3.427;-8.978;-0.261
2338189.681;4.806;3.204;26.971;13.821;-6.035;-2.608;-7.413;2.086
2338189.689;7.339;4.768;29.355;15.944;-1.676;-1.155;-2.831;4.061
2338189.697;7.860;4.396;32.261;14.976;2.198;-6.445;-4.321;-2.496
2338189.705;20.079;18.403;45.113;29.653;13.150;7.115;12.182;6.594
2338189.713;16.317;16.354;41.351;28.498;9.350;3.986;11.884;-0.037
2338189.721;8.717;8.531;32.373;20.005;1.267;-6.780;1.341;-10.543
2338189.729;12.778;12.182;35.837;21.756;6.072;-4.061;2.198;-5.886
2338189.737;8.084;8.009;30.883;17.136;1.006;-11.474;-6.035;-11.213
2338189.745;1.118;0.894;25.146;11.884;-3.539;-17.658;-12.293;-14.789
2338189.753;3.017;2.272;27.344;15.199;-2.533;-10.505;-8.494;-5.215
2338189.761;3.017;0.335;28.610;13.262;0.149;-6.482;-7.190;0.000
2338189.769;-0.075;-3.129;26.412;8.941;-1.825;-7.749;-9.350;-0.484
2338189.777;0.671;-1.192;25.928;11.288;-6.258;-11.884;-11.474;-5.625
2338189.785;6.780;4.768;32.522;16.987;-2.272;-12.293;-9.499;-8.009
2338189.793;16.131;13.113;43.064;26.077;10.394;2.608;5.551;3.576
2338189.801;14.156;11.586;41.723;24.475;8.494;3.576;7.041;1.416
2338189.809;7.115;3.986;34.645;16.242;1.155;-6.072;-0.782;-10.207
2338189.819;6.221;0.894;33.565;11.660;2.421;0.186;3.651;-3.763
2338189.827;9.686;4.731;36.843;16.056;3.576;1.863;2.868;-3.092
2338189.835;22.501;18.962;48.019;32.485;13.113;8.754;8.270;6.333
2338189.843;16.578;13.001;41.686;26.450;8.866;5.104;2.384;5.141
2338189.851;13.374;8.866;38.706;22.389;5.029;1.825;-2.496;3.129
2338189.859;12.256;6.035;36.471;21.197;1.453;4.433;1.900;5.886
2338189.867;14.566;8.494;39.451;21.644;5.066;2.049;2.757;1.788
2338189.875;20.675;17.434;43.735;29.653;8.643;3.465;8.605;1.080
2338189.883;17.844;14.603;41.574;27.567;7.451;7.004;13.188;1.639
2338189.891;20.154;16.317;43.213;30.510;8.605;14.678;19.558;7.153
2338189.899;27.083;22.054;52.154;35.949;20.005;19.260;22.799;13.150
2338189.907;11.772;7.376;39.265;19.781;8.196;-0.969;0.671;-3.614
2338189.915;7.898;3.688;34.235;16.689;0.000;-7.525;-8.233;-7.041
2338189.923;4.843;-0.149;30.845;12.033;-4.657;-11.325;-14.007;-8.680
2338189.931;10.021;4.843;37.067;15.870;3.502;-3.390;-6.445;1.155
2338189.939;15.013;9.425;41.313;22.277;8.196;-2.049;-6.482;1.900
2338189.947;15.162;9.611;41.313;22.389;7.674;1.192;-4.098;3.651
2338189.955;9.835;3.837;35.837;16.838;-0.335;-0.708;-3.725;-0.708
2338189.963;11.474;5.811;37.327;18.887;2.719;-2.198;-1.863;-3.241
2338189.971;22.277;16.354;47.833;29.281;13.001;8.792;13.113;5.960
2338189.979;24.959;18.924;50.031;32.224;13.709;8.531;14.827;3.576
2338189.987;14.603;7.525;39.339;20.415;2.794;0.186;5.998;-5.700
2338189.995;16.540;9.350;42.021;21.979;5.700;2.906;7.190;-1.006
2338190.003;14.938;6.706;41.127;20.079;4.247;2.012;3.986;0.969
2338189.956;19.446;9.760;46.194;25.369;6.258;3.800;2.906;5.700
2338189.964;14.938;8.568;42.282;21.197;3.204;-2.459;-6.706;2.384
2338189.972;5.998;0.633;34.086;12.666;-5.513;-2.272;-8.568;2.272
2338189.980;3.465;-2.235;32.373;10.170;-7.339;2.049;-4.247;5.886
2338189.988;7.674;1.118;38.221;13.895;-1.714;10.096;6.258;11.660
2338189.996;17.621;10.766;49.658;23.730;9.947;13.784;13.448;13.448
2338190.004;1.080;-6.035;33.304;6.519;-5.662;-1.863;1.341;-2.980
2338190.012;-1.267;-7.339;31.888;5.998;-7.413;-8.717;-3.912;-10.096
2338190.020;2.868;-3.651;36.955;9.574;-3.241;-3.837;0.596;-6.519
2338190.028;6.706;-0.522;39.972;13.299;-1.900;1.602;3.986;-1.751
2338190.036;9.798;0.633;44.517;14.417;4.619;4.657;3.651;5.737
2338190.044;7.264;-2.570;44.033;11.399;3.204;1.378;-1.006;7.264
2338190.052;6.333;-2.719;41.798;11.995;-1.714;-2.310;-4.955;4.098
2338190.060;9.052;0.782;42.468;16.578;-2.980;0.037;-2.123;4.359
2338190.068;5.811;-3.055;39.488;12.591;-3.912;0.149;-2.943;2.421
2338190.076;3.055;-5.625;38.147;9.649;-5.029;-4.023;-6.370;-1.043
2338190.084;12.144;3.539;47.684;19.595;4.284;-3.912;-3.763;-0.931
2338190.092;18.626;8.419;55.283;23.805;12.927;3.278;6.743;4.098
2338190.100;14.715;3.539;53.123;18.775;12.107;1.676;6.072;2.533
2338190.108;2.086;-8.494;40.047;6.780;-2.980;-13.039;-9.090;-11.101
2338190.116;4.768;-5.551;42.357;9.201;-0.969;-11.772;-10.580;-8.456
2338190.124;4.731;-7.302;43.437;5.737;2.421;-7.525;-8.531;-3.278
2338190.132;5.700;-7.674;43.623;5.215;0.000;-5.178;-7.972;0.373
2338190.140;10.952;-2.570;49.323;11.176;5.551;1.155;-3.912;5.215
2338190.134;8.456;-4.210;46.119;10.766;0.782;3.800;-0.410;5.066
2338190.142;13.672;1.267;51.521;16.391;4.508;3.055;0.559;4.098
2338190.150;9.499;-0.149;46.678;14.603;-2.570;0.522;-0.708;1.714
2338190.158;9.909;0.522;46.566;15.534;-3.353;-0.410;0.671;0.186
2338190.166;15.683;4.731;52.825;19.930;3.688;-2.384;1.118;-2.421
2338190.174;12.890;0.931;52.042;14.529;3.912;-4.806;0.559;-7.227
2338190.182;6.035;-5.886;46.343;7.264;-3.465;-6.706;-1.676;-9.537
2338190.190;7.190;-3.725;48.727;10.543;-1.080;-1.378;0.298;-2.459
2338190.198;9.015;-3.092;50.329;13.113;-0.224;5.215;5.141;7.041
2338190.206;4.955;-5.849;44.927;7.004;-6.147;-3.576;-6.221;0.931
2338190.214;2.980;-7.376;42.580;4.731;-8.047;-10.356;-11.474;-5.066
2338190.222;5.215;-6.221;44.145;5.625;-3.092;-9.574;-9.760;-4.284
2338190.230;-0.969;-12.256;33.788;-2.831;-10.394;-14.417;-15.348;-9.164
2338190.238;-3.576;-15.125;26.599;-7.600;-13.262;-19.148;-21.011;-14.268
2338190.246;-2.794;-13.746;23.246;-6.184;-12.368;-14.789;-15.423;-11.399
2338190.254;6.966;-3.949;28.908;3.055;-3.688;-6.109;-3.465;-7.711
2338190.262;10.580;0.112;26.599;7.115;-4.768;1.229;7.153;-2.198
2338190.270;14.715;6.109;26.003;12.480;-0.633;7.711;13.821;5.215
2338190.278;4.359;-3.390;12.815;2.608;-12.405;0.335;3.390;2.645
2338190.286;-9.537;-16.578;-1.602;-12.740;-26.487;-3.390;-4.210;2.086
2338190.294;-12.293;-18.105;-4.023;-14.491;-27.567;-6.072;-7.562;-0.410
2338190.302;-8.866;-13.635;-1.490;-9.909;-23.395;-3.800;-5.066;0.298
2338190.310;-1.788;-8.382;6.109;-4.098;-14.082;4.135;2.421;6.445
2338190.318;-1.155;-6.482;7.711;-4.247;-14.156;2.272;1.714;2.719
2338190.330;-14.491;-19.297;-4.284;-16.354;-28.051;-6.109;-5.700;-6.743
2338190.338;-5.513;-10.803;6.296;-6.557;-16.764;-9.499;-8.307;-8.643
2338190.346;8.941;4.247;20.787;9.499;-3.353;-6.035;-2.608;-4.843
2338190.354;9.388;3.353;22.724;8.382;0.410;-5.327;-0.894;-3.725
2338190.362;4.657;-1.565;19.297;3.800;-3.427;-13.709;-7.972;-12.219
2338190.370;7.749;2.533;23.022;7.339;-1.416;-11.884;-8.531;-7.637
2338190.378;6.594;1.304;21.048;6.184;-4.545;-9.052;-7.451;-1.416
2338190.386;2.980;-2.570;17.956;2.235;-5.551;-10.729;-9.201;-2.608
2338190.394;-0.447;-4.731;13.001;1.080;-13.560;-15.832;-12.890;-8.158
2338190.402;-0.373;-6.333;12.368;1.639;-12.852;-9.984;-5.700;-3.912
2338190.410;5.439;0.671;19.111;7.935;-4.433;-9.872;-4.210;-5.476
2338190.418;4.582;2.235;18.068;8.829;-6.966;-13.001;-6.296;-11.735
2338190.426;1.825;-0.559;15.758;5.737;-7.935;-8.643;-2.645;-9.909
2338190.434;2.384;-0.857;16.652;4.619;-6.966;-7.525;-3.316;-8.494
2338190.442;13.821;10.468;29.020;16.727;4.172;-0.261;4.210;-0.335
2338190.450;10.766;7.823;26.599;15.087;1.676;-6.221;-3.837;-4.284
2338190.458;0.931;-3.204;17.323;3.278;-8.419;-12.107;-12.331;-8.568
2338190.466;15.423;9.649;31.367;16.168;5.811;0.708;0.447;6.035
2338190.474;7.749;3.763;24.289;7.004;-2.421;-4.917;-5.141;0.298
2338190.482;1.341;-4.135;19.409;-1.267;-6.594;-3.800;-4.470;-0.149
2338190.490;2.198;-2.310;21.234;1.416;-1.527;3.353;3.241;4.694
2338190.498;2.123;-0.931;20.452;3.725;-2.943;5.588;5.588;4.843
2338190.506;-3.166;-7.972;15.497;-4.061;-7.488;3.651;3.614;2.459
2338190.514;0.484;-5.886;19.372;-1.863;-4.210;3.986;5.141;2.794
2338190.556;-0.745;-6.109;16.950;-4.768;-6.817;5.737;7.115;3.651
2338190.564;1.974;-3.092;18.068;-4.470;-3.278;5.513;3.949;3.614
2338190.572;10.282;5.104;26.599;6.109;6.519;13.337;9.872;10.505
2338190.580;14.976;11.772;27.493;15.013;3.986;23.432;20.005;20.936
2338190.588;10.692;7.674;23.209;10.394;2.161;20.750;19.707;18.515
2338190.596;14.119;9.574;28.424;11.399;8.158;15.423;15.572;13.672
2338190.604;13.895;8.680;27.232;10.990;5.998;17.434;18.217;17.621
2338190.612;-2.161;-6.482;12.331;-5.215;-6.929;6.147;7.078;6.296
2338190.620;-10.394;-13.895;3.725;-11.213;-15.162;-2.272;0.224;-3.055
2338190.628;-13.188;-15.646;0.037;-12.442;-18.813;-0.335;2.049;-2.384
2338190.636;-5.476;-7.041;8.456;-3.055;-9.611;2.086;4.619;-1.006
2338190.644;1.453;1.080;12.517;4.619;-7.004;9.164;14.119;3.912
2338190.652;8.084;7.153;19.893;9.276;2.496;12.778;18.403;5.774
2338190.660;7.153;6.966;19.297;9.164;-0.633;10.692;16.019;3.427
2338190.668;12.964;11.995;27.008;14.678;7.153;12.778;18.217;9.239
2338190.676;10.580;8.047;26.003;10.356;8.605;12.368;15.423;13.001
2338190.684;2.086;-0.820;16.801;1.043;-3.092;6.445;8.345;11.548
2338190.692;3.278;0.224;19.819;2.980;-0.708;4.955;6.557;12.144
2338190.700;-0.894;-4.321;16.429;-1.565;-5.551;6.557;8.792;12.778
2338190.708;-1.825;-4.545;14.566;-1.043;-7.600;12.331;14.864;18.403
2338190.716;-15.646;-17.881;1.676;-15.311;-16.242;-2.496;-0.484;3.502
2338190.724;-5.737;-7.898;10.356;-6.407;-10.878;-0.708;1.080;3.614
2338190.732;5.029;0.969;20.303;4.843;-1.639;4.359;7.935;5.849
2338190.740;-8.419;-12.107;6.072;-10.505;-15.423;-8.829;-3.316;-9.164
2338190.795;2.831;-1.825;17.136;-2.421;-4.694;-5.439;-1.565;-5.029
2338190.803;11.474;6.855;27.902;7.488;4.098;-3.427;-1.155;-0.708
2338190.811;4.135;-1.043;19.632;-0.075;-4.321;-1.900;0.149;2.496
2338190.819;2.608;-3.465;18.030;-2.757;-5.700;0.969;4.657;6.370
2338190.827;1.900;-6.258;18.999;-5.029;-1.378;7.711;12.964;12.070
2338190.835;7.860;3.427;23.618;2.049;0.596;10.952;15.609;12.405
2338190.843;-6.706;-10.766;8.419;-12.890;-14.789;2.123;4.284;2.943
2338190.851;1.863;-4.247;19.185;-6.631;-3.427;7.227;7.860;9.611
2338190.859;3.837;-2.310;21.122;-3.353;-5.439;4.023;3.912;8.196
2338190.867;-0.447;-6.407;17.174;-7.041;-10.468;0.037;-0.298;5.588
2338190.875;4.359;-2.049;21.309;-2.049;-6.817;1.565;2.682;5.290
2338190.883;8.382;3.614;25.742;3.427;-1.527;6.855;7.972;6.743
2338190.891;9.909;3.502;28.312;2.347;-0.373;5.662;4.545;5.178
2338190.899;16.689;10.319;34.980;9.686;4.321;8.494;8.643;10.580
2338190.907;18.328;12.740;37.700;14.007;6.706;9.872;12.107;13.448
2338190.915;18.664;12.331;39.414;13.411;10.207;16.354;19.111;19.446
2338190.923;0.671;-5.737;21.756;-5.439;-8.196;8.047;13.225;9.127
2338190.931;-2.906;-9.537;18.813;-9.425;-12.293;-0.037;7.935;-0.037
2338190.939;2.868;-3.241;24.885;-1.043;-5.215;-6.109;3.241;-4.657
2338190.947;2.868;-3.278;24.512;1.192;-6.743;-13.113;-4.806;-11.884
2338190.955;2.570;-1.304;22.836;-0.037;-9.947;-16.429;-11.623;-14.529
2338190.963;12.740;6.780;34.682;7.339;7.115;-9.947;-7.451;-5.178
2338190.971;10.505;3.539;31.814;5.290;2.347;-9.835;-8.792;-1.788
2338190.979;0.447;-6.147;22.389;-4.321;-6.929;-12.852;-12.740;-2.049
2338190.930;-7.749;-15.087;15.609;-13.560;-14.044;-13.150;-11.586;-3.614
2338190.938;-6.631;-14.193;18.105;-13.709;-10.505;-11.474;-6.780;-6.035
2338190.946;-4.694;-10.207;18.887;-8.903;-12.368;-4.731;2.794;-3.874
2338190.954;-5.364;-10.394;19.893;-9.611;-9.537;3.092;10.394;0.931
2338190.962;15.460;9.686;39.786;11.101;8.680;18.962;26.934;15.460
2338190.970;-1.714;-6.892;22.016;-3.427;-9.947;5.402;14.380;3.055
2338190.978;-13.411;-17.844;11.027;-13.001;-21.420;-9.239;-1.490;-9.537
2338190.986;-12.964;-17.062;11.250;-11.995;-20.154;-10.319;-4.731;-7.115
2338190.994;-11.735;-17.211;13.188;-12.107;-18.664;-14.156;-9.462;-10.245
2338191.002;0.186;-4.061;28.461;-2.608;-2.645;-17.919;-13.709;-13.225
2338191.010;2.906;-2.310;32.037;2.496;2.868;-15.758;-11.325;-10.990
2338191.018;2.459;-3.502;30.436;2.272;-0.037;-11.288;-7.749;-4.284
2338191.026;7.898;3.092;34.869;9.350;1.751;-5.290;-0.410;2.570
2338191.034;-5.178;-8.792;20.973;-1.825;-12.144;-9.015;-2.868;-1.714
2338191.042;-6.855;-11.437;20.638;-5.066;-12.480;-11.027;-3.725;-5.104
2338191.050;0.745;-3.651;28.834;3.427;-3.427;-7.227;0.894;-1.676
2338191.058;1.267;-3.800;28.647;3.502;-4.172;-8.196;-0.633;-3.725
2338191.066;-1.192;-8.084;26.636;-0.820;-8.196;-13.262;-7.041;-11.362
2338191.074;7.041;-0.186;35.949;5.327;-0.559;-4.023;0.931;-3.763
2338191.082;-0.484;-7.898;29.691;-2.645;-4.359;-7.600;-3.949;-7.153
2338191.090;0.894;-6.892;33.379;-0.335;-0.857;-11.660;-8.158;-8.270
2338191.098;5.402;-0.931;38.967;6.929;0.559;-17.472;-13.523;-9.835
2338191.106;-0.149;-6.892;35.390;1.341;-3.427;-19.819;-13.597;-11.399
2338191.114;-8.307;-15.683;26.785;-6.557;-11.139;-19.707;-12.219;-14.007
2338191.110;-3.353;-7.264;31.181;-1.751;-9.611;-11.027;-3.055;-9.649
2338191.118;-3.278;-6.519;30.436;0.037;-14.156;-1.267;6.333;-3.092
2338191.126;-5.811;-9.276;28.424;-2.868;-8.382;1.043;6.631;1.006
2338191.134;-12.405;-16.242;21.607;-10.617;-14.715;-7.041;-3.316;-3.390
2338191.142;-7.264;-11.362;25.220;-5.662;-11.064;-5.290;-1.341;0.745
2338191.150;-14.231;-19.744;16.168;-16.280;-13.970;-12.144;-7.264;-5.662
2338191.158;-21.197;-27.679;4.359;-24.885;-22.948;-24.326;-18.068;-19.222
2338191.166;-19.893;-25.593;0.894;-21.607;-21.458;-26.040;-19.670;-20.713
2338191.174;-22.836;-28.908;-6.109;-25.854;-23.395;-17.695;-12.629;-12.405
2338191.182;-16.876;-24.252;-3.949;-22.911;-18.701;-6.929;-2.757;-2.012
2338191.190;-18.403;-21.607;-9.574;-23.991;-21.048;-7.339;-3.278;-4.731
2338191.198;-17.509;-20.079;-11.697;-22.240;-20.750;-1.527;2.608;-2.012
2338191.206;-8.419;-11.399;-3.576;-10.915;-13.039;7.860;13.262;5.141
2338191.214;-14.119;-14.566;-7.972;-13.709;-16.391;6.407;11.586;4.098
2338191.222;-12.629;-13.262;-5.849;-13.225;-11.660;4.843;8.531;5.215
2338191.230;-1.267;-2.272;4.545;-1.416;-3.502;10.654;14.156;11.176
2338191.238;10.729;9.611;18.589;11.846;11.660;20.228;22.985;20.713
2338191.246;-1.229;-1.118;8.047;2.794;0.671;14.752;20.303;13.188
2338191.254;-12.405;-11.995;-2.049;-7.153;-10.133;6.855;14.156;4.880
2338191.262;-16.242;-16.838;-7.376;-11.660;-16.019;6.855;13.337;4.545
2338191.270;-8.456;-8.270;0.335;-2.682;-10.431;15.423;20.079;11.772
2338191.278;3.278;5.849;13.113;7.451;1.490;22.873;26.450;17.956
2338191.286;-6.147;-4.545;5.104;-1.043;-8.121;16.987;19.297;11.846
2338191.294;-4.582;-3.204;9.015;1.304;-5.700;13.672;17.136;7.898
2338191.322;-1.155;0.931;12.070;6.817;-4.731;9.686;14.156;5.327
2338191.330;-9.611;-8.829;6.445;-4.843;-7.227;0.782;5.104;0.224
2338191.338;-14.417;-15.274;2.496;-12.033;-10.803;-4.843;-1.267;-2.608
2338191.346;-1.714;-2.645;15.423;1.602;1.155;9.425;10.915;11.288
2338191.354;-6.221;-5.178;12.070;-1.788;-2.384;11.921;11.250;13.523
2338191.362;-14.901;-12.107;3.465;-9.090;-11.846;5.327;3.725;5.402
2338191.370;-15.832;-13.374;4.843;-9.499;-9.201;8.829;7.041;7.674
2338191.378;-20.117;-18.105;1.825;-13.635;-10.990;8.047;5.849;7.972
2338191.386;-24.587;-21.271;-1.788;-15.944;-16.429;3.390;1.378;4.210
2338191.394;-23.954;-19.558;-0.559;-13.635;-16.354;1.863;1.863;3.129
2338191.402;-15.870;-12.964;8.829;-6.482;-5.402;7.562;9.686;8.605
2338191.410;-17.807;-15.870;7.004;-8.680;-8.643;2.980;6.668;3.166
2338191.418;-9.574;-7.786;13.448;2.198;-4.917;1.043;4.955;2.496
2338191.426;1.043;5.886;23.134;13.448;6.966;9.835;12.740;13.635
2338191.434;-20.005;-14.529;0.112;-7.860;-14.752;-6.072;-3.502;-2.012
2338191.442;-27.940;-23.097;-7.786;-15.907;-21.569;-4.731;-2.570;-2.123
2338191.450;-20.526;-16.913;1.490;-10.133;-10.170;1.006;1.565;4.321
2338191.458;-18.328;-15.870;2.533;-8.717;-9.537;2.384;3.465;4.023
2338191.466;-19.930;-17.136;0.373;-8.047;-13.076;4.284;7.413;4.061
2338191.474;-16.876;-10.431;3.688;-3.166;-8.680;10.617;15.460;8.270
2338191.482;-21.867;-14.231;-3.129;-6.296;-13.448;3.576;10.133;0.186
2338191.490;-21.309;-14.417;-3.055;-5.104;-9.425;2.682;8.605;0.931
2338191.498;-8.978;-5.104;10.729;2.757;3.651;10.803;14.789;11.213
2338191.506;-13.262;-11.697;7.823;-5.700;-1.192;4.619;9.723;5.588
2338191.501;-16.317;-13.039;4.135;-6.668;-5.588;1.751;8.792;2.906
2338191.509;-17.211;-14.193;2.719;-8.456;-6.668;1.341;6.557;3.017
2338191.517;-24.140;-20.042;-4.731;-13.076;-14.938;-2.384;0.298;-1.490
2338191.525;-18.142;-14.044;0.820;-6.296;-8.941;0.745;2.868;1.155
2338191.533;-18.775;-15.050;1.080;-8.047;-7.190;2.272;3.949;2.831
2338191.541;-12.405;-8.233;8.121;-0.633;-0.149;1.602;2.272;2.906
2338191.549;-18.999;-13.486;1.155;-3.539;-7.562;-5.402;-6.221;-4.023
2338191.557;-19.036;-14.044;1.453;-3.204;-7.823;2.906;2.347;4.061
2338191.565;-8.605;-4.470;14.119;6.296;5.737;18.068;17.211;19.334
2338191.573;-5.513;-1.267;18.328;10.058;10.729;16.615;16.913;17.397
2338191.581;-15.832;-11.437;6.743;-0.931;-1.416;11.437;13.672;9.462
2338191.589;-13.448;-9.313;8.531;2.980;-3.502;4.433;8.680;1.602
2338191.597;-15.907;-10.207;7.004;1.565;-3.465;5.588;8.754;4.619
2338191.605;-21.793;-14.827;2.310;-3.725;-7.600;3.688;5.513;4.806
2338191.613;-18.813;-11.027;4.284;0.931;-8.903;5.513;6.668;6.817
2338191.621;-10.617;-4.247;13.746;6.892;1.602;11.697;11.623;13.784
2338191.629;-3.502;0.522;22.538;12.890;10.096;21.085;20.340;24.177
2338191.637;-17.248;-11.101;10.058;-1.118;-1.341;0.969;0.671;6.333
2338191.645;-16.242;-11.101;11.288;-0.857;-0.596;-3.129;-3.278;1.565
2338191.653;-12.890;-7.488;12.964;3.017;-0.559;1.602;2.421;4.619
2338191.661;-25.816;-19.893;0.298;-10.133;-13.635;-2.347;-1.192;0.224
2338191.669;-34.273;-29.542;-5.625;-20.489;-19.148;-8.419;-6.966;-4.843
2338191.677;-20.601;-15.572;8.717;-6.258;-5.662;-2.310;-0.447;1.937
2338191.685;-22.799;-17.807;5.886;-8.382;-7.004;-6.594;-5.662;-0.969
2338191.665;-27.046;-22.724;1.304;-13.076;-12.591;-12.778;-11.697;-5.774
2338191.673;-18.626;-15.870;10.692;-7.041;-5.253;-6.817;-6.072;-0.745
2338191.681;-19.781;-17.285;10.729;-8.382;-3.427;-0.820;-0.075;4.023
2338191.689;-14.007;-11.064;15.162;-2.161;-0.484;3.651;3.986;6.929
2338191.697;-9.686;-5.737;17.919;3.800;-1.639;-1.676;-0.820;1.118
2338191.705;-13.895;-8.941;12.405;2.384;-5.662;0.149;1.378;0.671
2338191.713;-14.789;-11.362;12.964;-0.410;-2.906;1.825;2.459;1.006
2338191.721;-8.792;-8.196;21.532;0.037;6.780;3.241;3.688;1.974
2338191.729;-1.974;-0.969;30.138;7.600;15.162;5.364;7.451;3.800
2338191.737;-4.247;-3.912;28.685;4.433;12.219;4.992;6.966;5.029
2338191.745;-8.121;-9.015;26.114;-1.937;10.580;-4.247;-2.123;-0.522
2338191.753;-8.903;-9.649;25.220;-2.719;10.505;-9.276;-5.998;-3.837
2338191.761;-13.150;-12.554;19.819;-5.923;2.608;-15.572;-13.039;-8.978
2338191.769;-21.160;-19.968;13.374;-13.448;-4.023;-20.340;-18.589;-12.740
2338191.777;-19.521;-19.185;15.236;-11.809;-3.725;-16.987;-15.311;-10.133
2338191.785;-13.784;-13.672;19.781;-6.668;-1.416;-11.548;-10.915;-6.035
2338191.793;-17.770;-18.179;16.391;-12.331;-2.831;-14.529;-13.597;-9.462
2338191.801;-11.958;-13.150;21.830;-6.892;3.017;-9.462;-5.700;-4.955
2338191.809;-8.568;-9.574;23.730;-1.714;1.714;-2.943;-0.298;0.633
2338191.817;-6.706;-7.413;27.046;0.037;7.376;1.490;4.470;2.012
2338191.825;-2.161;-3.800;32.522;1.863;12.331;2.570;6.855;1.639
2338191.833;-4.321;-5.178;31.479;-0.671;12.070;0.447;3.204;0.149
2338191.841;-6.594;-7.786;27.865;-2.384;7.600;2.980;3.465;3.651
2338191.849;-8.494;-10.654;24.512;-5.476;3.688;2.645;1.490;4.023
2338191.875;-1.825;-4.880;30.771;0.000;7.898;4.694;3.576;6.557
2338191.883;11.027;8.084;43.809;12.591;20.489;10.952;10.282;11.101
2338191.891;2.198;-1.602;37.849;1.863;16.205;5.104;4.247;4.768
2338191.899;12.107;8.605;49.025;13.299;27.679;11.623;12.852;10.543
2338191.907;7.860;4.880;43.809;10.841;19.930;9.909;11.846;8.419
2338191.915;-3.055;-8.233;35.912;-1.825;13.672;-3.614;-0.484;-3.539
2338191.923;3.614;0.149;42.319;3.688;17.434;-5.141;-2.757;-2.272
2338191.931;9.164;6.333;46.901;10.319;20.638;-4.135;-1.900;0.373
2338191.939;2.570;-0.484;38.929;3.874;8.866;-9.201;-4.955;-4.135
2338191.947;5.513;1.863;42.990;7.302;15.050;-9.052;-3.427;-4.433
2338191.955;13.635;9.723;52.005;15.907;23.395;-4.806;1.602;-2.012
2338191.963;17.360;14.268;56.215;21.607;26.897;-4.582;3.651;-2.831
2338191.971;3.949;1.006;42.208;8.419;12.591;-10.654;-2.980;-8.754
2338191.979;-7.153;-10.543;31.404;-3.688;3.204;-11.884;-4.917;-8.605
2338191.987;7.115;3.166;47.982;9.164;21.234;-1.341;3.912;3.055
2338191.995;0.261;-2.757;39.637;3.800;9.984;-11.027;-7.264;-7.078
2338192.003;-9.760;-13.486;28.759;-8.978;3.651;-14.044;-11.623;-10.468
2338192.011;2.086;-2.310;38.669;0.149;17.956;-4.359;-2.049;-1.192
2338192.019;13.001;8.866;43.064;9.909;23.954;2.421;4.917;7.451
2338192.027;-2.347;-8.456;22.128;-7.823;6.817;-2.682;-1.267;3.912
2338192.035;-9.127;-13.299;13.486;-16.689;5.513;-4.321;-3.316;2.980
2338192.043;-1.490;-3.427;17.062;-6.817;10.543;-5.104;-2.794;2.123
2338192.051;2.235;0.782;18.142;-3.427;14.566;-3.390;-2.198;2.570
2338192.059;-11.958;-12.666;1.490;-18.328;0.820;-12.033;-11.846;-7.637
2338192.040;-14.119;-14.715;-3.278;-19.930;-1.080;-9.127;-8.307;-4.061
2338192.048;-15.609;-15.758;-6.743;-20.526;-5.513;-7.190;-7.637;-2.198
2338192.056;-2.533;-1.863;4.806;-6.184;5.513;-4.806;-4.321;0.112
2338192.064;-1.341;-1.080;6.892;-4.433;8.643;-3.949;-2.831;0.112
2338192.072;-1.602;-1.267;7.153;-3.763;8.941;-0.894;0.969;3.986
2338192.080;16.131;17.509;24.959;16.466;24.587;9.798;13.784;13.001
2338192.088;0.596;2.719;8.941;1.527;6.221;0.969;6.184;1.937
2338192.096;1.416;3.241;10.692;1.639;9.127;-0.894;6.072;0.857
2338192.104;0.633;3.241;10.282;2.310;7.376;-3.949;2.570;-1.192
2338192.112;-1.900;0.447;8.792;1.006;3.576;-8.456;-4.470;-4.210
2338192.120;-1.490;0.522;10.617;-0.224;5.402;-3.800;-1.267;1.229
2338192.128;6.743;7.935;18.030;6.855;13.076;5.364;7.413;9.872
2338192.136;3.725;4.992;14.603;4.582;7.600;-3.166;-1.490;0.186
2338192.144;-1.565;-2.012;10.729;-1.155;4.917;-8.456;-7.115;-4.619
2338192.152;-0.671;-1.825;11.325;-0.596;5.662;-9.313;-7.302;-2.906
2338192.160;-1.825;-0.857;10.543;-2.198;5.811;-8.307;-6.817;-0.782
2338192.168;3.688;3.166;17.658;1.900;15.125;-2.570;-1.080;2.757
2338192.176;8.643;6.668;24.997;4.955;24.103;1.341;3.688;4.433
2338192.184;10.952;7.600;28.871;6.743;25.518;-2.123;1.565;0.857
2338192.192;20.415;17.323;37.476;16.354;30.734;3.465;7.637;7.153
2338192.200;3.278;0.596;20.675;-1.006;14.007;-11.176;-10.245;-4.098
2338192.208;-10.319;-12.927;7.972;-13.597;0.186;-25.220;-26.152;-15.795
2338192.216;0.596;-1.974;17.323;-1.527;8.792;-21.420;-22.128;-12.368
2338192.224;6.109;2.719;20.713;3.055;12.256;-12.740;-12.405;-5.104
2338192.235;1.714;-0.559;14.454;-1.304;7.600;-3.949;-2.980;1.267
2338192.243;6.966;5.998;19.334;3.166;15.497;0.559;2.943;2.831
2338192.251;14.305;12.740;24.922;11.548;17.844;2.272;7.264;1.490
2338192.259;15.907;14.082;26.301;13.262;17.360;3.837;10.617;1.751
2338192.267;13.113;11.660;23.805;9.947;16.093;0.671;7.115;0.447
2338192.275;11.772;10.394;22.538;7.562;17.248;-0.075;3.129;3.316
2338192.283;3.725;1.974;15.758;-2.086;12.890;-4.582;-4.061;0.373
2338192.291;-2.682;-4.247;10.878;-7.339;8.009;-14.342;-12.480;-8.866
2338192.299;2.384;4.023;15.423;-0.261;11.772;-13.784;-11.176;-6.668
2338192.307;-2.161;-1.118;9.499;-4.619;5.588;-10.990;-10.319;-4.806
2338192.315;2.272;1.676;14.715;-1.714;12.182;-5.476;-6.184;0.298
2338192.323;10.021;9.611;22.575;6.668;19.334;1.192;2.347;5.811
2338192.331;6.855;6.743;18.328;4.843;14.938;3.241;7.525;5.104
2338192.339;-1.304;-3.390;11.064;-4.955;6.296;-3.092;4.247;-4.098
2338192.347;9.276;6.445;23.581;4.247;19.856;3.763;12.293;1.453
2338192.355;12.033;9.388;26.673;5.998;22.799;11.958;17.919;11.511
2338192.363;0.782;-1.118;15.497;-5.364;11.139;-2.794;1.267;1.639
2338192.371;-2.794;-3.502;10.841;-6.445;3.465;-9.350;-6.892;-0.969
2338192.379;-6.184;-6.594;6.333;-8.978;-2.272;-15.832;-14.454;-4.731
2338192.387;-1.825;-1.602;9.947;-3.874;3.614;-16.987;-14.417;-8.717
2338192.395;7.115;7.749;16.838;5.923;8.531;-12.703;-8.009;-7.674
2338192.403;10.133;10.096;20.899;7.413;13.709;-7.153;-2.198;-2.980
2338192.411;12.182;11.250;22.352;9.537;11.809;-4.657;1.639;-3.166
2338192.419;12.368;11.362;21.793;9.090;10.729;3.353;8.941;3.129
2338192.446;16.131;14.976;26.263;13.411;15.870;8.419;14.193;5.923
2338192.454;11.064;9.239;22.165;8.941;12.852;8.531;13.150;4.880
2338192.462;2.645;2.831;16.466;-1.229;9.686;3.129;3.539;5.513
2338192.470;-11.548;-11.250;1.565;-14.789;-9.090;-8.531;-11.437;-0.857
2338192.478;-21.197;-22.240;-6.557;-25.444;-14.454;-14.938;-19.521;-4.284
2338192.486;-11.399;-13.076;4.284;-17.099;-4.098;-5.774;-9.090;2.794
2338192.494;-6.035;-6.109;10.282;-7.860;-1.304;-2.310;-3.316;3.353
2338192.502;-8.866;-8.829;9.350;-11.176;-1.974;-4.508;-4.135;-1.267
2338192.510;-6.929;-7.525;11.474;-11.399;-0.447;5.066;6.519;7.339
2338192.518;-1.974;-1.900;14.789;-4.955;1.825;1.043;4.582;2.608
2338192.526;-7.935;-8.568;8.531;-11.474;-3.949;-7.227;-4.321;-6.668
2338192.534;-4.843;-5.551;11.474;-7.711;-1.714;-2.645;-1.229;-3.800
2338192.542;1.825;1.341;18.775;-0.782;3.502;2.272;2.682;1.863
2338192.550;-5.066;-6.258;11.362;-8.941;-5.253;-7.711;-8.345;-4.023
2338192.558;-6.780;-8.866;10.654;-12.740;-2.421;-13.784;-15.497;-4.843
2338192.566;-11.213;-12.927;4.247;-16.168;-12.554;-20.415;-22.352;-10.096
2338192.574;-10.952;-11.958;4.061;-14.380;-14.044;-18.403;-21.420;-9.127
2338192.582;-6.743;-8.419;8.419;-10.692;-9.723;-10.990;-13.299;-4.284
2338192.590;-12.517;-11.884;1.304;-17.360;-16.578;-8.978;-10.505;-5.253
2338192.598;-10.878;-10.990;4.247;-15.646;-12.256;-4.061;-4.359;-3.390
2338192.606;-9.723;-9.723;7.078;-13.895;-8.941;-3.725;-1.937;-5.066
2338192.614;-10.282;-11.288;6.966;-16.019;-12.033;-8.419;-4.955;-11.064
2338192.622;-5.811;-6.929;9.798;-11.921;-11.325;-7.600;-4.023;-10.356
2338192.630;-7.004;-8.866;8.233;-13.448;-12.554;-10.654;-9.276;-12.554
2338192.670;2.906;0.037;18.589;-5.923;-2.161;-3.353;-4.768;-2.570
2338192.678;-6.109;-7.898;9.164;-15.087;-10.692;-4.694;-9.611;-0.931
2338192.686;-2.049;-3.017;14.640;-10.058;-3.986;-4.731;-12.405;2.086
2338192.694;1.267;-0.596;17.844;-6.445;-2.719;0.298;-7.488;8.345
2338192.702;4.508;2.868;20.936;-2.086;-1.751;-0.671;-3.390;5.290
2338192.710;12.815;12.815;27.195;10.058;0.522;-4.731;-1.863;-2.198
2338192.718;-4.321;-5.886;9.164;-8.121;-17.211;-15.199;-10.207;-15.981
2338192.726;2.272;1.825;17.211;-4.321;-8.047;-4.023;1.900;-6.929
2338192.734;4.098;4.508;19.446;-0.075;-8.009;-7.600;-0.298;-10.431
2338192.742;7.898;8.531;22.575;5.476;-5.886;-7.711;-1.565;-9.499
2338192.750;12.219;12.591;28.126;8.382;0.671;-1.565;3.017;-3.129
2338192.758;10.356;8.345;27.902;2.570;-1.974;-8.121;-6.184;-5.476
2338192.766;7.749;3.278;25.444;-1.229;-6.035;-15.423;-15.050;-8.419
2338192.774;7.376;4.545;23.842;-1.974;-6.743;-8.717;-11.362;-2.980
2338192.782;-0.745;-2.123;16.205;-8.680;-14.752;-2.943;-6.221;-0.782
2338192.790;-2.757;-5.253;16.056;-11.399;-16.615;-7.637;-10.282;-6.743
2338192.798;9.090;5.066;28.796;-0.671;-4.061;-2.235;-4.694;-1.788
2338192.806;22.464;19.670;42.431;13.597;9.835;10.952;10.505;10.394
2338192.814;22.203;18.962;38.147;13.411;7.786;7.078;7.451;5.290
2338192.822;11.213;6.519;21.718;0.373;-1.639;-10.096;-8.158;-12.927
2338192.830;15.050;9.388;21.346;2.645;1.416;-12.219;-8.047;-15.944
2338192.838;6.855;2.347;8.047;-5.402;-9.276;-16.540;-10.766;-21.681
2338192.846;2.347;-1.378;-1.192;-11.101;-12.927;-14.715;-10.990;-17.174
2338192.854;-0.298;-5.923;-7.674;-16.093;-14.082;-12.219;-12.815;-10.580
2338192.834;-0.335;-5.513;-11.958;-16.652;-14.380;-8.941;-12.144;-5.215
2338192.842;8.829;4.098;-7.376;-6.855;-5.849;-5.737;-9.686;-2.198
2338192.850;5.364;1.602;-14.417;-11.399;-9.127;-0.857;-4.917;0.931
2338192.858;1.527;-2.384;-18.589;-16.764;-11.548;0.112;-4.023;1.788
2338192.866;10.580;7.004;-10.915;-6.258;-3.763;-4.545;-7.078;-2.459
2338192.874;7.600;5.811;-15.013;-6.557;-7.637;-4.061;-5.104;-2.719
2338192.882;7.041;4.172;-15.497;-8.307;-4.619;-2.533;-3.278;-3.651
2338192.890;14.678;12.182;-7.190;-1.714;4.806;-1.453;-3.017;-5.141
2338192.898;19.819;18.626;-0.820;4.396;6.966;-3.465;-5.439;-6.184
2338192.906;19.558;17.770;-1.378;4.731;4.396;-6.333;-7.264;-7.264
2338192.914;4.321;1.080;-15.870;-10.766;-7.637;-10.282;-12.368;-7.637
2338192.922;4.508;0.633;-13.411;-11.995;-5.141;-5.960;-10.654;-1.639
2338192.930;15.721;13.746;-0.186;0.671;4.917;4.657;-1.825;7.637
2338192.938;6.780;4.023;-6.966;-9.313;-2.347;-2.533;-8.047;-0.224
2338192.946;3.763;-0.671;-10.133;-12.554;-6.557;0.112;-5.439;1.714
2338192.954;6.147;1.825;-6.333;-11.064;-3.800;-2.496;-8.494;0.410
2338192.962;8.233;4.210;-3.539;-8.978;0.447;-2.496;-6.445;0.484
2338192.970;11.511;8.605;-0.671;-2.161;0.037;-1.639;-2.794;-1.863
2338192.978;12.852;11.362;1.118;1.974;1.565;-1.900;-1.565;-4.955
2338192.986;27.902;25.444;17.844;15.423;19.930;10.803;10.915;8.419
2338192.994;21.830;18.775;13.560;7.339;13.411;3.539;2.310;5.551
2338193.002;9.611;6.668;1.527;-3.986;-1.155;-8.829;-12.368;-1.900
2338193.010;7.488;3.949;1.267;-6.370;0.075;-4.135;-9.015;3.129
2338193.018;11.437;7.227;7.004;-4.023;6.184;2.496;-3.427;8.345
2338192.941;11.958;6.147;7.711;-6.631;5.960;4.731;-1.527;9.276
2338192.949;19.670;14.156;15.236;2.310;12.442;9.723;4.172;13.188
2338192.957;19.222;12.815;15.311;-0.335;10.841;6.184;1.192;9.499
2338192.965;15.274;9.239;11.437;-4.619;7.004;0.745;-2.272;3.614
2338192.973;12.107;7.041;6.743;-6.966;3.129;-2.757;-5.402;0.000
2338192.981;14.156;8.419;7.227;-6.184;1.192;-7.488;-11.250;-2.421
2338192.989;20.489;14.976;13.337;-0.373;10.282;-2.161;-6.557;3.539
2338192.997;20.899;16.429;12.890;1.453;9.686;-3.763;-7.637;1.863
2338193.005;13.858;9.835;3.800;-4.359;-2.906;-8.494;-12.629;-2.123
2338193.013;15.199;10.170;6.258;-5.104;2.384;-1.453;-6.557;3.539
2338193.021;13.635;7.786;6.184;-8.382;3.725;2.980;-3.204;6.966
2338193.029;13.709;6.668;6.631;-9.350;4.023;1.974;-4.917;5.849
2338193.037;11.250;3.129;4.470;-11.064;2.533;4.172;-1.527;9.425
2338193.045;13.448;7.860;7.935;-8.978;5.513;6.221;1.937;12.405
2338193.053;10.245;4.247;5.066;-11.735;3.800;-2.682;-6.258;3.316
2338193.061;5.886;0.149;-1.229;-13.113;-6.817;-9.015;-13.001;-3.502
2338193.069;15.236;10.505;8.419;-2.161;0.633;-3.427;-6.445;1.676
2338193.077;16.615;11.027;9.984;-0.261;2.049;-8.158;-10.058;-2.980
2338193.085;10.021;6.482;2.980;-6.780;-4.359;-12.591;-12.815;-6.743
2338193.093;14.119;11.735;6.594;-1.974;-1.080;-2.682;-1.900;2.272
2338193.101;14.603;13.448;7.004;2.496;0.931;2.794;1.043;7.823
2338193.109;17.062;15.572;9.686;4.917;1.788;7.227;2.906;10.878
2338193.117;11.772;9.798;4.880;-0.261;-3.837;1.937;-3.092;5.215
2338193.125;12.554;8.754;8.084;0.410;0.447;1.676;-3.055;5.700
2338193.136;6.929;5.029;2.794;-5.141;-3.465;-1.192;-5.029;1.453
2338193.144;13.635;12.256;9.276;2.831;3.166;-1.565;-2.533;1.229
2338193.152;17.285;16.429;12.033;9.164;1.900;-3.800;-1.341;-1.453
2338193.160;11.660;10.021;8.531;2.533;1.267;-13.672;-10.915;-12.219
2338193.168;11.325;8.717;8.382;1.676;2.757;-8.978;-6.631;-8.047
2338193.176;13.113;11.362;10.990;4.694;4.880;-1.676;-0.112;0.410
2338193.184;10.096;8.568;6.817;0.931;-0.261;3.353;1.192;5.029
2338193.192;6.706;4.359;2.310;-2.384;-3.316;7.749;3.949;7.562
2338193.200;13.560;11.548;8.084;6.855;-0.447;11.064;7.786;9.723
2338193.208;16.354;14.566;11.735;10.245;4.508;10.356;9.537;9.052
2338193.216;15.497;15.274;10.952;10.021;3.092;4.992;6.892;4.210
2338193.224;19.483;17.881;16.354;13.672;9.686;-2.347;0.224;-0.596
2338193.232;16.466;14.752;13.262;10.766;4.135;-6.258;-4.731;-3.353
2338193.240;11.288;9.462;8.568;5.215;-1.192;-10.841;-11.437;-5.923
2338193.248;16.391;14.603;13.970;9.388;5.625;-1.676;-4.023;2.608
2338193.256;7.525;6.035;3.837;1.453;-5.402;-0.037;-3.017;3.614
2338193.264;1.267;-0.671;-2.384;-6.035;-12.107;2.421;1.006;6.035
2338193.272;0.559;-1.453;-0.559;-6.817;-9.947;1.863;1.639;5.849
2338193.280;6.147;3.166;5.774;-1.378;-3.055;-0.224;0.335;6.072
2338193.288;4.023;4.172;3.017;-0.708;-5.215;-0.522;0.633;4.284
2338193.296;-2.496;-2.086;-3.800;-6.370;-12.554;-1.192;-0.931;0.671
2338193.304;-1.080;-0.559;-1.639;-3.725;-10.617;-4.210;-5.290;-1.453
2338193.312;1.863;1.565;0.410;-1.080;-8.903;-4.917;-6.855;-0.894
2338193.320;8.419;7.227;6.929;4.061;-3.837;-8.121;-9.574;-3.837
2338193.331;17.956;17.434;18.179;13.262;8.345;-3.316;-3.912;-2.310
2338193.339;21.718;20.601;21.197;15.721;9.611;9.462;5.290;8.047
2338193.347;15.944;13.858;15.795;8.456;5.066;16.429;10.505;16.056
2338193.355;10.133;7.935;11.623;2.198;1.416;15.758;10.915;16.801
2338193.363;4.359;2.868;6.072;-1.043;-7.413;15.087;10.915;15.050
2338193.371;-1.267;-3.763;2.347;-6.221;-10.692;9.611;5.476;9.350
2338193.379;7.115;6.482;10.394;0.894;-2.943;9.686;5.960;9.798
2338193.387;10.468;8.643;13.225;3.390;-1.118;-0.633;-4.396;0.410
2338193.395;6.035;2.347;8.941;-3.427;-7.525;-12.740;-16.838;-8.419
2338193.403;7.674;3.241;12.554;-3.017;-3.241;-13.858;-18.068;-7.749
2338193.411;8.605;4.098;14.380;-0.484;-1.267;-8.233;-12.703;-2.682
2338193.419;9.499;4.806;15.870;2.086;-1.118;-3.800;-9.313;0.112
2338193.427;11.958;7.525;19.185;5.066;2.608;1.267;-4.843;3.129
2338193.435;7.041;3.092;14.715;1.192;-1.490;6.817;-0.857;9.350
2338193.443;-0.149;-3.502;8.233;-3.986;-9.015;6.966;-0.894;10.766
2338193.451;0.410;-2.310;9.686;-3.241;-7.264;7.078;-0.447;12.219
2338193.459;-1.453;-3.912;7.749;-3.800;-7.674;0.000;-4.694;5.402
2338193.467;-0.447;-3.874;8.494;-2.831;-9.835;-2.794;-4.768;0.671
2338193.475;11.772;9.201;18.962;9.723;-0.969;1.453;1.863;3.725
2338193.483;8.568;8.196;12.293;7.674;-5.290;0.484;2.906;3.017
2338193.491;6.296;5.849;8.605;4.321;-3.390;0.782;2.347;2.608
2338193.499;7.115;5.662;5.513;3.427;-4.210;-0.149;-1.565;2.906
2338193.507;8.568;6.892;2.198;5.513;-4.321;2.272;0.000;4.508
2338193.515;5.364;4.135;-5.588;2.272;-8.419;5.439;2.123;5.625
2338193.541;2.868;1.937;-9.798;-1.118;-8.158;3.874;0.410;5.253
2338193.549;4.657;3.017;-10.133;-1.080;-7.451;-0.857;-2.198;1.937
2338193.557;7.004;4.694;-8.829;-1.043;-3.427;0.708;-0.261;4.172
2338193.565;13.895;11.101;-1.900;5.178;5.476;6.929;6.258;11.474
2338193.573;10.692;8.233;-6.184;4.545;0.894;5.104;5.625;9.350
2338193.581;8.047;9.127;-9.164;3.949;-2.384;-1.043;-0.298;4.284
2338193.589;6.482;7.749;-11.176;3.316;-2.980;-6.147;-5.700;-0.037
2338193.597;10.766;10.505;-6.035;8.494;0.000;-1.490;-1.378;3.278
2338193.605;13.076;13.188;-1.118;12.219;4.470;6.780;5.364;10.096
2338193.613;13.299;14.827;-0.298;15.758;3.502;9.313;7.637;12.405
2338193.621;11.884;14.082;-0.559;16.727;3.614;7.711;5.290;9.350
2338193.629;13.039;13.523;2.384;17.360;6.072;14.231;10.394;13.709
2338193.637;11.101;12.182;2.757;14.864;8.382;16.093;11.362;16.950
2338193.645;9.611;12.256;1.565;15.236;5.476;10.245;5.849;13.225
2338193.653;10.654;12.368;2.459;19.558;4.210;7.898;4.545;10.729
2338193.661;5.700;6.333;-3.055;12.964;-1.304;3.278;1.565;6.817
2338193.669;0.931;0.894;-7.264;6.855;-6.743;-0.857;-1.974;4.321
2338193.677;3.353;2.161;-2.645;7.562;-2.533;-6.445;-6.706;-1.676
2338193.685;11.288;8.382;5.551;13.597;3.986;-4.135;-4.508;0.112
2338193.693;15.385;13.150;10.692;18.924;8.047;-1.565;-0.335;2.608
2338193.701;21.271;21.122;17.323;24.997;14.082;-2.533;-1.639;2.719
2338193.709;18.291;17.285;16.652;22.426;12.033;-2.719;-3.427;2.608
2338193.717;26.487;25.220;27.008;31.181;21.383;1.155;-0.782;6.370
2338193.725;33.304;31.814;35.763;38.035;30.249;9.462;5.700;14.864
2338193.720;18.701;18.515;22.277;25.183;17.174;-0.075;-5.364;5.625
2338193.728;17.658;17.695;21.569;25.928;14.380;3.017;-3.576;9.090
2338193.736;14.752;13.895;18.217;22.203;12.852;5.662;-0.335;9.388
2338193.744;19.893;19.595;21.458;27.083;16.801;19.409;14.156;19.819
2338193.752;13.262;12.890;14.417;19.148;10.878;11.213;6.668;11.735
2338193.760;8.345;6.743;10.021;11.958;7.972;4.917;2.310;6.072
2338193.768;15.497;13.262;16.317;18.664;12.778;6.035;5.886;9.164
2338193.776;13.486;11.586;15.236;15.460;14.864;-0.447;-1.080;4.061
2338193.784;27.195;25.369;26.375;29.542;24.065;18.738;16.317;22.501
2338193.792;30.696;28.275;31.181;32.410;30.436;25.742;22.538;30.138
2338193.800;4.396;4.359;6.184;4.731;5.960;-4.806;-8.196;0.931
2338193.808;8.084;8.270;7.935;10.617;4.917;-7.153;-8.568;-0.671
2338193.816;11.139;10.766;9.947;13.933;4.396;-9.201;-9.649;-4.135
2338193.824;13.262;13.411;12.815;17.323;8.568;-3.576;-4.135;0.857
2338193.832;8.345;9.015;8.829;13.188;5.849;-1.155;-2.086;3.017
2338193.840;5.923;5.178;8.270;7.898;6.370;-5.513;-7.562;-1.788
2338193.848;14.789;14.044;15.125;16.727;10.319;0.298;-2.645;2.086
2338193.856;10.133;10.245;11.548;12.778;8.121;-1.267;-3.837;-2.533
2338193.864;8.643;9.909;9.537;13.150;3.353;-3.651;-7.041;-4.731
2338193.872;11.697;12.815;12.890;14.901;7.972;-3.465;-8.233;-0.522
2338193.880;10.207;10.133;13.076;11.809;9.276;-6.035;-10.654;0.559
2338193.888;3.800;3.725;5.886;7.264;-0.261;-6.557;-10.803;1.676
2338193.896;8.941;6.817;12.070;11.586;5.476;-0.894;-4.247;6.743
2338193.904;20.228;20.117;24.810;22.575;17.211;7.041;4.321;12.815
2338193.841;10.841;11.176;16.913;14.640;9.947;1.937;-1.080;5.849
2338193.849;4.992;4.694;11.101;9.388;3.427;-2.161;-5.327;0.671
2338193.857;7.562;6.966;13.784;12.182;4.694;-1.602;-3.837;1.043
2338193.865;2.906;2.943;10.431;9.350;2.868;-3.763;-6.333;-0.820
2338193.873;6.519;6.855;13.709;14.082;4.731;-5.327;-8.270;-3.502
2338193.881;3.316;2.347;9.872;8.717;-1.602;-9.760;-12.405;-8.009
2338193.889;2.682;1.229;9.052;6.668;0.484;-9.499;-12.070;-3.763
2338193.897;-0.186;-2.049;6.668;2.161;-2.682;-13.262;-15.348;-3.427
2338193.905;-1.714;-3.129;7.190;0.186;-1.714;-11.213;-13.746;0.671
2338193.913;-1.974;-3.241;6.519;1.788;-3.725;-6.258;-9.350;2.459
2338193.921;3.465;2.906;11.660;7.600;-0.335;0.000;-4.880;5.029
2338193.929;6.966;9.649;15.460;12.778;1.304;3.427;-2.980;5.364
2338193.937;11.846;13.448;21.309;17.956;6.445;7.600;0.112;9.425
2338193.945;12.517;12.703;21.309;16.205;7.898;10.394;3.502;12.442
2338193.953;1.341;1.788;9.798;4.359;-4.210;6.594;1.490;6.072
2338193.961;12.852;14.715;21.532;17.397;7.004;17.621;14.417;14.789
2338193.969;26.412;28.685;35.241;32.634;19.744;15.795;12.293;12.778
2338193.977;25.705;25.854;35.129;31.218;16.578;12.033;7.674;12.033
2338193.985;19.707;21.271;32.187;24.326;13.262;8.382;4.098;13.299
2338193.993;9.462;10.878;24.103;13.858;7.376;6.147;0.335;13.746
2338194.001;2.049;2.235;17.732;7.972;0.633;-1.118;-8.382;8.009
2338194.009;-14.789;-12.852;-0.037;-8.605;-17.248;-15.646;-24.736;-6.072
2338194.017;-8.903;-5.551;5.215;-2.086;-13.001;-8.829;-20.228;-1.751
2338194.025;11.735;13.821;26.375;18.813;8.084;3.241;-8.307;5.886
2338193.984;8.419;10.729;22.054;14.715;-0.335;2.831;-6.966;2.459
2338193.992;12.033;15.199;25.779;18.738;3.465;7.078;-0.410;6.370
2338194.000;13.746;15.981;28.051;20.340;6.258;4.470;-2.421;6.407
2338194.008;9.350;10.356;25.108;15.087;4.843;-0.112;-6.407;5.662
2338194.016;8.382;9.947;23.693;16.503;0.894;2.645;-2.123;8.717
2338194.024;12.182;11.809;27.902;19.521;6.519;7.339;3.204;10.952
2338194.032;18.589;20.005;34.273;24.065;10.803;16.354;10.878;17.732
2338194.040;20.713;21.905;36.135;26.822;11.288;14.417;7.562;14.119
2338194.048;36.061;34.906;51.521;41.425;26.599;19.893;12.629;20.042
2338194.056;28.051;26.822;44.741;32.410;21.420;10.394;2.049;11.921
2338194.064;5.439;4.135;23.469;8.605;1.229;-9.686;-16.913;-5.327
2338194.072;7.935;8.456;25.034;14.082;0.559;-12.144;-15.907;-7.823
2338194.080;6.855;7.711;22.762;15.348;-0.410;-17.174;-17.472;-14.119
2338194.088;3.316;3.874;17.583;11.437;-4.470;-17.695;-17.472;-16.429
2338194.096;8.456;8.121;20.750;14.119;-2.347;-7.227;-8.307;-8.084
2338194.104;15.013;14.454;25.593;18.477;4.657;-1.490;-3.949;-1.080
2338194.112;14.976;14.044;22.165;16.168;7.637;5.290;2.310;9.462
2338194.120;2.868;1.751;4.545;4.210;-7.786;-5.513;-6.184;-0.186
2338194.128;-3.204;-2.980;-5.551;0.782;-16.689;-8.233;-9.350;-5.513
2338194.136;-1.080;0.745;-4.321;2.049;-11.548;-0.820;-2.757;-0.633
2338194.144;11.250;14.156;5.849;13.933;1.341;10.505;5.960;8.494
2338194.152;19.744;21.756;13.746;22.203;9.835;20.564;11.474;18.850
2338194.160;23.395;24.401;16.205;23.879;13.597;22.948;13.039;22.575
2338194.168;24.773;25.406;16.578;24.363;14.231;20.303;12.666;21.942
2338194.126;21.495;21.718;14.193;21.793;13.337;12.293;7.041;15.683
2338194.134;15.944;16.280;8.568;17.174;7.935;4.284;1.565;8.047
2338194.142;11.250;12.666;4.955;13.411;3.502;4.657;3.837;8.270
2338194.150;7.451;9.872;3.316;10.766;3.986;10.245;9.537;12.368
2338194.158;6.706;9.239;3.092;10.394;2.161;11.027;10.058;11.511
2338194.166;-6.035;-3.278;-8.047;-0.708;-8.419;-0.522;-1.676;-3.166
2338194.174;-11.325;-9.649;-11.884;-5.439;-13.225;-5.700;-8.792;-8.419
2338194.182;-7.153;-3.837;-7.525;-1.714;-11.362;-9.537;-12.256;-10.654
2338194.190;-3.688;-1.751;-3.129;1.229;-7.041;-9.537;-10.245;-9.425
2338194.198;-10.803;-7.525;-10.692;-4.694;-15.050;-11.474;-11.511;-8.829
2338194.206;-10.207;-7.711;-9.052;-5.066;-15.646;-13.821;-11.697;-10.654
2338194.214;-5.811;-3.353;-5.290;0.894;-11.623;-8.754;-5.253;-7.339
2338194.222;7.339;8.419;7.860;12.852;1.304;4.880;6.780;5.178
2338194.230;17.434;17.807;20.899;22.016;13.299;16.876;14.678;19.148
2338194.238;2.459;2.235;8.345;9.052;-1.378;3.166;-0.186;7.339
2338194.246;7.562;9.574;13.039;14.715;2.719;8.456;3.576;13.188
2338194.254;11.325;13.933;16.429;18.887;6.519;15.944;10.207;20.117
2338194.262;11.362;13.635;17.099;19.297;6.892;10.356;4.992;12.256
2338194.270;17.621;17.993;24.103;22.836;14.305;12.591;6.706;11.213
2338194.278;24.103;23.060;30.510;27.008;19.372;18.403;14.715;14.938
2338194.286;23.507;21.420;30.659;26.114;20.601;23.060;21.011;19.670
2338194.294;15.721;15.758;22.314;20.117;13.448;11.511;10.654;10.841
2338194.302;11.846;14.268;16.689;18.403;6.445;9.164;7.413;10.952
2338194.310;2.123;3.949;6.817;8.680;-2.123;5.513;2.123;10.654
2338194.305;-1.863;0.149;2.161;4.955;-5.960;5.625;1.825;11.064
2338194.313;1.490;4.582;4.098;9.947;-5.737;6.966;4.657;9.239
2338194.321;-2.980;-0.522;1.043;2.608;-5.998;5.066;2.272;4.806
2338194.329;13.448;15.758;18.664;17.546;12.778;20.489;16.503;20.005
2338194.337;11.884;16.689;15.348;20.228;8.345;18.030;13.672;15.311
2338194.345;11.660;17.509;13.113;22.985;6.743;22.203;17.695;18.068
2338194.353;12.144;17.621;12.815;23.991;4.619;28.536;24.438;23.209
2338194.361;15.348;19.521;17.732;26.263;7.972;26.189;23.320;20.340
2338194.369;25.146;28.834;28.163;34.422;18.105;35.167;32.708;28.051
2338194.377;21.458;25.481;24.959;30.622;16.093;33.043;29.020;26.934
2338194.385;17.062;21.048;21.346;26.785;12.368;28.908;25.220;25.518
2338194.393;14.715;18.962;19.409;28.349;8.345;24.512;20.564;25.593
2338194.401;8.866;14.082;14.007;21.122;3.017;18.291;12.368;21.793
2338194.409;15.460;19.707;21.793;23.469;13.411;25.593;18.924;28.983
2338194.417;14.342;16.689;21.793;19.595;14.566;15.087;9.909;15.199
2338194.425;21.383;24.103;27.716;28.275;18.291;15.683;12.778;12.033
2338194.433;20.117;23.730;26.822;28.834;16.540;18.403;17.770;12.182
2338194.441;28.796;31.032;37.812;35.428;29.169;25.891;25.220;19.111
2338194.449;31.553;33.528;40.717;38.929;29.430;28.387;26.003;24.661
2338194.457;24.028;25.965;33.714;32.000;20.973;27.008;21.756;26.524
2338194.465;15.795;16.987;27.083;23.618;14.789;19.595;11.548;24.103
2338194.473;12.033;12.927;23.618;20.303;9.723;12.293;3.353;18.217
2338194.481;15.981;17.807;25.965;26.077;11.735;16.913;10.394;20.266
2338194.489;20.117;23.395;30.473;33.006;17.248;23.730;20.079;24.512
2338194.531;11.362;15.087;22.799;25.854;8.158;20.266;17.881;20.042
2338194.539;8.233;12.182;21.532;22.165;7.860;14.268;12.405;14.454
2338194.547;12.890;15.870;28.387;25.332;15.236;12.480;10.505;12.778
2338194.555;18.366;18.366;34.794;28.759;20.377;14.417;13.374;13.821
2338194.563;14.938;16.838;30.957;26.375;14.864;8.456;9.313;5.402
2338194.571;17.919;21.569;33.155;29.244;15.981;15.944;17.732;10.692
2338194.579;22.501;24.699;38.818;31.702;23.283;26.710;26.859;21.867
2338194.587;20.638;20.638;38.221;28.163;25.816;27.381;23.209;26.748
2338194.595;12.778;12.442;29.542;21.569;15.572;22.426;15.087;26.412
2338194.603;8.605;7.935;24.401;18.477;5.439;12.256;4.396;18.887
2338194.611;15.013;13.709;31.516;21.867;14.156;14.976;8.270;21.607
2338194.619;16.354;14.827;32.857;21.048;18.179;18.291;12.778;22.985
2338194.627;17.062;17.174;33.863;24.922;17.546;14.938;11.325;15.050
2338194.635;22.501;22.128;38.780;30.659;18.179;14.901;13.895;10.096
2338194.643;19.781;17.472;37.923;26.561;19.707;10.803;12.517;3.949
2338194.651;10.096;6.407;29.206;17.621;10.915;6.035;6.072;-1.118
2338194.659;9.350;7.600;28.051;16.466;8.158;8.382;4.992;3.837
2338194.667;7.078;5.327;25.369;14.007;3.241;6.333;0.224;6.221
2338194.675;1.043;-0.447;20.526;9.984;-2.235;4.321;-3.912;7.190
2338194.683;2.272;1.304;22.650;13.150;-1.267;5.886;-1.863;9.090
2338194.691;12.293;9.947;31.330;21.607;7.562;13.895;9.015;15.013
2338194.699;26.785;23.693;46.305;34.235;25.593;25.481;20.303;25.220
2338194.707;18.552;16.242;39.786;26.971;19.707;13.933;9.462;12.703
2338194.715;14.789;12.927;36.322;24.512;16.093;7.711;4.470;4.657
2338194.742;16.019;14.715;37.141;26.599;15.683;15.497;13.150;9.649
2338194.750;21.607;19.297;42.580;30.920;20.079;19.707;18.887;12.405
2338194.758;24.959;22.501;46.454;33.639;24.363;18.775;17.844;10.468
2338194.766;30.212;28.238;50.180;37.700;27.381;25.369;21.942;18.328
2338194.774;20.042;18.105;38.669;25.406;18.105;19.521;13.225;18.142
2338194.782;21.569;19.744;38.482;26.636;21.011;21.309;13.895;26.450
2338194.790;10.282;7.190;24.550;15.907;11.474;15.236;6.631;21.495
2338194.798;8.903;8.047;18.217;14.752;9.984;18.328;9.388;23.358
2338194.806;19.744;20.191;25.705;24.289;20.452;27.455;19.483;32.261
2338194.814;3.129;1.416;6.631;6.780;4.992;11.474;4.321;13.597
2338194.822;2.645;0.522;4.843;6.966;6.072;7.413;3.055;7.786
2338194.830;7.786;6.817;8.531;13.895;10.729;12.480;9.760;9.276
2338194.838;9.723;9.462;9.574;16.913;13.709;17.434;14.901;13.001
2338194.846;14.789;14.044;14.640;21.607;21.495;23.320;19.483;16.801
2338194.854;10.170;9.388;10.133;16.838;15.832;24.848;18.850;19.334
2338194.862;-6.966;-6.557;-6.035;1.751;-0.149;14.976;5.886;13.709
2338194.870;-16.540;-16.540;-14.044;-6.221;-8.792;10.207;0.522;13.225
2338194.878;-12.107;-8.717;-9.686;-0.857;-6.370;11.846;4.247;15.050
2338194.886;-4.210;-0.671;-1.043;7.674;2.235;17.770;12.219;18.738
2338194.894;-4.582;-0.447;-1.974;9.388;0.447;13.821;10.170;13.188
2338194.902;-1.043;3.204;2.757;13.746;5.551;14.342;10.878;10.878
2338194.910;10.617;12.182;16.093;22.948;17.732;18.105;13.188;13.858
2338194.918;24.177;25.220;30.100;37.327;29.132;26.487;19.521;23.581
2338194.926;16.764;18.626;23.432;30.622;23.581;21.420;13.337;18.105
2338194.905;14.976;17.062;23.283;29.616;24.252;20.154;13.150;16.466
2338194.913;10.133;11.660;17.360;25.630;15.534;17.211;12.293;12.815
2338194.921;5.066;6.743;13.076;21.271;11.288;12.778;7.674;10.394
2338194.929;0.037;1.639;8.829;16.019;8.345;9.499;4.210;10.766
2338194.937;3.725;4.433;14.044;19.260;13.746;10.468;5.849;11.846
2338194.945;-0.410;1.490;8.754;18.738;2.906;13.299;9.313;12.740
2338194.953;-7.339;-5.774;4.508;9.388;0.000;10.543;5.327;11.288
2338194.961;-2.608;-2.533;10.431;11.064;7.600;7.488;-0.633;9.686
2338194.969;3.241;3.837;15.423;17.062;13.299;7.376;-1.900;8.494
2338194.977;5.588;7.972;17.136;21.309;13.374;17.323;9.127;17.323
2338194.985;9.686;12.480;19.558;26.599;15.944;26.375;19.670;23.693
2338194.993;20.266;23.432;29.616;38.370;25.742;33.677;27.940;26.561
2338195.001;22.538;25.854;30.659;40.755;25.779;38.259;32.671;28.349
2338195.009;24.140;26.636;31.777;43.437;26.152;43.139;36.769;32.522
2338195.017;28.051;33.267;35.949;47.572;31.851;52.564;44.256;43.623
2338195.025;13.448;17.770;20.936;31.628;16.987;37.663;28.200;33.677
2338195.033;7.674;10.096;16.056;22.464;15.460;29.206;19.260;30.026
2338195.041;4.098;6.147;12.144;18.515;12.517;20.266;11.027;22.799
2338195.049;5.513;8.009;13.150;20.787;13.150;17.025;8.941;19.222
2338195.057;5.215;9.127;11.586;22.538;11.921;17.807;12.591;18.105
2338195.065;2.049;5.849;7.972;19.446;9.798;15.981;11.139;14.827
2338195.073;4.470;8.568;11.772;22.016;12.480;22.724;18.291;18.440
2338195.081;-1.453;2.719;7.041;16.093;8.158;23.022;18.515;16.168
2338195.089;-0.708;3.278;8.531;16.727;9.574;29.653;26.040;19.297
2338195.054;5.513;10.170;13.635;24.959;14.938;40.419;37.216;28.163
2338195.062;-0.633;4.210;6.221;21.309;4.694;38.035;34.310;26.301
2338195.070;-1.602;1.229;6.668;19.670;5.774;39.116;32.336;30.734
2338195.078;10.282;14.231;18.962;30.175;17.621;43.102;31.181;39.600
2338195.086;26.338;30.398;34.049;44.964;32.857;52.787;38.296;52.378
2338195.094;16.391;19.260;24.103;34.645;21.905;40.978;26.263;40.345
2338195.102;6.743;7.711;15.348;24.699;13.709;27.791;15.162;25.220
2338195.110;10.058;9.090;20.750;26.524;19.073;30.696;21.458;26.561
2338195.118;5.066;4.433;17.360;21.867;16.093;19.185;13.746;14.491
2338195.126;-2.533;-2.161;10.654;14.268;7.823;15.274;11.399;10.170
2338195.134;-4.023;-4.917;10.207;11.101;5.588;20.042;15.944;14.342
2338195.142;4.470;3.837;17.397;21.048;12.666;24.475;18.664;18.999
2338195.150;9.052;8.643;21.532;26.487;19.707;29.355;22.314;26.859
2338195.158;-11.027;-11.660;2.645;4.247;1.676;16.354;8.158;15.423
2338195.166;-4.172;-6.631;9.723;7.749;8.419;18.962;8.643;20.079
2338195.174;8.233;4.843;20.154;18.999;18.887;26.040;16.205;26.450
2338195.182;6.258;2.906;16.205;18.887;14.454;20.862;15.311;17.881
2338195.190;4.731;2.608;14.566;20.899;12.778;19.744;18.179;12.480
2338195.198;9.499;8.717;20.042;28.834;18.850;23.656;23.469;12.927
2338195.206;12.144;10.878;23.544;33.341;20.377;23.693;23.767;13.746
2338195.214;9.649;10.766;21.607;29.057;16.503;23.730;23.209;14.156
2338195.222;14.119;14.305;25.705;33.230;19.483;30.249;28.983;23.060
2338195.230;20.824;22.054;31.851;42.990;21.756;40.121;38.520;36.322
2338195.238;5.178;6.258;17.546;27.530;8.829;29.206;24.661;28.163
2338195.235;-10.617;-11.660;4.321;8.792;-1.639;17.434;9.611;18.328
2338195.243;-8.866;-11.250;6.482;7.451;0.335;13.895;5.439;15.534
2338195.251;-6.631;-9.499;8.941;9.611;2.608;10.952;3.465;12.591
2338195.259;-0.298;-2.421;16.503;17.025;9.127;12.890;6.668;13.709
2338195.267;2.198;0.782;18.068;21.197;10.319;13.225;10.207;11.809
2338195.275;-0.820;-1.714;12.890;19.409;3.949;12.070;12.666;6.780
2338195.283;1.974;0.931;14.976;21.867;2.347;11.586;14.305;3.465
2338195.291;6.706;6.296;19.036;27.120;5.439;13.225;17.174;5.141
2338195.299;10.617;11.176;22.165;31.777;7.115;22.016;26.636;15.013
2338195.307;15.423;16.093;29.430;36.620;16.019;27.232;30.249;22.240
2338195.315;-1.751;-0.373;12.964;20.750;-1.527;9.313;9.425;7.413
2338195.323;-10.505;-9.947;5.998;10.803;-6.966;7.302;3.390;8.754
2338195.331;-14.603;-15.348;4.247;4.768;-8.121;8.941;0.596;12.293
2338195.339;-10.058;-13.262;10.580;5.960;-0.373;11.586;-0.410;15.087
2338195.347;0.000;-1.751;20.564;12.852;11.697;8.382;-2.272;10.133
2338195.355;2.608;1.006;20.936;15.832;8.903;10.319;6.445;7.972
2338195.363;2.794;1.825;18.999;16.540;9.835;7.786;9.686;2.608
2338195.371;5.998;4.806;17.546;18.515;10.580;9.574;12.778;3.465
2338195.379;1.863;0.969;9.425;14.268;3.725;9.201;14.342;3.651
2338195.387;-9.052;-8.754;-4.508;4.470;-5.364;6.109;10.952;1.565
2338195.395;-13.188;-12.107;-11.362;2.086;-8.903;8.196;11.697;3.316
2338195.403;-1.453;0.894;-1.639;14.715;3.576;21.383;24.959;15.162
2338195.411;-6.817;-5.178;-8.941;7.413;-1.453;19.819;21.495;14.007
2338195.419;-9.760;-7.562;-14.640;4.582;-6.445;16.429;16.652;10.505
2338195.431;-9.611;-5.215;-18.552;8.196;-10.654;15.385;15.423;9.537
2338195.439;-6.333;-1.192;-14.603;13.560;-6.594;21.346;21.942;14.529
2338195.447;-0.522;5.104;-6.296;20.228;5.513;25.705;28.200;18.626
2338195.455;1.155;6.482;-4.098;21.681;8.568;23.767;25.220;17.695
2338195.463;3.241;6.370;-1.192;20.117;11.325;23.730;21.905;20.266
2338195.471;-11.958;-10.654;-15.981;2.012;-4.880;9.909;7.190;9.872
2338195.479;-16.503;-16.168;-19.073;-2.496;-8.158;11.064;8.792;12.033
2338195.487;-12.852;-9.201;-13.821;2.980;-4.694;10.617;9.686;10.803
2338195.495;-21.867;-18.217;-22.054;-5.178;-11.697;7.041;6.706;6.296
2338195.503;-24.773;-22.352;-24.065;-8.009;-13.672;9.052;8.419;8.084
2338195.511;-7.525;-3.874;-7.302;12.703;1.043;18.477;17.993;14.976
2338195.519;-17.323;-13.001;-17.509;6.109;-9.835;5.513;6.892;0.708
2338195.527;-14.976;-11.213;-13.970;7.972;-8.717;3.316;5.998;-2.831
2338195.535;-5.886;-1.788;-3.502;15.125;0.708;15.832;17.621;4.917
2338195.543;3.539;7.451;7.302;22.538;10.915;31.479;30.883;19.111
2338195.551;6.817;9.872;10.878;25.295;11.809;37.029;34.794;29.914
2338195.559;-4.619;-2.459;-1.118;15.199;-1.341;34.757;29.542;32.783
2338195.567;-10.133;-8.158;-4.843;9.201;-5.327;31.404;25.481;30.808
2338195.575;-7.227;-7.674;1.937;7.302;5.253;24.252;21.979;23.507
2338195.583;-5.662;-6.296;4.806;8.866;7.227;14.752;16.689;11.623
2338195.591;-1.714;-2.384;7.972;13.486;10.878;17.285;19.222;14.603
2338195.599;-10.543;-11.250;-1.527;5.439;2.459;6.407;7.600;6.370
2338195.607;-7.935;-8.978;-0.596;10.543;1.788;7.786;9.127;7.488
2338195.615;-7.041;-3.986;-1.900;13.299;-1.118;11.437;12.293;8.494
2338195.610;-9.388;-5.327;-3.874;11.884;-0.037;10.878;13.784;3.427
2338195.618;-2.757;0.596;0.633;17.993;5.402;14.491;17.360;5.364
2338195.626;-3.688;-1.192;-1.378;16.578;5.327;7.115;8.233;4.061
2338195.634;-17.136;-15.348;-13.933;2.384;-5.476;3.166;2.533;6.370
2338195.642;-20.377;-19.483;-16.317;-2.608;-5.811;15.795;12.368;21.085
2338195.650;-16.652;-16.429;-11.586;0.149;-0.820;21.085;18.366;24.885
2338195.658;-18.179;-16.801;-12.368;0.522;-1.602;18.515;17.546;21.011
2338195.666;-25.705;-22.724;-23.171;-2.868;-14.938;9.388;9.462;9.313
2338195.674;-25.965;-22.985;-24.401;-2.794;-15.795;11.772;12.331;9.276
2338195.682;-15.460;-12.107;-14.342;9.313;-5.662;20.973;21.979;16.876
2338195.690;-23.358;-19.744;-22.389;1.080;-13.784;14.678;16.615;9.388
2338195.698;-25.891;-21.569;-24.773;-0.894;-18.850;3.241;6.184;-2.608
2338195.706;-13.039;-8.605;-12.405;12.256;-6.929;1.825;5.402;-3.800
2338195.714;-6.072;-1.676;-4.843;19.632;1.267;12.182;15.683;7.115
2338195.722;-9.760;-5.364;-7.078;16.280;-1.863;17.658;19.595;14.082
2338195.730;-11.250;-7.115;-7.115;14.603;-0.894;22.613;22.650;20.228
2338195.738;-24.438;-20.415;-20.005;1.863;-13.337;14.827;14.119;12.778
2338195.746;-25.406;-22.240;-19.670;-0.112;-12.554;13.113;12.219;12.405
2338195.754;-28.349;-23.730;-22.054;-4.284;-14.380;9.499;7.153;9.462
2338195.762;-28.200;-25.630;-21.495;-5.066;-13.895;10.245;7.935;10.580
2338195.770;-16.764;-13.784;-10.729;7.525;-4.694;12.852;10.729;12.778
2338195.778;-10.245;-6.892;-3.651;14.454;3.986;16.764;14.119;16.019
2338195.786;-2.347;-0.186;4.768;20.675;11.884;17.509;15.311;14.715
2338195.794;-5.066;-5.066;3.241;15.683;9.835;8.009;7.451;2.831
2338195.793;0.857;-0.224;10.319;20.526;17.881;8.680;8.866;4.061
2338195.801;-6.706;-7.600;2.757;12.629;11.697;8.456;5.737;7.972
2338195.809;-20.899;-21.830;-11.437;-0.186;-3.129;9.872;5.476;13.486
2338195.817;-28.424;-29.318;-19.744;-5.811;-11.884;13.039;8.419;18.701
2338195.825;-32.410;-32.336;-22.724;-11.176;-14.864;9.350;2.608;15.832
2338195.833;-32.522;-33.528;-22.314;-12.666;-13.635;3.725;-3.688;10.282
2338195.841;-30.473;-31.814;-22.464;-10.543;-14.454;-1.825;-6.855;0.447
2338195.849;-15.907;-17.695;-9.649;3.912;-2.384;2.049;-0.745;0.261
2338195.857;-10.617;-13.001;-3.092;7.227;7.562;1.118;-2.161;0.894
2338195.865;-12.219;-15.981;-4.917;2.533;3.166;0.596;-4.582;2.682
2338195.873;-5.066;-10.505;2.235;7.786;12.554;8.307;1.751;10.282
2338195.881;3.017;-1.937;10.468;15.944;20.042;19.446;12.666;20.377
2338195.889;1.192;-4.359;8.941;16.354;17.919;23.134;17.546;21.607
2338195.897;0.298;-3.614;8.233;15.795;17.658;23.954;20.266;21.905
2338195.905;9.276;6.221;16.540;24.885;22.948;32.932;29.989;33.155
2338195.913;2.049;-2.086;9.090;16.540;15.683;23.469;20.936;25.705
2338195.921;-8.643;-12.331;-1.453;6.817;5.215;14.827;12.964;18.813
2338195.929;-8.158;-11.772;-0.112;8.419;6.296;19.260;16.578;22.240
2338195.937;-2.831;-7.823;8.158;10.133;16.205;20.862;17.658;22.575
2338195.945;-3.576;-9.872;8.494;6.929;15.758;19.036;15.609;19.372
2338195.953;-4.508;-10.766;6.482;6.445;11.846;15.274;13.150;13.337
2338195.961;-4.619;-11.772;7.227;4.917;14.082;12.442;12.144;7.786
2338195.969;-2.459;-9.723;9.462;7.264;15.013;13.523;15.572;5.886
2338195.977;-6.109;-13.448;6.035;4.433;12.554;8.717;11.437;2.943
2338195.955;-7.376;-16.503;6.519;1.043;13.672;10.692;11.213;7.711
2338195.963;-2.012;-11.027;8.903;6.370;16.429;18.887;17.360;18.217
2338195.971;-7.935;-15.721;-0.596;1.974;7.525;20.340;17.211;21.383
2338195.979;-6.519;-14.789;0.075;1.527;11.101;22.538;18.440;25.369
2338195.987;-4.321;-14.082;0.224;0.447;15.162;17.583;13.858;20.415
2338195.995;-3.502;-12.107;-2.608;2.794;15.087;14.529;12.480;16.503
2338196.003;-0.633;-9.164;-2.794;8.084;16.764;13.337;13.113;12.815
2338196.011;-7.488;-11.995;-14.082;2.086;7.562;17.323;18.179;13.858
2338196.019;1.974;-3.204;-6.184;10.729;19.409;26.152;26.412;21.644
2338196.027;-4.768;-10.170;-14.268;4.880;14.082;20.303;20.079;15.162
2338196.035;-10.245;-14.901;-20.899;-0.745;10.580;20.117;17.844;15.683
2338196.043;-12.368;-15.944;-23.209;-2.123;8.754;27.753;23.879;23.693
2338196.051;-10.729;-16.056;-18.515;-3.539;13.635;29.281;24.810;26.971
2338196.059;-16.727;-20.824;-24.177;-7.488;5.588;17.881;14.938;16.242
2338196.067;-24.103;-28.722;-30.287;-15.460;-0.075;15.162;11.250;14.678
2338196.075;-25.369;-30.324;-29.542;-16.466;-0.335;11.846;6.407;12.591
2338196.083;-24.624;-29.691;-28.089;-13.560;-1.378;11.660;5.290;12.890
2338196.091;-19.372;-24.736;-21.011;-8.009;5.998;16.764;11.213;16.801
2338196.099;-18.887;-25.071;-18.589;-8.047;8.009;13.374;9.723;11.064
2338196.107;-30.138;-35.577;-29.728;-16.987;-6.519;3.204;1.080;-0.298
2338196.115;-25.071;-32.559;-23.246;-11.101;0.410;10.952;9.239;8.419
2338196.123;-29.691;-36.694;-29.095;-15.050;-6.035;9.835;6.966;9.425
2338196.131;-30.026;-36.135;-26.859;-16.391;-5.066;11.027;6.407;13.746
2338196.139;-23.395;-30.100;-17.136;-9.388;2.161;13.113;9.649;16.131
2338196.198;-25.295;-32.522;-18.924;-11.586;1.155;17.099;14.193;18.626
2338196.206;-22.836;-29.691;-17.434;-7.264;2.012;14.454;12.107;15.236
2338196.214;-22.464;-29.691;-17.285;-6.221;0.298;5.998;3.949;7.339
2338196.222;-18.589;-26.561;-12.703;-3.316;5.029;9.760;7.600;11.176
2338196.230;-8.978;-16.466;-2.831;6.519;13.486;15.907;12.517;17.695
2338196.238;-13.076;-21.756;-5.215;1.565;12.927;9.462;4.545;12.480
2338196.246;-13.858;-22.911;-7.041;0.484;8.568;6.519;1.863;8.047
2338196.254;-2.235;-11.027;2.868;11.362;16.578;14.342;10.878;12.740
2338196.262;2.272;-8.345;6.184;13.486;19.521;21.979;20.266;16.056
2338196.270;-9.015;-17.770;-6.631;1.527;8.084;14.566;13.113;8.196
2338196.278;-12.852;-19.670;-12.554;-0.559;0.112;17.658;15.385;14.417
2338196.286;-14.827;-22.240;-14.454;-3.390;0.112;19.185;16.317;20.005
2338196.294;-17.919;-25.705;-18.366;-7.637;-0.559;16.354;11.697;18.626
2338196.302;-15.832;-23.246;-16.578;-5.737;3.539;18.366;11.586;20.079
2338196.310;-22.165;-29.095;-24.587;-11.660;-4.955;12.852;4.359;14.231
2338196.318;-33.416;-40.159;-36.247;-22.985;-14.678;-1.825;-9.537;0.075
2338196.326;-27.418;-34.906;-30.324;-19.744;-8.196;4.061;-4.098;5.849
2338196.334;-18.440;-25.444;-22.426;-11.884;-1.341;12.219;3.763;12.144
2338196.342;-21.681;-28.946;-26.636;-14.231;-5.253;7.376;-0.447;6.147
2338196.350;-19.521;-26.822;-24.289;-11.660;-2.496;8.494;1.714;4.992
2338196.358;-13.597;-20.340;-16.913;-5.253;5.439;17.136;11.325;11.697
2338196.366;-16.019;-21.830;-18.328;-7.823;2.868;20.824;13.523;15.981
2338196.374;-17.360;-23.954;-19.930;-10.431;1.937;18.664;10.654;17.062
2338196.382;-14.305;-22.016;-15.832;-8.047;5.439;19.334;13.113;21.532
2338196.450;-23.767;-32.000;-24.736;-20.377;-3.986;4.023;-2.980;6.147
2338196.458;-24.997;-32.522;-25.854;-22.873;-5.700;-1.527;-9.164;0.261
2338196.466;-25.295;-33.081;-26.599;-22.501;-8.829;-5.178;-12.070;-2.421
2338196.474;-21.085;-28.275;-21.607;-16.131;-4.172;-5.811;-12.442;-2.161
2338196.482;-20.526;-26.561;-20.377;-14.454;-3.278;-5.849;-10.207;-2.943
2338196.490;-16.391;-21.569;-17.993;-8.829;-4.284;-0.559;-3.055;-0.224
2338196.498;-16.205;-20.862;-17.807;-9.201;-3.055;0.149;-1.676;-0.447
2338196.506;-9.276;-15.832;-10.803;-3.465;3.390;3.763;1.416;2.012
2338196.514;-8.158;-13.076;-11.213;-2.086;0.410;2.198;0.671;1.229
2338196.522;-13.299;-17.099;-16.950;-5.737;-3.949;-0.224;-1.453;0.484
2338196.530;-11.884;-16.950;-14.529;-4.433;-0.969;2.235;1.714;4.359
2338196.538;-9.090;-14.938;-9.947;-3.390;3.986;3.427;3.502;5.662
2338196.546;-7.860;-12.852;-8.456;-0.708;3.390;7.600;6.445;9.537
2338196.554;-22.091;-26.040;-23.842;-13.337;-13.225;5.439;2.868;5.662
2338196.562;-19.707;-24.922;-18.701;-13.523;-3.278;11.772;8.717;12.219
2338196.570;-19.260;-26.114;-15.795;-16.391;-1.863;2.608;-1.304;3.800
2338196.578;-21.048;-30.287;-15.758;-20.452;-2.906;-1.118;-5.998;-0.186
2338196.586;-11.437;-19.521;-4.880;-15.609;8.084;0.708;-2.012;1.714
2338196.594;-17.546;-25.220;-12.591;-20.564;0.484;-4.210;-4.768;-4.396
2338196.602;-19.595;-26.934;-14.491;-19.819;-3.278;-1.900;-1.974;-3.353
2338196.610;-12.033;-21.793;-5.737;-16.019;6.333;-0.075;-1.378;-1.416
2338196.618;-14.417;-25.034;-8.866;-20.638;2.831;0.782;-2.310;1.676
2338196.626;-17.099;-26.561;-10.021;-20.526;3.912;3.837;0.596;6.668
2338196.634;-20.824;-31.888;-12.740;-23.767;-3.502;-4.731;-8.084;-0.931
2338196.690;-26.822;-37.141;-18.962;-32.745;-10.915;-9.798;-12.852;-6.706
2338196.698;-25.034;-35.800;-16.429;-32.745;-7.711;-7.935;-11.772;-3.837
2338196.706;-20.303;-31.702;-10.543;-29.132;-0.149;-4.768;-9.835;0.224
2338196.714;-16.801;-26.859;-7.190;-24.550;2.645;-2.161;-7.823;3.390
2338196.722;-17.881;-27.604;-8.456;-23.730;-0.782;-4.247;-9.909;0.596
2338196.730;-19.707;-30.622;-8.009;-28.051;-1.490;-7.600;-12.368;-3.800
2338196.738;-14.193;-24.177;-1.937;-20.787;5.178;-5.998;-9.760;-4.210
2338196.746;-15.423;-24.103;-6.706;-18.887;-2.012;-4.321;-7.041;-3.725
2338196.754;-21.197;-30.249;-13.299;-26.524;-7.190;-6.594;-9.313;-5.960
2338196.762;-16.615;-27.567;-10.356;-26.487;-1.192;-3.278;-6.407;-0.298
2338196.770;-18.999;-29.765;-15.832;-28.238;-5.104;-2.161;-6.557;2.421
2338196.778;-13.001;-21.942;-14.156;-21.793;-0.596;6.072;0.745;10.319
2338196.786;-14.231;-22.240;-19.185;-23.991;-3.539;3.949;-1.453;6.184
2338196.794;-13.411;-22.836;-21.756;-24.214;-3.129;6.855;3.651;7.115
2338196.802;-9.276;-19.595;-18.515;-22.426;5.402;8.680;5.849;8.941
2338196.810;-10.878;-18.738;-21.197;-20.266;3.278;6.855;3.055;8.717
2338196.818;-17.770;-23.767;-30.585;-26.487;-4.023;2.123;-3.129;5.588
2338196.826;-19.111;-26.226;-32.261;-27.418;-5.066;-0.745;-5.029;2.533
2338196.834;-18.105;-24.810;-31.590;-25.295;-3.576;-1.490;-3.502;1.378
2338196.842;-20.452;-26.114;-34.571;-26.412;-6.184;-5.551;-6.817;-1.453
2338196.850;-24.438;-30.585;-37.551;-31.106;-10.803;-8.680;-9.239;-4.843
2338196.858;-21.346;-29.057;-31.814;-28.685;-4.806;-2.496;-2.868;-0.559
2338196.866;-23.395;-31.181;-33.714;-29.504;-7.376;-0.224;-1.639;0.708
2338196.874;-19.297;-25.593;-30.212;-22.538;-7.637;6.147;4.098;7.823
2338196.870;-27.344;-32.894;-37.514;-28.461;-16.205;-1.118;-4.396;1.788
2338196.878;-19.260;-25.146;-25.332;-21.197;-3.651;-2.235;-6.557;0.820
2338196.886;-4.433;-9.872;-9.649;-6.333;8.158;4.806;2.496;5.886
2338196.894;-6.855;-12.182;-12.144;-7.078;2.980;1.416;1.080;2.794
2338196.902;-19.893;-27.008;-23.171;-21.383;-7.823;-9.872;-8.121;-4.880
2338196.910;-18.775;-24.326;-19.968;-18.291;-5.700;-13.411;-11.474;-6.370
2338196.918;-24.512;-29.504;-25.481;-21.979;-12.480;-14.864;-15.050;-7.749
2338196.926;-20.601;-28.647;-18.813;-17.732;-6.072;-12.144;-12.554;-7.227
2338196.934;-12.890;-18.850;-11.176;-11.511;-2.235;-10.394;-9.909;-6.892
2338196.942;-5.998;-10.692;-3.204;-5.700;6.109;-2.533;-2.049;-1.714
2338196.950;-9.611;-15.497;-6.296;-9.798;3.763;-8.903;-7.823;-9.313
2338196.958;-12.368;-17.732;-8.009;-11.586;2.049;-11.586;-11.958;-10.766
2338196.966;-11.548;-15.497;-7.711;-9.015;0.633;-5.998;-10.692;-4.545
2338196.974;-14.007;-18.366;-11.139;-13.784;-0.820;-10.394;-17.397;-6.519
2338196.982;-11.511;-18.552;-8.568;-14.976;3.800;-10.990;-19.483;-4.917
2338196.990;-13.448;-20.675;-10.990;-17.807;2.384;-9.090;-17.323;-3.949
2338196.998;-20.303;-26.822;-20.266;-24.997;-7.302;-12.107;-17.956;-8.158
2338197.006;-20.750;-27.642;-23.507;-25.742;-14.454;-12.033;-14.082;-9.499
2338197.014;-14.827;-22.836;-17.993;-20.042;-7.451;-6.817;-8.233;-5.513
2338197.022;-13.597;-21.309;-16.838;-17.770;-4.843;-6.109;-7.711;-5.588
2338197.030;-14.976;-22.352;-19.781;-20.452;-7.004;-6.780;-9.015;-5.141
2338197.038;-16.354;-20.526;-23.469;-18.030;-9.984;-9.164;-11.362;-8.456
2338197.046;-11.809;-15.199;-20.526;-11.399;-7.153;-7.153;-8.121;-7.637
2338197.054;1.937;-3.092;-5.737;-0.298;9.909;2.235;1.676;-0.261
2338197.021;9.350;3.614;1.900;4.396;18.738;5.029;6.258;0.484
2338197.029;1.863;-3.725;-6.407;-0.708;8.717;-0.112;-0.075;-2.868
2338197.037;-1.416;-5.662;-10.952;-1.416;3.278;-3.129;-4.247;-1.974
2338197.045;-17.434;-21.197;-27.157;-17.658;-14.976;-10.692;-12.405;-9.015
2338197.053;-18.515;-22.203;-27.753;-17.807;-16.429;-11.139;-11.958;-9.686
2338197.061;-18.813;-22.240;-26.971;-16.429;-13.188;-5.700;-5.737;-5.141
2338197.069;-26.263;-30.696;-32.187;-26.040;-18.403;-12.107;-13.113;-10.803
2338197.077;-11.325;-17.993;-16.838;-11.884;-4.843;-8.196;-9.201;-7.488
2338197.085;-10.543;-15.274;-17.583;-9.276;-7.562;-7.227;-7.600;-8.605
2338197.093;-16.317;-17.397;-23.730;-10.580;-15.646;-12.442;-12.331;-13.448
2338197.101;-11.511;-13.337;-18.217;-5.402;-11.101;-9.350;-11.101;-9.201
2338197.109;-16.540;-19.707;-23.060;-11.548;-15.944;-13.486;-16.168;-11.362
2338197.117;3.353;-1.565;-1.788;6.966;7.190;5.327;3.390;8.754
2338197.125;-14.007;-19.707;-17.956;-11.548;-9.686;-11.921;-11.735;-10.841
2338197.133;-24.773;-29.653;-28.387;-19.893;-22.203;-19.148;-20.452;-20.079
2338197.141;-17.621;-21.942;-21.718;-12.629;-14.193;-13.113;-17.025;-14.566
2338197.149;-10.431;-15.348;-14.156;-5.327;-4.917;-10.245;-15.236;-10.654
2338197.157;-12.629;-16.727;-15.907;-8.084;-6.706;-17.360;-21.905;-15.162
2338197.165;-11.921;-14.603;-15.721;-8.047;-7.227;-24.475;-29.244;-19.893
2338197.173;-9.909;-13.523;-13.970;-6.258;-5.215;-24.214;-29.691;-19.111
2338197.181;-12.256;-16.429;-16.280;-8.084;-9.574;-20.452;-25.630;-16.540
2338197.189;-6.482;-10.058;-11.101;-1.341;-6.743;-14.491;-18.291;-11.846
2338197.197;1.900;-1.192;-2.012;6.631;3.986;-4.284;-10.803;-3.055
2338197.205;9.611;5.886;7.451;13.374;14.417;3.651;-6.594;5.029
2338197.170;-3.427;-7.451;-4.917;-0.037;0.224;-2.235;-14.193;-0.522
2338197.178;-14.752;-17.546;-15.348;-10.394;-11.101;-6.296;-18.291;-2.049
2338197.186;-14.231;-16.242;-13.933;-9.276;-9.611;-2.347;-12.368;2.384
2338197.194;-24.661;-27.828;-24.140;-21.420;-21.905;-6.557;-14.156;-3.763
2338197.202;-20.266;-24.065;-18.217;-19.073;-14.827;-7.860;-13.486;-6.668
2338197.210;-8.307;-13.076;-6.631;-9.164;-3.725;-8.643;-12.964;-8.941
2338197.218;-8.792;-14.715;-6.482;-11.437;-4.917;-15.013;-20.042;-14.864
2338197.226;-0.596;-7.302;1.490;-3.502;2.086;-5.104;-10.617;-4.470
2338197.234;-11.213;-18.515;-9.015;-13.672;-9.499;-12.778;-16.876;-12.182
2338197.242;-28.126;-33.453;-26.748;-31.255;-27.232;-22.724;-26.636;-22.054
2338197.250;-20.750;-26.450;-19.111;-23.879;-19.148;-7.711;-11.325;-7.227
2338197.258;-16.466;-20.787;-15.013;-19.334;-13.597;-3.874;-7.227;-3.725
2338197.266;-15.758;-20.862;-16.615;-21.309;-12.852;-6.855;-10.431;-6.557
2338197.274;-13.895;-20.340;-17.099;-23.842;-10.058;-8.270;-11.809;-8.345
2338197.282;-9.164;-15.348;-15.758;-19.670;-2.459;-9.052;-10.319;-9.984
2338197.290;-12.740;-17.695;-24.140;-22.389;-10.245;-14.938;-14.380;-13.076
2338197.298;-15.348;-20.377;-29.802;-26.487;-14.380;-14.789;-14.678;-10.841
2338197.306;-17.211;-21.048;-35.278;-26.934;-17.360;-12.368;-13.113;-10.021
2338197.314;-9.574;-12.629;-30.510;-19.707;-10.766;-12.331;-15.646;-11.064
2338197.322;-1.639;-3.837;-24.810;-11.139;-1.416;-5.215;-9.388;-7.153
2338197.330;0.112;-1.602;-25.928;-8.419;-1.043;0.820;-2.570;-2.161
2338197.338;-8.680;-8.605;-35.763;-14.976;-12.368;0.969;-1.080;-1.788
2338197.346;-10.692;-11.399;-36.173;-17.583;-8.270;0.410;-0.745;-1.080
2338197.354;-18.701;-20.340;-43.921;-25.667;-19.111;-5.811;-6.221;-5.551
2338197.412;-21.495;-23.730;-46.119;-26.561;-24.065;-6.184;-6.258;-5.774
2338197.420;-17.732;-19.148;-40.531;-23.730;-17.248;-7.376;-8.717;-8.084
2338197.428;-14.231;-16.093;-35.018;-21.346;-11.735;-5.886;-8.643;-8.643
2338197.436;-7.041;-9.276;-25.891;-14.678;-2.272;-0.708;-3.539;-3.949
2338197.444;-1.751;-3.837;-18.850;-9.872;3.576;-1.900;-4.284;-3.949
2338197.452;-8.941;-11.250;-26.487;-17.360;-5.588;-9.872;-11.586;-9.239
2338197.460;-8.456;-11.362;-26.040;-18.030;-5.141;-12.144;-15.087;-9.350
2338197.468;-1.304;-3.539;-19.148;-9.239;-0.522;-6.594;-9.201;-3.614
2338197.476;-1.155;-3.800;-19.521;-7.898;-0.894;-7.376;-10.952;-4.992
2338197.484;-6.184;-9.611;-24.363;-13.895;-3.912;-15.050;-19.595;-12.852
2338197.492;-2.235;-6.594;-20.191;-9.686;0.112;-9.760;-15.795;-7.078
2338197.500;-0.261;-6.817;-18.030;-9.388;0.745;-10.841;-14.156;-7.898
2338197.508;4.433;0.186;-12.405;-5.327;5.439;-7.413;-7.637;-3.576
2338197.516;1.676;-2.906;-15.162;-7.488;0.969;-10.952;-9.574;-6.407
2338197.524;2.980;-2.198;-13.374;-8.307;2.347;-12.070;-10.692;-7.115
2338197.532;1.267;-5.253;-13.486;-11.846;4.582;-11.660;-13.374;-7.302
2338197.540;1.714;-4.210;-14.082;-10.170;1.751;-6.035;-10.245;-3.725
2338197.548;6.296;0.373;-10.505;-7.302;4.061;-1.267;-6.407;-0.484
2338197.556;-6.557;-12.554;-23.507;-20.787;-8.717;-9.984;-14.529;-9.835
2338197.564;-10.021;-15.609;-26.710;-23.171;-13.001;-9.425;-11.772;-8.903
2338197.572;-8.717;-13.746;-25.406;-22.575;-9.388;-10.133;-9.686;-9.537
2338197.580;2.347;-2.757;-14.827;-13.672;4.098;-1.937;-1.006;-2.049
2338197.588;-4.955;-8.456;-22.985;-19.781;-5.774;-6.668;-5.662;-9.276
2338197.596;-2.943;-7.115;-21.383;-18.515;-2.980;-5.886;-5.551;-7.637
2338197.560;0.447;-4.210;-18.850;-15.646;-0.559;-2.235;-3.912;-3.092
2338197.568;7.898;3.241;-12.629;-8.941;8.084;6.221;4.061;6.072
2338197.576;11.362;6.147;-10.654;-6.631;10.319;9.462;6.966;10.133
2338197.584;10.319;5.774;-11.809;-7.711;7.190;8.792;7.190;11.660
