Timestamp,AFz,AF3,AF4,AF7,AF8,Pz,P3,P4,2024-05-20 10:29:20.880,fs=125
5786206.519;23.358;96.560;11.995;24.065;-14.827;33.006;29.542;13.039
5786206.527;23.469;90.301;15.795;25.816;-9.499;29.057;24.512;6.519
5786206.535;29.728;101.365;24.326;31.814;0.410;33.677;27.120;9.164
5786206.543;25.779;90.823;18.254;34.273;-2.384;39.376;28.461;16.838
5786206.551;27.902;96.187;17.248;40.159;-6.333;40.121;28.647;13.188
5786206.559;33.826;107.922;21.569;51.036;-9.425;40.457;25.146;11.362
5786206.567;19.334;83.782;12.740;36.545;-23.805;42.766;21.383;13.597
5786206.575;18.291;84.154;2.868;29.914;-25.630;41.984;22.091;15.385
5786206.583;21.234;96.112;6.296;30.510;-21.271;42.953;31.181;20.787
5786206.591;17.099;89.966;3.986;36.247;-21.458;39.227;31.702;17.546
5786206.599;18.701;91.270;4.657;37.998;-18.552;37.625;30.585;11.846
5786206.607;22.762;93.021;13.821;45.635;-23.432;40.084;31.628;13.970
5786206.615;24.028;98.124;11.399;43.921;-28.349;35.465;27.306;6.780
5786206.623;20.713;92.573;10.878;39.041;-24.475;24.922;13.150;-1.565
5786206.631;7.935;77.561;-4.023;27.418;-39.637;15.013;2.198;-8.941
5786206.639;6.855;77.188;-10.692;31.069;-37.141;16.056;4.582;-3.949
5786206.647;9.462;80.541;-4.806;37.961;-42.096;23.618;11.064;4.992
5786206.655;13.486;82.329;-2.906;45.821;-44.331;34.682;23.320;18.775
5786206.663;7.972;70.781;-3.688;37.700;-32.820;37.141;33.416;25.593
5786206.671;9.686;77.337;-2.421;37.402;-29.318;34.943;40.792;22.538
5786206.679;17.956;88.587;4.843;46.194;-17.099;31.069;44.107;17.509
5786206.687;23.246;94.995;9.835;55.060;-18.589;29.728;44.517;17.136
5786206.695;27.120;95.516;11.846;60.163;-17.844;25.854;41.164;13.709
5786206.703;27.120;88.438;12.666;65.453;-15.050;17.583;33.788;6.258
5786206.774;28.126;94.473;13.299;61.840;-15.125;11.288;24.736;7.004
5786206.782;26.859;98.720;18.515;52.601;-12.070;7.004;20.564;3.651
5786206.790;23.469;93.393;7.898;58.264;-10.729;6.072;21.979;3.465
5786206.798;24.065;90.450;6.445;60.648;-14.566;13.262;33.975;13.299
5786206.806;22.165;88.885;8.941;56.215;-26.152;20.750;37.849;24.587
5786206.814;19.670;84.527;1.863;55.246;-24.848;18.179;30.957;22.985
5786206.822;14.231;78.268;2.831;49.397;-23.320;8.643;15.385;11.064
5786206.830;12.927;73.202;3.688;41.611;-24.773;-0.894;3.725;-0.969
5786206.838;16.280;74.320;7.115;52.378;-27.269;4.955;11.548;2.012
5786206.846;15.534;77.039;7.376;51.670;-33.118;5.551;13.374;1.714
5786206.854;24.438;99.726;5.364;68.471;-27.083;1.416;12.107;-4.023
5786206.862;29.206;98.608;9.015;77.188;-27.418;-12.033;-0.149;-16.876
5786206.870;27.902;93.058;13.039;78.715;-35.986;-12.852;-2.906;-18.366
5786206.878;36.545;106.357;25.108;82.739;-27.232;-8.717;-0.708;-16.056
5786206.886;23.693;92.275;12.442;70.967;-38.259;-13.001;-9.537;-20.936
5786206.894;19.111;85.235;1.378;66.720;-39.078;-9.835;-7.078;-14.678
5786206.902;13.635;68.359;-3.465;56.736;-31.330;-8.531;-2.049;-11.548
5786206.910;9.201;69.402;2.123;53.681;-41.500;-9.909;-4.619;-11.176
5786206.918;12.778;73.314;8.754;57.146;-36.508;-1.974;1.267;-4.917
5786206.926;11.846;78.566;6.706;54.240;-35.912;-0.782;2.198;-4.023
5786206.934;7.153;65.826;-2.831;47.125;-41.537;-4.582;-0.522;-7.264
5786206.942;7.004;61.207;-3.688;43.772;-25.406;-3.055;3.055;-6.445
5786206.950;17.770;77.002;7.823;58.897;-15.870;-2.868;5.662;-9.835
5786206.958;17.025;79.870;7.786;64.932;-17.732;-2.794;14.901;-11.958
5786206.892;15.460;78.529;10.133;56.103;-25.295;-4.992;19.632;-13.933
5786206.900;19.148;80.988;9.649;52.117;-9.090;-10.692;14.715;-15.870
5786206.908;18.515;72.122;12.629;56.885;-10.692;-9.984;14.938;-11.772
5786206.916;20.564;82.739;9.686;63.442;-16.689;-10.207;7.488;-13.225
5786206.924;14.417;78.343;-0.894;55.805;-32.522;-14.156;-4.023;-19.260
5786206.932;15.870;73.873;6.855;52.527;-29.542;-16.615;-10.729;-17.434
5786206.940;16.429;78.306;7.190;48.205;-22.464;-13.188;-9.574;-14.156
5786206.948;14.268;75.214;6.594;48.913;-25.630;-4.880;-0.894;-6.780
5786206.956;5.662;62.138;-5.141;41.462;-32.522;-4.619;0.224;-8.605
5786206.964;-1.900;50.068;-13.821;30.696;-38.221;-6.184;-2.086;-14.380
5786206.972;-3.614;48.280;-15.125;26.450;-36.359;-1.602;2.645;-6.668
5786206.980;5.066;57.407;-5.178;38.110;-22.128;6.855;16.354;5.178
5786206.988;9.537;57.444;-0.596;42.468;-24.959;8.233;23.544;6.594
5786206.996;0.671;43.660;-3.316;35.204;-36.620;3.017;22.091;-2.123
5786207.004;1.751;56.252;-10.133;38.482;-20.079;5.327;23.209;-1.602
5786207.012;4.880;62.510;-4.582;46.715;-10.468;12.368;24.326;2.608
5786207.020;4.396;58.860;-4.210;43.586;-23.060;17.099;21.271;3.614
5786207.028;5.588;52.713;3.874;43.139;-25.816;25.593;18.738;14.752
5786207.036;-4.470;41.202;-0.484;31.181;-31.926;21.756;15.162;13.709
5786207.044;-3.949;42.655;-10.952;28.796;-30.436;16.391;20.787;9.649
5786207.052;-9.201;30.808;-20.154;23.320;-28.647;10.617;25.593;7.413
5786207.060;-6.445;40.941;-13.597;29.467;-30.175;8.643;25.518;9.425
5786207.068;4.210;54.166;-5.849;44.443;-23.805;12.815;22.277;9.388
5786207.076;3.241;53.570;-1.267;42.319;-23.097;7.004;8.754;-2.123
5786207.015;-2.347;43.921;-11.213;29.802;-30.473;-0.745;-0.857;-13.858
5786207.023;1.714;47.311;-11.288;41.015;-32.000;3.204;8.009;-11.697
5786207.031;9.090;53.756;5.737;51.744;-18.924;7.413;17.695;-6.706
5786207.039;18.291;70.632;12.070;58.524;-4.321;23.246;40.419;11.511
5786207.047;6.109;58.375;1.974;41.164;-25.630;18.328;34.720;7.451
5786207.055;-4.172;37.663;-5.104;24.885;-19.930;5.774;18.477;-4.321
5786207.063;0.894;43.325;-4.657;38.296;-30.510;1.900;12.070;-10.468
5786207.071;-6.258;48.615;-14.454;50.217;-34.124;-1.490;2.868;-15.199
5786207.079;14.156;67.391;15.907;61.803;1.937;-9.313;-8.196;-20.079
5786207.087;50.105;100.359;54.054;75.474;32.187;-6.743;-6.855;-14.082
5786207.095;85.495;142.008;91.605;96.411;72.010;-0.708;2.906;-6.631
5786207.103;111.833;170.134;127.926;101.812;109.524;1.229;6.817;-6.221
5786207.111;149.235;207.052;173.002;122.376;140.890;3.614;4.321;-2.384
5786207.119;182.576;240.020;215.620;145.286;164.807;-0.671;-4.843;-6.370
5786207.127;209.883;269.599;247.546;165.477;200.272;-8.158;-11.511;-16.540
5786207.135;228.733;280.403;271.611;166.781;229.143;-8.494;-7.562;-14.417
5786207.143;244.677;292.398;289.530;170.842;254.959;-2.570;-0.112;-5.998
5786207.151;242.107;294.782;290.722;165.440;268.780;-1.937;6.668;-8.121
5786207.159;230.968;284.538;285.357;160.895;259.280;-5.625;7.935;-13.001
5786207.167;215.136;262.111;270.158;138.804;259.764;-13.262;-1.639;-16.168
5786207.175;193.305;232.197;251.643;114.813;255.965;-14.901;-10.543;-16.466
5786207.183;159.591;188.798;224.002;78.008;224.113;-24.848;-31.404;-25.257
5786207.191;117.868;141.934;185.072;32.485;183.210;-41.090;-54.762;-38.333
5786207.199;92.722;120.997;151.023;6.221;171.065;-41.276;-52.191;-38.035
5786207.192;82.292;104.234;146.590;-5.290;174.381;-31.814;-36.098;-31.888
5786207.200;63.926;80.727;125.542;-18.701;156.350;-31.888;-33.528;-33.937
5786207.208;42.804;53.048;101.626;-33.565;148.378;-32.783;-31.479;-36.024
5786207.216;26.114;37.216;81.062;-42.729;144.839;-32.447;-28.685;-34.980
5786207.224;5.998;12.740;64.634;-60.834;130.124;-31.069;-25.220;-34.086
5786207.232;-5.476;-6.817;56.513;-78.194;118.949;-29.169;-29.206;-32.373
5786207.240;-12.107;-9.984;46.119;-89.295;103.749;-33.006;-37.439;-37.812
5786207.248;-15.311;-8.531;39.563;-82.403;102.147;-29.840;-37.961;-31.404
5786207.256;-22.799;-16.615;23.656;-77.263;98.012;-31.777;-46.082;-38.631
5786207.264;-26.897;-23.656;15.050;-77.039;87.246;-27.418;-40.904;-37.141
5786207.272;-40.308;-40.531;14.268;-93.281;80.317;-31.590;-38.221;-38.557
5786207.280;-49.137;-43.884;9.499;-101.514;74.282;-30.734;-35.018;-36.992
5786207.288;-49.509;-38.445;4.098;-92.722;80.243;-20.005;-28.200;-28.387
5786207.296;-48.019;-37.886;0.522;-80.839;61.579;-15.087;-27.567;-24.289
5786207.304;-55.842;-50.291;-13.225;-89.221;53.011;-22.836;-38.706;-37.029
5786207.312;-65.081;-60.201;-26.636;-93.840;46.305;-31.739;-50.962;-43.772
5786207.320;-64.857;-63.144;-19.744;-90.562;55.619;-29.914;-42.245;-35.278
5786207.328;-63.255;-65.044;-12.331;-91.419;55.246;-23.991;-26.524;-21.830
5786207.336;-69.551;-60.126;-21.048;-103.302;37.998;-33.602;-32.745;-33.192
5786207.344;-68.769;-67.055;-23.171;-100.061;45.374;-33.155;-35.055;-40.345
5786207.352;-71.004;-74.506;-31.367;-90.599;39.414;-32.894;-42.878;-41.239
5786207.360;-67.875;-66.608;-22.203;-83.260;56.364;-26.077;-42.468;-34.906
5786207.368;-64.783;-64.448;-13.150;-80.355;52.862;-23.097;-37.551;-32.224
5786207.376;-65.044;-68.508;-15.236;-88.811;47.088;-16.987;-24.550;-25.183
5786207.394;-77.598;-89.295;-32.149;-101.104;40.308;-19.595;-25.406;-29.095
5786207.402;-78.678;-90.227;-29.542;-95.554;41.611;-16.987;-28.089;-33.975
5786207.410;-69.216;-73.425;-31.516;-85.123;54.650;-5.178;-19.260;-26.338
5786207.418;-64.783;-71.079;-24.140;-80.876;46.194;-1.155;-9.425;-27.083
5786207.426;-68.694;-76.145;-27.828;-83.111;45.300;-5.700;-12.703;-33.975
5786207.434;-67.055;-75.586;-25.257;-80.168;35.726;-6.668;-16.205;-36.545
5786207.442;-77.114;-90.934;-38.221;-87.358;29.840;-12.778;-23.022;-36.508
5786207.450;-78.194;-92.238;-42.543;-86.799;34.869;-14.529;-21.532;-32.336
5786207.458;-76.443;-89.221;-42.357;-86.948;34.645;-14.566;-22.985;-29.504
5786207.466;-76.704;-93.579;-33.304;-88.587;30.845;-10.803;-21.346;-26.189
5786207.474;-78.790;-93.430;-32.857;-88.178;31.292;-11.064;-23.916;-30.361
5786207.482;-74.171;-81.398;-31.590;-80.131;30.696;-8.866;-22.613;-28.610
5786207.490;-70.445;-83.670;-33.081;-73.574;32.336;-12.666;-22.389;-29.281
5786207.498;-63.479;-77.151;-25.034;-67.540;39.078;-13.262;-20.266;-29.504
5786207.506;-67.838;-86.278;-28.163;-73.090;37.402;-14.640;-16.727;-27.232
5786207.514;-70.930;-88.960;-25.630;-75.176;32.559;-16.242;-12.852;-25.667
5786207.522;-69.179;-86.017;-26.263;-73.835;38.818;-16.429;-11.884;-17.360
5786207.530;-72.941;-84.825;-37.663;-74.320;16.727;-25.854;-22.091;-22.650
5786207.538;-79.572;-89.072;-38.967;-77.523;14.231;-37.663;-37.365;-39.190
5786207.546;-81.435;-92.797;-43.325;-72.941;20.377;-39.898;-42.617;-38.296
5786207.554;-79.572;-93.095;-45.300;-68.881;10.170;-36.620;-44.703;-34.720
5786207.562;-78.827;-90.674;-43.772;-63.069;12.927;-43.362;-57.220;-42.468
5786207.570;-76.294;-85.086;-43.586;-61.989;5.141;-48.429;-57.742;-46.454
5786207.578;-71.898;-84.117;-41.202;-66.124;3.017;-46.603;-50.068;-48.093
5786207.658;-68.173;-77.151;-35.577;-52.266;19.968;-43.996;-46.231;-44.890
5786207.666;-61.169;-72.755;-33.081;-50.105;14.827;-38.520;-36.955;-34.831
5786207.674;-71.637;-86.240;-42.580;-59.158;7.153;-38.929;-32.969;-31.218
5786207.682;-76.517;-84.378;-41.090;-54.389;6.780;-46.529;-39.153;-40.643
5786207.690;-77.374;-85.272;-43.884;-46.492;1.527;-45.896;-45.449;-46.901
5786207.698;-75.139;-88.401;-43.884;-48.652;-9.313;-44.703;-50.403;-44.219
5786207.706;-62.995;-65.975;-36.247;-36.620;7.711;-31.255;-35.278;-26.189
5786207.714;-65.714;-66.943;-43.847;-37.327;6.780;-25.257;-26.673;-19.073
5786207.722;-75.363;-80.951;-47.758;-48.429;-3.576;-36.657;-39.898;-28.983
5786207.730;-77.263;-79.870;-39.041;-38.855;-5.998;-41.835;-44.554;-37.886
5786207.738;-67.651;-74.133;-39.563;-26.748;-1.527;-33.937;-29.355;-31.106
5786207.746;-65.379;-70.482;-42.953;-25.406;-1.192;-24.326;-10.505;-25.369
5786207.754;-70.594;-70.855;-42.990;-32.634;-8.792;-24.140;-14.380;-27.604
5786207.762;-70.706;-69.477;-49.025;-33.937;-12.033;-27.791;-25.555;-32.857
5786207.770;-58.524;-67.167;-28.946;-16.093;11.288;-22.240;-27.493;-28.983
5786207.778;-49.062;-57.034;-15.125;-6.519;20.675;-14.529;-22.724;-22.426
5786207.786;-55.209;-64.746;-30.883;-15.795;6.221;-18.440;-27.344;-26.971
5786207.794;-61.691;-68.657;-32.634;-22.724;-3.539;-24.848;-34.533;-27.567
5786207.802;-61.952;-62.957;-31.963;-27.008;-10.356;-28.424;-35.241;-27.008
5786207.810;-57.928;-60.312;-30.585;-22.091;2.198;-29.504;-32.894;-24.922
5786207.818;-52.415;-60.052;-22.873;-8.829;12.368;-27.083;-25.928;-23.618
5786207.826;-55.060;-67.130;-20.824;-10.729;13.076;-34.496;-27.791;-31.218
5786207.834;-56.624;-64.187;-28.238;-15.758;12.815;-37.551;-24.661;-33.192
5786207.842;-53.011;-57.220;-24.140;-10.245;10.431;-24.252;-12.442;-21.793
5786207.883;-54.464;-62.287;-16.317;-12.293;16.019;-15.199;-10.803;-18.738
5786207.891;-68.545;-74.394;-34.980;-25.369;2.570;-26.152;-28.722;-29.542
5786207.899;-71.116;-73.947;-39.376;-24.810;-1.863;-31.367;-36.657;-30.138
5786207.907;-66.906;-68.471;-39.786;-23.954;-5.402;-35.912;-44.480;-30.473
5786207.915;-62.622;-67.763;-36.284;-10.468;-4.880;-46.194;-54.874;-38.706
5786207.923;-61.095;-67.130;-25.705;-13.784;4.806;-47.609;-53.570;-37.849
5786207.931;-59.865;-64.448;-20.601;-22.426;1.080;-46.231;-50.776;-34.720
5786207.939;-61.281;-65.677;-29.653;-19.819;-3.688;-41.164;-45.523;-30.175
5786207.947;-66.757;-75.996;-39.525;-20.303;-6.072;-33.714;-34.198;-30.883
5786207.955;-59.754;-62.473;-37.327;-11.921;6.519;-21.607;-17.136;-22.873
5786207.963;-56.773;-59.232;-29.430;-5.029;4.619;-22.836;-18.552;-27.232
5786207.971;-53.532;-57.779;-20.973;-5.029;3.055;-36.620;-40.233;-41.276
5786207.979;-46.939;-52.974;-15.758;-7.860;21.495;-33.714;-41.164;-33.565
5786207.987;-43.772;-46.641;-14.566;-8.233;15.907;-35.726;-38.855;-31.292
5786207.995;-51.707;-58.375;-24.997;-12.703;11.064;-45.858;-40.196;-36.173
5786208.003;-64.410;-75.586;-39.041;-24.252;6.855;-49.733;-43.735;-37.402
5786208.011;-60.201;-70.482;-26.189;-18.589;8.456;-45.225;-43.474;-36.508
5786208.019;-48.354;-52.825;-12.517;-7.749;10.133;-38.296;-38.370;-35.390
5786208.027;-50.999;-56.364;-24.065;-13.337;8.903;-32.112;-29.393;-31.143
5786208.035;-48.019;-57.295;-21.644;-7.786;23.432;-25.406;-15.870;-25.779
5786208.043;-50.589;-61.169;-19.521;-8.941;12.815;-22.203;-14.789;-27.567
5786208.051;-58.152;-65.640;-27.902;-12.144;-1.080;-28.014;-27.530;-37.700
5786208.059;-57.183;-56.811;-25.369;-9.164;-3.278;-28.722;-30.212;-36.210
5786208.067;-59.456;-64.820;-28.759;-15.423;-0.261;-32.112;-31.665;-29.951
5786208.078;-72.308;-86.576;-41.388;-37.104;-5.141;-48.056;-41.388;-40.494
5786208.086;-68.322;-73.910;-38.445;-28.163;4.396;-45.039;-32.447;-31.441
5786208.094;-58.152;-59.679;-28.834;-10.468;15.534;-33.788;-22.314;-20.191
5786208.102;-67.130;-73.351;-41.164;-19.558;-3.166;-32.745;-26.263;-20.936
5786208.110;-70.892;-78.529;-40.643;-23.171;-13.709;-30.436;-32.485;-22.352
5786208.118;-72.271;-80.839;-38.929;-33.416;-10.990;-34.012;-39.227;-30.920
5786208.126;-64.969;-81.360;-33.155;-26.822;3.502;-34.384;-35.353;-30.734
5786208.134;-59.903;-73.910;-26.710;-15.721;8.494;-31.628;-25.555;-19.558
5786208.142;-56.513;-65.491;-27.716;-13.113;1.378;-31.255;-21.458;-21.197
5786208.150;-53.607;-64.634;-23.134;-7.339;10.282;-32.559;-27.418;-32.261
5786208.158;-61.579;-75.549;-28.200;-25.555;-7.823;-41.835;-40.047;-46.007
5786208.166;-60.610;-74.506;-27.940;-29.244;-3.651;-40.121;-35.055;-43.660
5786208.174;-55.581;-71.861;-18.701;-10.580;11.139;-26.450;-18.142;-28.163
5786208.182;-58.077;-73.165;-31.665;-10.468;14.082;-21.309;-12.144;-21.569
5786208.190;-57.034;-68.136;-33.639;-16.876;8.382;-17.993;-13.933;-16.503
5786208.198;-56.513;-70.222;-29.281;-22.165;9.499;-19.930;-20.601;-20.862
5786208.206;-55.730;-75.251;-26.003;-15.944;-3.614;-21.458;-27.381;-27.344
5786208.214;-52.005;-71.377;-23.395;-10.207;-7.749;-20.787;-27.604;-25.779
5786208.222;-53.123;-72.271;-24.997;-10.058;12.293;-21.979;-23.581;-24.810
5786208.230;-57.109;-70.632;-28.722;-12.964;10.133;-24.699;-24.810;-26.785
5786208.238;-48.131;-62.622;-23.544;-14.342;3.614;-25.928;-27.530;-28.089
5786208.246;-43.027;-58.189;-14.566;-5.849;7.600;-14.864;-9.909;-18.962
5786208.254;-53.644;-68.136;-20.415;-10.692;5.998;-21.905;-16.131;-32.634
5786208.262;-59.456;-73.947;-27.381;-16.913;-2.310;-31.739;-32.783;-45.672
5786208.288;-58.301;-77.747;-25.854;-19.483;7.525;-27.157;-29.206;-33.416
5786208.296;-56.662;-74.692;-21.458;-15.944;7.004;-20.005;-20.973;-20.415
5786208.304;-54.017;-71.079;-13.337;-13.672;11.027;-18.552;-24.997;-20.452
5786208.312;-64.634;-83.297;-32.596;-26.822;-4.731;-31.032;-40.196;-33.565
5786208.320;-60.350;-84.005;-28.089;-18.887;-4.247;-22.762;-23.693;-24.326
5786208.328;-48.466;-64.783;-15.981;-3.763;10.170;-14.640;-10.505;-19.111
5786208.336;-42.580;-58.934;-14.007;0.224;11.101;-14.007;-13.746;-22.314
5786208.344;-44.517;-64.000;-16.950;-3.204;4.917;-18.813;-20.713;-27.828
5786208.352;-51.223;-66.124;-23.842;-9.760;7.600;-27.791;-26.263;-34.496
5786208.360;-52.862;-70.967;-21.011;-13.448;3.502;-24.699;-18.999;-28.051
5786208.368;-61.691;-83.633;-28.163;-14.640;-7.190;-27.083;-28.871;-34.757
5786208.376;-57.109;-77.449;-21.122;-9.164;-11.027;-24.401;-28.759;-30.436
5786208.384;-55.507;-74.245;-24.326;-5.960;10.580;-21.718;-19.148;-22.352
5786208.392;-63.628;-85.793;-39.004;-19.036;0.298;-33.602;-34.831;-36.322
5786208.400;-55.507;-73.388;-22.277;-8.792;-4.619;-29.840;-39.935;-32.037
5786208.408;-49.584;-67.167;-11.250;-1.155;4.023;-18.701;-23.991;-22.575
5786208.416;-50.254;-74.357;-20.303;-5.141;8.382;-12.368;-10.356;-13.933
5786208.424;-45.262;-60.312;-15.683;4.806;12.033;-10.356;-12.256;-13.113
5786208.432;-53.570;-73.910;-24.475;0.596;-2.980;-17.844;-24.177;-21.160
5786208.440;-56.066;-78.306;-27.604;-6.594;-3.204;-23.805;-26.561;-32.224
5786208.448;-56.252;-82.254;-19.893;-14.678;1.006;-14.976;-13.635;-22.389
5786208.456;-45.747;-67.875;-12.182;0.335;8.829;-14.864;-14.901;-23.730
5786208.464;-34.831;-54.426;-7.041;16.801;7.041;-15.497;-21.160;-23.283
5786208.472;-23.507;-41.388;2.496;34.310;-1.788;-18.142;-19.372;-24.065
5786208.483;-16.093;-32.112;1.080;55.768;-18.738;-19.036;-13.523;-19.446
5786208.491;-6.817;-22.687;-0.931;62.808;-15.981;-16.950;-11.772;-13.895
5786208.499;4.172;-7.860;14.342;75.437;-5.737;-18.775;-21.122;-15.125
5786208.507;18.813;15.609;25.928;102.744;-16.913;-8.866;-14.827;-5.476
5786208.515;28.461;22.389;29.914;128.821;-16.056;1.788;4.396;-0.224
5786208.523;35.316;32.671;32.857;142.120;-22.016;8.903;20.675;-0.186
5786208.531;42.021;50.291;36.918;156.574;-13.113;18.515;30.957;-1.900
5786208.539;45.970;51.111;43.809;163.466;-13.411;21.234;26.636;-0.894
5786208.547;41.761;44.182;42.729;161.342;-34.049;16.950;15.870;-1.229
5786208.555;32.969;35.912;28.573;159.740;-41.984;16.429;20.675;3.017
5786208.563;27.493;32.224;25.555;151.508;-27.493;22.240;34.086;11.623
5786208.571;26.375;24.438;25.369;147.782;-17.770;22.054;29.467;6.966
5786208.579;24.326;17.583;28.275;144.392;-31.590;20.042;17.062;0.633
5786208.587;22.277;24.512;21.495;147.857;-48.317;19.260;8.121;-0.559
5786208.595;19.595;25.779;15.870;141.487;-43.511;20.303;9.276;5.327
5786208.603;26.077;24.177;21.160;143.051;-36.284;26.822;18.775;16.801
5786208.611;18.552;14.827;18.738;137.910;-53.793;21.458;15.795;10.803
5786208.619;17.136;10.282;15.236;134.706;-54.538;23.805;30.659;10.990
5786208.627;16.131;12.293;8.047;134.185;-54.948;23.060;43.139;8.494
5786208.635;13.933;20.079;5.774;140.890;-50.403;16.429;40.904;8.009
5786208.643;14.156;16.764;10.170;137.836;-53.272;16.391;43.288;16.615
5786208.651;11.139;6.147;10.394;133.067;-63.479;14.864;36.396;20.526
5786208.659;4.843;-0.559;3.278;123.307;-61.505;14.901;28.685;29.057
5786208.667;3.912;8.196;-0.708;132.583;-58.264;3.539;10.505;16.540
5786208.692;23.283;36.880;19.222;161.454;-54.352;4.061;7.488;13.895
5786208.700;26.003;34.384;25.816;163.279;-62.808;5.811;9.164;13.337
5786208.708;32.373;35.353;25.481;162.013;-70.818;8.605;10.729;13.486
5786208.716;35.204;42.096;24.773;174.902;-66.273;8.792;10.692;8.680
5786208.724;37.067;48.876;27.977;178.218;-59.195;16.950;21.532;11.437
5786208.732;30.994;42.692;19.632;168.048;-71.377;21.867;26.450;13.933
5786208.740;27.828;35.167;17.360;165.366;-72.159;21.905;30.287;14.827
5786208.748;34.496;39.712;22.426;170.246;-60.275;28.238;42.208;24.028
5786208.756;33.267;43.400;21.197;169.575;-61.169;24.922;42.580;20.750
5786208.764;27.195;37.998;17.285;165.924;-61.616;20.675;33.453;18.999
5786208.772;23.060;32.410;11.623;162.423;-67.875;24.103;27.828;25.034
5786208.780;21.458;32.075;6.706;155.643;-76.294;29.728;22.799;33.863
5786208.788;13.895;26.077;1.788;150.539;-87.284;25.406;12.740;23.469
5786208.796;9.201;15.311;-3.092;143.945;-88.885;26.003;23.171;20.973
5786208.804;14.119;21.607;5.364;147.931;-71.526;32.894;49.435;28.424
5786208.812;20.638;26.301;12.293;152.625;-60.983;35.428;66.459;33.416
5786208.820;23.022;31.032;9.686;158.511;-68.247;28.796;62.883;26.897
5786208.828;19.819;26.934;14.827;158.027;-71.824;17.099;42.059;12.964
5786208.836;24.773;40.084;17.174;158.474;-66.757;12.182;25.630;6.258
5786208.844;30.659;51.260;16.615;159.182;-68.694;16.019;26.226;13.821
5786208.852;29.691;41.947;17.732;162.497;-56.624;22.277;35.316;28.387
5786208.860;23.358;37.104;13.821;163.205;-55.991;25.667;40.568;32.522
5786208.868;12.740;24.363;5.998;150.651;-66.496;20.154;27.977;29.020
5786208.876;15.832;32.820;9.425;141.114;-73.947;16.615;16.801;28.163
5786208.831;15.534;28.126;5.327;139.326;-74.692;17.807;18.179;30.212
5786208.839;20.154;27.195;14.789;149.086;-59.716;28.424;37.514;37.253
5786208.847;22.277;33.379;16.764;153.109;-50.217;34.645;50.962;43.437
5786208.855;12.554;26.263;6.743;134.893;-59.083;24.997;38.855;29.616
5786208.863;13.225;30.547;4.768;138.432;-67.316;25.928;37.216;24.699
5786208.871;16.540;31.665;6.296;143.163;-77.970;30.175;40.606;21.420
5786208.879;19.148;29.467;15.497;139.661;-66.608;22.054;35.651;12.591
5786208.887;21.346;26.338;18.515;141.710;-55.991;23.022;39.414;16.354
5786208.895;19.595;33.751;10.431;138.991;-53.905;25.183;42.170;28.051
5786208.903;15.162;29.802;5.141;123.456;-56.922;28.200;45.635;37.551
5786208.911;16.540;28.238;3.316;127.926;-59.120;26.375;43.921;34.422
5786208.919;12.293;24.401;5.290;134.967;-57.332;17.136;34.198;25.220
5786208.927;14.007;23.618;6.035;133.030;-57.481;15.758;32.000;22.613
5786208.935;13.076;14.305;13.970;129.268;-58.562;18.701;28.275;22.985
5786208.943;12.554;20.452;11.586;123.270;-64.299;21.905;25.257;24.363
5786208.951;8.978;19.372;7.786;121.072;-56.662;24.773;29.616;22.613
5786208.959;13.039;24.438;13.784;127.181;-47.199;34.235;46.492;28.796
5786208.967;14.529;25.108;5.476;131.652;-52.527;43.102;60.722;36.471
5786208.975;11.884;20.452;6.817;125.207;-47.833;43.921;61.505;35.316
5786208.983;8.605;13.299;4.880;117.570;-59.381;31.181;46.119;30.920
5786208.991;10.170;11.399;4.247;118.874;-63.442;26.040;37.365;29.355
5786208.999;12.517;19.036;6.147;124.276;-46.492;23.246;34.831;25.332
5786209.007;9.164;13.895;7.674;116.974;-45.858;25.220;40.866;27.604
5786209.015;14.305;16.689;5.029;120.439;-42.990;31.516;51.260;33.453
5786209.054;22.911;26.748;15.274;128.746;-42.692;34.012;55.432;37.290
5786209.062;19.446;26.748;15.162;121.519;-44.703;28.647;47.684;28.573
5786209.070;19.185;26.524;13.635;123.978;-39.041;30.324;43.474;25.183
5786209.078;12.890;20.824;6.743;116.453;-49.733;26.338;34.049;17.881
5786209.086;15.013;26.450;7.637;118.092;-47.274;23.358;34.459;17.621
5786209.094;16.950;18.850;5.849;122.786;-42.208;25.481;43.400;22.613
5786209.102;15.162;16.801;17.248;119.396;-35.092;29.616;47.274;31.106
5786209.110;18.068;28.647;12.703;118.278;-27.828;32.522;51.484;40.419
5786209.118;10.282;16.913;4.210;110.753;-41.872;27.008;46.901;32.336
5786209.126;13.188;14.566;6.445;120.662;-36.396;35.018;52.303;36.433
5786209.134;12.591;15.534;2.310;114.143;-39.972;36.396;53.234;37.625
5786209.142;14.417;23.358;12.107;111.200;-37.625;38.669;54.464;38.035
5786209.150;35.204;45.672;27.828;134.967;-17.546;38.855;56.475;38.594
5786209.158;37.812;50.142;26.748;133.924;-18.030;35.055;52.676;32.485
5786209.166;36.620;47.088;24.959;136.122;-22.203;31.814;48.466;24.810
5786209.174;41.053;46.082;36.322;142.939;-11.548;33.937;53.793;31.702
5786209.182;35.502;42.468;34.682;125.542;-18.775;28.275;48.690;30.659
5786209.190;23.954;33.155;24.103;114.366;-20.042;17.621;34.012;20.638
5786209.198;25.406;30.771;22.836;116.266;-12.591;20.228;33.304;25.965
5786209.206;29.914;35.278;24.624;123.605;-12.144;23.209;35.688;24.326
5786209.214;35.278;36.582;35.651;121.929;-12.703;27.418;38.818;25.146
5786209.222;34.720;39.637;39.190;120.029;-13.262;28.312;37.625;24.028
5786209.230;35.539;47.348;37.551;120.625;-3.055;28.536;36.322;20.899
5786209.238;27.269;30.845;30.063;117.533;-22.165;24.103;28.163;13.858
5786209.278;28.163;27.269;22.240;115.708;-24.624;19.372;19.483;7.972
5786209.286;27.344;28.647;18.775;116.006;-22.799;15.348;14.491;5.960
5786209.294;28.349;31.218;27.157;110.231;-13.821;9.052;11.772;3.353
5786209.302;31.628;35.837;34.682;119.992;-14.640;6.482;20.005;5.551
5786209.310;37.327;40.904;35.539;119.023;-10.580;8.568;27.195;14.119
5786209.318;22.054;18.887;19.632;103.414;-12.256;-0.671;15.609;7.600
5786209.326;16.540;13.746;14.268;101.849;-9.984;4.172;19.260;12.778
5786209.334;26.636;30.361;31.441;117.570;-4.210;22.016;39.488;30.957
5786209.342;31.739;33.490;37.923;115.000;-0.224;26.040;44.815;31.330
5786209.350;32.485;27.604;31.479;111.572;-3.017;30.994;51.185;29.281
5786209.358;36.135;31.777;27.120;121.295;-5.513;31.628;50.217;30.063
5786209.366;39.376;38.892;36.620;122.897;6.258;26.003;39.153;24.289
5786209.374;32.000;31.330;29.691;120.215;-3.241;16.317;25.220;12.442
5786209.382;32.410;28.685;27.344;114.813;-6.780;13.970;18.142;7.935
5786209.390;30.734;32.000;27.791;115.260;-16.652;13.411;14.380;9.984
5786209.398;26.189;27.567;21.458;118.874;-13.597;19.856;25.406;18.030
5786209.406;27.828;24.959;34.608;111.684;-3.092;27.008;34.086;24.363
5786209.414;34.422;36.545;30.696;114.143;-2.794;27.865;30.510;24.699
5786209.422;22.911;21.681;19.856;107.922;-5.849;19.670;21.309;19.148
5786209.430;17.621;11.623;11.325;100.173;-14.268;14.789;20.415;13.933
5786209.438;17.025;10.915;20.042;102.334;-11.362;16.876;26.003;16.950
5786209.446;22.426;18.217;30.771;103.153;-11.064;12.368;21.681;15.981
5786209.454;12.890;8.754;15.534;98.161;-13.858;1.714;9.462;1.639
5786209.462;14.901;16.093;9.164;103.638;-17.732;6.333;13.672;2.384
5786209.519;27.642;21.346;21.085;110.753;-13.374;18.552;25.071;14.305
5786209.527;30.845;26.673;36.210;116.527;-2.496;20.228;30.138;18.068
5786209.535;34.720;31.255;36.098;120.066;1.304;19.707;29.095;17.099
5786209.543;31.069;26.040;30.249;116.713;10.990;18.515;25.220;16.205
5786209.551;24.550;19.073;21.420;108.294;-0.559;13.821;18.924;13.337
5786209.559;20.191;11.101;21.793;96.150;-9.909;11.064;16.242;8.680
5786209.567;19.893;11.623;24.848;105.016;-4.768;9.164;15.162;8.643
5786209.575;19.744;13.784;21.495;106.953;7.376;9.388;20.713;10.766
5786209.583;17.919;14.640;16.950;103.749;2.645;10.282;24.885;11.250
5786209.591;13.262;7.041;10.021;99.540;-11.176;9.984;26.561;13.523
5786209.599;6.035;0.447;5.811;85.868;-13.895;9.462;28.946;9.090
5786209.607;-4.582;-11.921;-0.037;81.770;-18.515;12.554;32.000;2.608
5786209.615;5.476;-5.513;10.580;94.287;4.508;12.442;30.398;5.700
5786209.623;23.581;14.380;36.694;104.420;26.822;7.823;22.948;5.737
5786209.631;33.006;19.148;53.905;100.024;41.462;0.931;10.133;2.906
5786209.639;64.708;56.326;82.813;106.767;76.741;-7.376;-6.668;-0.708
5786209.647;102.669;101.514;127.740;122.450;133.775;-14.827;-18.813;-2.943
5786209.655;142.381;138.879;174.381;140.928;173.338;-8.345;-12.852;7.823
5786209.663;164.695;155.643;209.175;151.694;193.231;-8.680;-10.692;9.984
5786209.671;183.135;179.224;244.714;151.396;227.988;-10.580;-8.270;7.488
5786209.679;198.074;187.829;269.078;158.362;255.629;-9.872;0.149;5.662
5786209.687;206.009;190.325;270.009;164.248;272.356;-20.713;-6.109;-7.339
5786209.695;191.294;176.318;251.830;139.624;264.309;-31.441;-19.819;-19.483
5786209.703;165.068;149.831;231.937;115.819;240.877;-30.436;-25.369;-15.758
5786209.667;142.269;120.029;213.757;99.391;232.719;-24.736;-24.997;-7.153
5786209.675;118.427;89.444;186.637;85.086;217.855;-21.607;-28.126;-4.023
5786209.683;85.458;58.450;150.092;49.695;188.090;-30.808;-48.690;-13.523
5786209.691;55.023;23.171;109.226;8.978;148.900;-35.577;-61.505;-15.758
5786209.699;31.963;1.416;88.550;-8.307;130.720;-32.261;-57.109;-11.697
5786209.707;18.068;-13.560;80.094;-11.399;122.339;-30.883;-48.093;-8.009
5786209.715;9.276;-33.304;70.147;-13.076;127.777;-32.485;-40.568;-12.070
5786209.723;4.694;-27.642;54.389;-12.331;114.031;-35.651;-35.167;-17.658
5786209.731;3.390;-29.728;44.368;-8.829;101.253;-26.524;-17.323;-13.299
5786209.739;4.210;-25.518;42.394;-8.680;104.085;-13.374;-3.241;-1.900
5786209.747;-0.410;-29.914;43.325;-9.872;100.248;-11.362;-6.706;4.619
5786209.755;-11.735;-43.921;33.341;-16.876;79.088;-11.623;-12.331;-0.075
5786209.763;-23.507;-57.220;18.366;-29.132;70.333;-13.225;-20.489;-4.433
5786209.771;-23.507;-54.650;13.858;-23.767;74.320;-5.960;-20.415;5.998
5786209.779;-33.043;-59.195;-0.298;-27.977;63.889;-2.943;-24.848;10.356
5786209.787;-44.629;-74.506;-4.880;-38.557;52.042;-5.215;-29.020;11.064
5786209.795;-45.784;-77.337;-4.880;-41.239;51.446;-9.201;-28.573;9.127
5786209.803;-38.557;-64.895;2.123;-31.330;58.077;-7.935;-19.036;10.952
5786209.811;-36.098;-58.562;-6.333;-31.926;53.942;-12.554;-16.131;6.892
5786209.819;-39.637;-61.281;-11.846;-33.900;49.137;-17.583;-14.901;4.582
5786209.827;-41.872;-69.663;-8.307;-32.857;49.099;-18.887;-12.182;0.149
5786209.835;-43.325;-68.322;-10.096;-30.994;52.825;-16.764;-9.574;-4.023
5786209.843;-36.471;-55.172;-4.731;-20.191;53.234;-9.984;-7.711;-0.782
5786209.851;-23.767;-46.343;1.565;-6.333;55.246;0.708;1.565;7.413
5786209.791;-22.836;-45.709;4.768;-3.986;52.750;7.823;8.941;7.711
5786209.799;-32.485;-56.140;-5.625;-14.715;48.801;2.198;1.341;-1.602
5786209.807;-30.994;-60.536;-0.782;-16.652;52.117;1.378;-3.316;1.229
5786209.815;-28.312;-49.807;0.969;-9.909;46.641;-4.359;-13.076;-2.198
5786209.823;-29.430;-50.999;-4.619;-9.649;52.676;-10.878;-17.360;-15.199
5786209.831;-30.696;-54.836;-8.419;-9.984;48.727;-9.984;-15.199;-15.274
5786209.839;-30.212;-53.644;-8.754;-9.798;46.305;-5.178;-10.207;-10.468
5786209.847;-30.547;-55.954;-6.743;-14.938;41.761;3.353;-4.582;-1.974
5786209.855;-38.035;-65.267;-7.711;-23.618;29.318;0.075;-11.735;-1.453
5786209.863;-43.474;-65.938;-14.268;-28.051;40.121;-5.439;-20.228;-2.421
5786209.871;-42.021;-62.250;-14.529;-20.005;47.982;1.304;-14.342;14.193
5786209.879;-36.694;-59.344;-12.517;-17.397;44.405;6.743;-7.972;14.082
5786209.887;-39.004;-62.883;-14.752;-18.515;40.792;6.668;-5.551;11.735
5786209.895;-48.652;-76.145;-18.105;-31.739;31.330;4.321;-8.643;10.133
5786209.903;-48.019;-75.325;-20.079;-31.367;39.861;2.868;-11.250;12.182
5786209.911;-37.141;-56.885;-10.952;-13.672;58.226;6.966;-4.135;16.205
5786209.919;-29.095;-47.833;-0.820;-16.317;56.438;10.021;5.215;19.334
5786209.927;-31.404;-55.097;-8.941;-9.350;47.125;12.107;9.909;22.575
5786209.935;-30.696;-55.730;-6.333;-3.651;38.967;5.774;-2.272;9.350
5786209.943;-29.355;-53.942;-8.233;-8.792;40.606;-1.043;-12.852;-2.570
5786209.951;-27.940;-54.240;-3.874;-5.625;56.699;-0.484;-13.374;0.037
5786209.959;-33.602;-59.716;-8.270;-9.127;45.262;-10.021;-22.501;-4.284
5786209.967;-25.034;-51.931;-0.261;-5.290;51.185;-9.350;-22.054;0.261
5786209.975;-25.369;-51.782;-1.378;-6.631;45.821;-12.033;-24.773;2.384
5786209.907;-27.344;-52.676;-3.837;-12.703;52.489;-11.213;-21.830;3.017
5786209.915;-27.940;-50.515;-2.347;-11.958;54.315;-5.253;-16.391;3.353
5786209.923;-22.203;-42.245;-4.210;-10.803;53.346;-0.149;-11.735;7.562
5786209.931;-24.885;-49.248;-4.619;-7.302;55.321;2.682;-3.725;9.611
5786209.939;-33.118;-62.287;-14.827;-10.207;51.633;-2.757;1.639;4.061
5786209.947;-20.750;-51.446;0.484;-1.714;55.544;10.431;21.122;16.540
5786209.955;-16.317;-44.741;6.668;2.049;49.956;17.695;25.369;22.575
5786209.963;-20.042;-49.956;5.066;-4.023;61.356;11.437;14.305;14.976
5786209.971;-18.291;-49.770;4.321;1.602;61.840;13.113;14.007;15.013
5786209.979;-18.887;-46.045;-0.484;1.155;47.833;13.895;14.864;13.784
5786209.987;-17.919;-40.904;8.903;4.396;47.982;11.586;11.139;14.678
5786209.995;-12.778;-37.402;5.178;4.806;50.142;4.172;-0.820;10.878
5786210.003;-8.047;-41.276;11.586;7.562;58.487;5.141;-3.055;10.245
5786210.011;-10.766;-40.904;8.792;6.109;64.261;5.737;-5.513;10.245
5786210.019;-9.127;-34.869;8.643;3.688;65.453;14.156;3.837;16.540
5786210.027;-7.004;-36.545;14.976;5.811;59.605;27.120;21.271;30.883
5786210.035;-6.519;-33.081;13.411;7.972;61.579;32.634;28.089;37.886
5786210.043;-12.927;-44.443;4.135;8.568;62.846;29.318;24.810;30.696
5786210.051;-12.070;-48.578;9.499;5.960;61.020;28.238;21.495;29.765
5786210.059;-8.345;-30.734;10.654;8.643;52.638;28.387;19.036;25.369
5786210.067;-5.662;-31.181;21.122;11.995;49.733;35.390;29.914;28.908
5786210.075;-10.058;-36.359;17.248;11.250;55.954;41.090;38.072;36.657
5786210.083;-14.156;-46.119;3.465;9.723;53.048;37.067;36.918;32.447
5786210.091;-5.253;-37.178;10.319;13.523;60.163;44.741;47.423;40.457
5786210.133;-8.680;-36.620;4.619;9.164;58.748;44.629;45.113;42.059
5786210.141;-11.437;-36.098;9.798;6.855;61.244;44.666;39.376;47.274
5786210.149;-21.197;-49.695;0.000;-0.782;53.905;33.416;25.183;37.514
5786210.157;-16.801;-47.311;4.023;0.820;51.782;26.152;16.652;26.710
5786210.165;-14.640;-53.756;-1.527;-2.496;51.297;22.650;16.280;23.358
5786210.173;-4.396;-37.402;8.680;7.972;58.226;23.693;23.879;27.269
5786210.181;1.006;-29.020;25.630;16.391;80.243;27.083;34.645;29.057
5786210.189;-1.192;-35.688;27.530;11.772;76.853;27.716;35.837;25.183
5786210.197;3.614;-32.522;23.767;16.242;77.002;32.187;36.210;22.836
5786210.205;7.674;-16.056;22.054;21.830;77.225;32.559;25.369;24.885
5786210.213;7.190;-21.905;26.599;22.724;71.004;26.338;11.176;18.552
5786210.221;5.923;-26.152;23.991;17.770;65.491;21.383;6.929;17.136
5786210.229;7.041;-28.722;29.542;19.409;77.225;22.948;12.480;21.867
5786210.237;6.929;-27.232;28.573;18.664;81.658;24.438;21.905;27.716
5786210.245;-1.676;-34.384;10.841;13.635;66.981;16.168;18.179;20.154
5786210.253;-16.950;-51.260;1.043;4.917;58.003;4.806;7.115;10.654
5786210.261;-15.497;-48.690;4.992;0.820;56.140;0.708;-0.261;9.239
5786210.269;-17.397;-54.315;4.508;-5.886;55.358;-0.522;-3.874;12.107
5786210.277;-6.631;-45.821;14.827;6.407;68.620;12.554;8.941;24.661
5786210.285;-4.731;-45.002;18.664;9.015;65.193;17.472;16.838;26.152
5786210.293;-7.823;-38.706;8.047;8.233;56.177;13.188;15.646;19.968
5786210.301;-5.588;-39.116;4.470;9.760;63.702;13.225;13.486;21.383
5786210.309;7.264;-29.951;24.401;25.444;73.761;21.793;19.483;32.485
5786210.317;15.907;-24.177;35.204;32.634;67.651;27.418;19.222;41.202
5786210.297;10.394;-30.808;33.788;18.328;59.791;23.991;12.107;33.788
5786210.305;4.619;-28.275;20.526;15.795;47.833;18.403;9.313;28.126
5786210.313;-3.949;-38.147;7.376;9.313;54.762;19.968;15.087;30.436
5786210.321;-8.829;-45.039;7.674;0.708;49.509;24.773;21.160;37.104
5786210.329;1.937;-37.290;25.146;14.082;49.211;37.588;31.702;48.839
5786210.337;2.310;-33.453;19.521;21.234;48.913;38.259;29.020;45.821
5786210.345;4.955;-26.934;16.838;25.481;56.662;34.869;21.979;36.284
5786210.353;10.692;-20.191;23.060;28.498;56.289;30.361;19.334;29.802
5786210.361;9.462;-21.234;21.607;25.816;47.572;24.252;18.887;28.685
5786210.369;10.431;-15.013;27.791;30.287;51.893;31.032;31.479;37.588
5786210.377;15.534;-16.168;30.249;41.984;58.040;37.439;44.592;41.351
5786210.385;18.217;-14.342;28.796;37.961;65.789;38.035;47.944;43.996
5786210.393;12.144;-20.899;24.289;31.106;62.659;28.163;33.937;35.726
5786210.401;3.725;-27.828;17.919;22.352;44.070;20.750;17.621;28.275
5786210.409;18.738;-5.998;39.451;36.620;58.971;28.051;16.727;34.459
5786210.417;22.240;-8.903;39.414;40.829;64.410;38.929;28.014;44.368
5786210.425;23.209;-2.868;35.726;46.864;57.630;46.864;38.929;46.492
5786210.433;19.856;-7.227;28.796;33.863;48.764;48.205;46.454;45.672
5786210.441;12.033;-15.758;22.203;24.997;44.294;43.176;46.976;46.566
5786210.449;8.792;-16.727;23.618;32.000;49.546;32.820;32.596;40.829
5786210.457;2.347;-21.309;17.248;30.585;42.506;21.234;14.380;32.187
5786210.465;8.605;-13.001;18.515;35.278;43.251;18.962;8.754;32.187
5786210.473;29.691;1.788;37.327;56.028;61.207;29.169;25.146;39.488
5786210.481;29.430;0.782;34.794;50.813;51.856;33.751;33.528;41.090
5786210.477;27.046;3.912;36.769;48.354;44.703;34.906;31.777;42.021
5786210.485;31.963;16.280;38.706;50.403;54.166;32.857;23.842;36.210
5786210.493;29.393;6.594;34.496;52.303;54.650;31.888;24.065;36.210
5786210.501;28.014;3.874;34.943;54.017;52.117;31.404;28.163;37.700
5786210.509;26.524;7.041;31.441;47.237;46.231;34.645;35.651;38.370
5786210.517;26.748;7.898;28.946;46.939;46.529;39.227;38.743;43.288
5786210.525;21.569;0.708;26.114;39.525;43.102;36.508;29.951;44.070
5786210.533;25.295;-1.006;28.871;50.925;49.695;43.400;33.118;53.421
5786210.541;24.661;5.066;31.032;47.572;47.423;37.663;28.200;40.792
5786210.549;26.003;5.439;35.241;44.368;38.594;29.989;23.581;27.493
5786210.557;22.203;-0.969;29.802;36.620;39.451;24.699;22.948;26.189
5786210.565;27.232;-0.112;35.986;45.970;55.023;33.565;39.488;38.855
5786210.573;42.431;22.091;46.939;55.619;67.055;41.947;48.243;53.383
5786210.581;34.235;11.884;37.663;51.334;53.197;30.361;29.020;41.462
5786210.589;25.891;3.353;34.049;37.029;37.514;22.687;18.179;27.306
5786210.597;25.481;5.029;31.479;38.184;46.715;24.550;25.146;27.344
5786210.605;31.255;7.115;39.488;47.013;60.350;35.800;40.382;38.892
5786210.613;38.743;15.199;36.806;47.535;57.407;38.333;40.084;45.523
5786210.621;28.424;8.531;31.330;41.053;42.282;27.269;21.383;33.341
5786210.629;21.011;5.439;30.361;38.445;36.173;22.687;16.131;30.957
5786210.637;20.042;-3.055;28.983;35.390;39.637;18.626;17.621;33.937
5786210.645;22.948;-7.749;33.416;36.471;54.315;28.238;31.851;42.021
5786210.653;28.573;7.376;39.376;45.002;51.819;36.024;35.278;44.107
5786210.661;27.493;13.001;31.628;40.308;49.882;35.241;30.622;39.116
5786210.662;30.771;16.913;31.069;42.431;47.013;37.439;32.000;40.159
5786210.670;36.806;12.815;45.113;52.005;59.716;36.284;36.284;37.439
5786210.678;43.586;20.489;52.229;52.452;70.892;43.400;53.160;42.692
5786210.686;50.887;28.908;60.908;56.848;78.268;51.856;66.087;55.656
5786210.694;47.162;27.157;51.260;52.340;74.059;44.443;57.109;48.243
5786210.702;48.988;24.326;48.354;51.744;75.251;44.256;54.240;45.449
5786210.710;40.084;16.354;36.322;48.019;56.475;39.563;42.431;44.964
5786210.718;35.912;13.448;39.153;44.592;58.264;36.322;31.106;43.064
5786210.726;41.164;21.867;52.229;45.933;62.957;37.961;30.361;44.107
5786210.734;41.239;20.191;50.627;48.280;59.120;32.559;23.246;38.818
5786210.742;45.486;25.965;49.397;58.115;65.602;33.267;25.779;37.700
5786210.750;52.974;30.510;55.842;60.387;72.457;42.245;38.259;46.343
5786210.758;53.495;34.571;51.707;59.493;72.829;49.360;48.131;53.868
5786210.766;63.404;44.703;68.285;56.475;84.788;59.828;63.665;63.218
5786210.774;54.277;27.344;60.946;51.931;79.349;56.885;62.361;54.725
5786210.782;54.650;31.628;59.567;61.579;79.907;51.931;53.979;49.062
5786210.790;67.241;40.792;74.469;69.179;92.611;53.681;53.272;53.495
5786210.798;71.414;43.660;76.257;66.832;92.275;55.470;50.962;58.003
5786210.806;56.811;38.445;58.375;54.836;67.763;46.529;35.577;51.074
5786210.814;43.362;23.954;53.346;42.878;63.702;45.262;27.828;46.939
5786210.822;38.929;12.778;46.492;32.261;59.940;48.988;31.404;47.311
5786210.830;40.233;14.417;45.002;43.325;64.597;60.014;47.535;58.487
5786210.838;50.329;29.691;53.905;49.695;63.442;72.755;65.267;71.004
5786210.846;49.993;34.235;48.131;41.425;61.095;75.437;68.136;72.420
5786210.837;46.082;23.954;42.655;47.684;59.418;71.153;60.089;64.038
5786210.845;43.176;13.784;48.578;44.294;53.123;66.720;51.819;56.364
5786210.853;53.607;31.851;51.633;50.664;69.849;66.459;52.005;56.848
5786210.861;70.594;46.492;67.055;70.333;85.831;69.924;57.667;60.275
5786210.869;70.669;41.500;64.373;68.434;73.947;66.124;56.848;54.538
5786210.877;69.290;51.893;69.477;59.381;68.657;55.581;51.707;43.176
5786210.885;70.073;51.707;70.035;70.259;76.108;51.334;49.137;40.717
5786210.893;69.216;42.729;76.480;70.110;76.778;49.621;44.368;44.331
5786210.901;73.537;44.890;72.345;70.557;86.352;60.052;52.191;57.556
5786210.909;66.347;41.462;66.608;61.728;79.162;60.759;52.936;59.865
5786210.917;63.330;43.586;61.467;54.128;67.726;52.527;45.002;49.993
5786210.925;52.080;26.636;46.790;41.947;73.649;55.432;50.664;49.584
5786210.933;50.664;19.073;56.177;46.976;76.070;58.450;59.344;57.369
5786210.941;56.215;28.796;60.238;51.036;73.947;57.966;58.226;57.258
5786210.949;55.507;25.146;55.991;47.274;76.257;50.627;52.638;46.939
5786210.957;51.595;27.753;52.229;45.039;72.867;38.333;38.594;35.204
5786210.965;55.954;32.708;62.659;53.905;81.249;41.910;38.147;45.002
5786210.973;48.839;24.140;56.438;48.876;81.174;39.339;31.628;40.084
5786210.981;51.595;23.246;58.115;44.890;71.563;41.090;25.816;37.290
5786210.989;57.891;28.089;51.558;52.378;65.565;47.050;32.522;40.606
5786210.997;54.352;23.283;53.644;51.968;62.734;44.182;32.447;38.110
5786211.005;54.576;24.103;58.040;54.240;73.016;45.151;39.898;40.494
5786211.013;52.601;26.785;55.954;49.695;76.331;38.110;43.027;36.731
5786211.021;55.544;28.200;55.805;55.358;78.455;36.433;46.045;39.227
5786211.047;53.644;15.907;52.415;45.896;79.311;34.124;37.923;35.353
5786211.055;47.758;10.245;49.174;41.127;63.777;29.542;24.661;30.622
5786211.063;44.554;15.050;45.411;43.400;50.776;29.914;18.068;31.330
5786211.071;48.392;21.756;47.460;44.331;62.548;32.037;19.670;34.086
5786211.079;58.897;25.034;60.275;56.028;77.710;45.821;33.118;44.219
5786211.087;51.931;16.503;58.264;45.933;73.984;53.905;39.041;50.366
5786211.095;51.893;16.876;51.111;44.145;70.296;60.610;49.286;53.346
5786211.103;52.154;20.303;52.005;52.489;70.035;62.212;58.897;54.836
5786211.111;52.676;20.750;51.484;52.266;70.594;56.252;58.487;53.309
5786211.119;51.223;16.280;46.007;50.329;72.159;47.088;48.988;44.927
5786211.127;58.003;23.544;58.524;57.407;78.566;49.882;49.956;47.237
5786211.135;58.226;24.326;64.224;56.438;79.945;50.366;49.584;49.807
5786211.143;47.721;9.760;43.288;49.472;71.414;44.703;39.302;48.652
5786211.151;44.517;7.004;44.480;47.572;71.973;39.637;37.514;42.468
5786211.159;42.468;11.027;46.864;34.086;67.279;38.557;35.316;40.345
5786211.167;42.915;13.299;48.503;40.010;65.900;39.376;33.490;41.164
5786211.175;39.786;11.697;44.927;50.887;63.442;39.376;32.298;39.227
5786211.183;37.253;5.253;38.706;44.592;63.926;35.912;28.089;34.757
5786211.191;43.027;12.405;40.308;49.658;52.825;36.396;31.814;34.943
5786211.199;48.429;19.893;48.727;52.042;44.778;44.145;40.643;44.890
5786211.207;54.687;28.089;56.699;55.879;52.303;51.036;46.194;44.629
5786211.215;55.209;30.585;54.352;63.851;51.111;47.944;38.967;37.104
5786211.223;52.601;25.816;48.056;62.995;41.239;50.738;39.712;44.629
5786211.231;51.334;20.377;43.735;59.418;43.139;54.650;44.107;57.034
5786211.273;55.358;31.218;45.970;64.075;58.785;57.071;50.813;66.608
5786211.281;51.819;24.810;56.326;61.654;49.025;51.074;50.254;67.055
5786211.289;55.060;25.220;54.203;58.077;41.351;49.919;53.123;66.869
5786211.297;50.664;25.854;47.795;58.264;52.303;45.039;49.733;57.928
5786211.305;50.552;24.922;46.045;54.166;48.541;34.086;33.379;46.194
5786211.313;54.128;34.422;47.088;64.187;41.053;34.086;25.891;47.758
5786211.321;58.711;38.370;45.151;71.526;44.219;36.173;26.859;50.515
5786211.329;62.473;39.227;61.020;73.910;46.268;43.027;37.663;52.154
5786211.337;58.971;35.353;58.748;68.396;36.582;41.686;38.408;44.517
5786211.345;57.966;28.647;48.131;59.567;38.035;39.041;33.304;41.313
5786211.353;59.456;29.430;54.277;68.508;49.695;45.449;37.737;49.993
5786211.361;54.762;26.897;46.976;61.877;50.366;41.611;35.055;50.738
5786211.369;47.013;22.985;36.992;55.842;42.617;32.373;29.616;47.870
5786211.377;43.027;18.291;37.514;51.223;25.369;22.464;22.464;42.319
5786211.385;41.686;14.380;40.643;52.191;25.034;15.423;18.701;35.800
5786211.393;44.927;27.642;35.726;55.581;32.336;19.297;22.985;40.121
5786211.401;50.291;26.263;41.053;57.779;38.147;25.891;29.355;44.294
5786211.409;53.830;33.006;45.933;62.361;40.270;26.189;30.063;41.798
5786211.417;60.871;36.955;48.205;66.794;41.351;34.384;37.253;43.176
5786211.425;61.989;36.545;61.728;66.459;45.598;40.568;39.488;43.288
5786211.433;56.922;31.330;54.874;62.026;35.129;45.411;42.841;49.807
5786211.441;56.066;37.476;48.913;65.416;42.543;52.415;52.862;60.014
5786211.449;47.348;24.550;39.265;52.899;37.998;44.219;48.019;58.301
5786211.457;49.174;22.687;36.918;48.876;39.227;40.792;49.658;56.475
5786211.513;51.409;28.536;45.039;50.403;39.861;37.476;52.117;55.432
5786211.521;42.804;17.621;41.313;49.025;33.751;27.046;44.666;48.354
5786211.529;31.404;8.158;28.983;38.035;24.028;16.466;25.705;38.557
5786211.537;35.129;7.376;27.455;37.998;21.271;18.850;17.360;39.972
5786211.545;47.944;24.177;34.496;46.529;42.841;39.339;36.508;57.183
5786211.553;57.817;40.494;52.564;54.687;43.139;40.568;41.947;53.085
5786211.561;54.725;35.092;52.452;49.360;47.497;35.614;37.029;46.939
5786211.569;48.988;24.587;48.764;48.131;44.592;34.720;36.769;42.431
5786211.577;55.023;34.161;48.652;51.111;45.374;44.890;46.827;53.383
5786211.585;43.511;16.689;36.173;41.388;39.898;40.121;40.606;50.738
5786211.593;46.976;18.552;41.313;41.761;48.280;41.425;45.933;53.681
5786211.601;46.790;26.003;38.929;37.849;42.133;35.763;45.225;49.062
5786211.609;46.007;31.441;39.414;37.961;40.866;21.830;37.737;38.259
5786211.617;51.185;31.479;48.317;45.747;45.858;17.174;36.396;26.785
5786211.625;52.601;26.003;44.741;46.976;46.007;16.950;25.854;27.120
5786211.633;51.297;19.781;45.933;42.655;39.227;24.401;19.372;36.433
5786211.641;53.868;30.734;49.211;45.598;46.939;34.571;18.328;41.574
5786211.649;54.389;37.774;49.882;42.953;45.002;36.880;21.867;37.514
5786211.657;52.229;31.032;46.566;44.890;39.227;32.224;27.716;31.888
5786211.665;44.070;27.232;37.178;37.253;24.326;31.590;36.992;36.359
5786211.673;37.588;15.534;34.608;27.940;29.095;32.708;42.655;41.947
5786211.681;32.932;7.227;30.585;20.824;37.402;28.238;32.447;42.692
5786211.689;34.496;9.649;32.447;15.758;29.430;22.575;19.595;39.116
5786211.697;33.639;8.233;27.120;16.503;18.962;16.503;12.703;35.353
5786211.679;37.514;17.099;29.206;25.667;21.234;17.174;18.999;35.763
5786211.687;37.439;20.079;29.542;22.389;28.275;14.156;23.991;35.129
5786211.695;39.600;18.217;32.596;29.020;34.273;11.548;24.699;33.304
5786211.703;37.737;16.540;30.436;21.979;34.831;5.551;14.342;21.495
5786211.711;42.431;22.724;35.465;21.569;31.367;10.952;12.480;20.787
5786211.719;46.864;25.667;38.035;27.008;29.244;26.599;25.555;27.083
5786211.727;48.950;25.742;45.374;32.187;40.419;40.121;41.574;33.677
5786211.735;49.174;16.615;46.045;33.006;39.823;49.509;51.521;40.419
5786211.743;47.460;20.713;40.755;28.126;35.986;50.403;52.936;45.635
5786211.751;52.974;35.316;52.378;31.032;52.750;57.407;64.000;57.481
5786211.759;50.403;23.730;50.217;22.762;43.958;55.395;62.436;56.215
5786211.767;48.056;26.822;36.396;30.361;36.322;46.939;53.830;51.111
5786211.775;46.417;27.493;37.178;35.539;37.663;31.330;39.376;39.227
5786211.783;41.910;27.567;31.777;30.026;34.235;9.760;16.354;25.071
5786211.791;51.446;36.284;43.996;29.504;36.433;5.178;10.207;22.613
5786211.799;51.148;27.604;45.523;28.871;33.714;5.066;8.568;17.881
5786211.807;52.378;25.183;51.856;29.430;36.992;16.131;20.750;22.091
5786211.815;47.758;27.493;43.958;28.461;36.061;29.132;30.920;32.298
5786211.823;47.348;25.630;40.345;29.579;36.918;41.202;40.121;42.617
5786211.831;46.566;26.338;37.886;24.252;39.861;46.715;49.211;45.672
5786211.839;47.497;25.332;42.208;19.781;41.835;49.584;55.917;49.770
5786211.847;45.374;16.727;40.866;24.326;35.204;40.494;49.882;41.686
5786211.855;46.678;22.799;40.010;28.238;33.043;32.708;39.563;36.582
5786211.863;56.103;36.471;41.053;33.006;46.380;28.759;36.508;39.637
5786211.830;55.358;28.983;43.921;32.112;48.392;21.718;37.029;35.316
5786211.838;43.698;17.770;36.657;20.303;39.004;7.004;24.028;20.787
5786211.846;39.190;19.781;36.173;21.681;30.659;2.868;15.348;15.981
5786211.854;42.394;21.681;34.608;22.948;38.818;20.154;29.281;31.628
5786211.862;52.191;29.206;35.614;29.430;45.300;39.786;48.243;50.925
5786211.870;48.131;21.644;40.121;26.785;47.162;45.486;53.309;54.240
5786211.878;37.774;15.162;32.112;23.432;40.457;44.852;50.105;47.348
5786211.886;29.914;9.686;26.189;16.429;26.897;40.047;43.623;37.141
5786211.894;24.922;-3.204;24.289;11.437;14.864;34.347;34.869;32.485
5786211.902;26.859;0.484;19.856;10.207;14.007;27.567;27.083;28.089
5786211.910;27.381;1.267;19.148;13.001;14.491;30.622;29.095;29.430
5786211.918;43.325;21.197;28.536;36.731;19.483;32.634;29.802;27.865
5786211.926;47.833;20.489;28.610;35.502;30.361;24.363;21.644;18.179
5786211.934;52.787;25.481;37.365;40.159;28.908;25.369;21.569;21.495
5786211.942;56.215;26.077;46.119;43.027;24.736;23.805;17.397;23.395
5786211.950;48.354;16.652;40.308;31.702;24.661;23.283;13.858;25.220
5786211.958;43.288;8.717;37.029;19.297;26.338;27.157;18.440;28.424
5786211.966;45.113;12.852;34.980;26.561;32.373;32.298;27.530;32.336
5786211.974;36.471;5.364;19.781;25.071;26.748;28.685;24.997;26.450
5786211.982;34.645;2.421;28.089;21.495;14.864;27.381;25.593;26.561
5786211.990;37.216;1.118;31.516;25.854;17.546;33.006;35.353;35.577
5786211.998;40.792;11.362;39.004;24.848;33.341;35.204;41.537;38.594
5786212.006;44.331;16.019;40.904;29.132;40.010;35.688;48.876;36.471
5786212.014;37.812;7.898;29.169;17.285;16.801;31.181;46.194;31.628
5786212.083;32.708;2.086;21.234;15.162;8.270;25.295;41.202;23.879
5786212.091;31.926;1.974;19.483;25.705;17.658;23.916;39.898;23.842
5786212.099;34.608;8.792;28.647;26.524;13.933;24.103;36.769;29.877
5786212.107;29.206;-0.708;18.589;15.385;8.792;23.730;29.430;35.651
5786212.115;27.902;-4.508;18.328;18.068;6.221;28.051;25.444;42.878
5786212.123;47.646;27.940;41.202;40.457;1.080;21.532;12.703;35.055
5786212.131;59.716;39.153;43.102;50.701;-7.376;22.501;10.058;33.304
5786212.139;84.601;62.734;76.145;76.406;24.922;32.783;22.687;44.294
5786212.147;100.210;84.862;82.888;97.714;36.769;38.594;36.806;51.260
5786212.155;98.348;87.880;75.512;95.703;38.557;38.706;47.684;49.584
5786212.163;84.415;68.285;62.324;77.225;17.546;30.100;45.449;41.984
5786212.171;82.105;62.436;55.879;76.294;17.025;35.875;53.979;47.125
5786212.179;78.678;61.952;52.266;80.839;19.297;45.784;63.367;53.011
5786212.187;78.790;63.628;63.032;79.721;26.710;51.484;66.757;61.132
5786212.195;80.056;70.184;60.648;78.455;26.636;59.307;71.712;66.198
5786212.203;81.956;70.408;61.281;84.937;23.916;64.522;73.761;67.279
5786212.211;80.243;67.540;54.464;82.217;14.603;65.379;71.004;66.236
5786212.219;67.689;52.229;42.319;65.342;1.937;54.650;54.054;56.960
5786212.227;62.510;48.652;34.645;63.814;-8.754;44.927;42.059;52.787
5786212.235;68.545;57.854;46.492;71.712;10.058;43.176;44.368;57.630
5786212.243;65.491;49.099;47.572;61.095;8.307;34.422;43.884;53.607
5786212.251;71.637;59.009;51.185;68.471;8.196;31.181;46.194;50.589
5786212.259;71.116;58.152;53.719;69.216;-2.161;28.051;44.592;44.219
5786212.267;76.368;58.003;52.974;77.561;3.017;29.244;45.933;42.766
5786212.353;81.919;72.755;54.985;91.717;8.866;38.147;54.576;51.744
5786212.361;75.661;70.222;49.546;81.584;12.703;32.559;48.578;46.194
5786212.369;75.959;60.275;49.956;77.710;14.305;31.926;44.107;47.870
5786212.377;82.031;77.263;57.556;79.609;17.248;41.910;54.017;60.014
5786212.385;75.325;68.210;52.638;74.655;14.082;41.686;53.942;59.865
5786212.393;67.465;54.836;46.082;74.543;7.935;46.715;57.817;63.069
5786212.401;67.689;54.315;43.660;67.875;2.868;50.329;58.077;60.499
5786212.409;62.883;50.664;38.780;57.966;7.600;45.076;49.137;53.495
5786212.417;56.140;46.529;36.843;52.415;6.706;38.482;36.731;50.664
5786212.425;50.515;42.841;31.330;47.684;-2.570;36.061;33.155;49.472
5786212.433;51.297;41.239;31.255;47.833;-5.253;36.880;35.986;49.844
5786212.441;48.503;39.674;29.355;44.852;-12.480;31.367;31.888;39.376
5786212.449;54.874;42.506;31.143;45.523;-4.955;33.639;37.067;42.021
5786212.457;59.418;46.380;39.600;54.501;4.582;34.831;40.941;46.380
5786212.465;60.499;46.566;40.978;57.034;7.488;34.422;40.904;47.423
5786212.473;71.339;54.203;49.323;61.654;21.756;44.927;51.595;58.785
5786212.481;77.896;69.328;59.009;68.508;16.727;49.062;56.960;58.562
5786212.489;69.141;65.900;45.896;61.132;8.605;39.525;48.392;47.274
5786212.497;56.103;45.262;38.147;44.852;1.937;38.445;45.486;46.603
5786212.505;63.255;59.083;42.021;61.467;1.676;41.984;51.074;52.117
5786212.513;72.420;70.333;49.397;76.704;-1.900;46.194;61.020;56.028
5786212.521;71.637;71.265;39.712;83.819;-6.482;52.452;71.526;61.765
5786212.529;77.896;78.641;41.537;94.883;-9.760;61.989;82.590;67.502
5786212.537;74.096;77.188;37.439;96.187;-26.003;54.277;73.984;56.364
5786212.611;81.994;83.148;47.982;107.773;-25.816;60.461;80.056;63.442
5786212.619;73.686;74.990;46.231;99.912;-21.271;53.048;70.147;58.636
5786212.627;78.864;79.758;47.311;100.657;-21.607;54.277;69.514;60.312
5786212.635;84.490;89.258;43.102;113.994;-21.122;61.430;76.629;65.379
5786212.643;84.564;100.359;46.119;115.894;-12.293;62.697;77.412;65.938
5786212.651;91.195;106.432;54.389;118.986;-12.070;66.981;83.894;67.614
5786212.659;84.862;95.367;53.346;112.765;-12.368;61.728;77.076;61.281
5786212.667;79.125;86.725;55.358;102.855;-12.890;64.224;77.039;58.934
5786212.675;76.965;82.552;46.566;104.606;-20.154;73.276;86.948;62.324
5786212.683;73.574;83.558;37.439;102.669;-27.157;71.786;90.711;59.679
5786212.691;69.328;77.970;34.049;94.250;-25.406;61.765;82.031;56.103
5786212.699;66.012;78.231;30.734;93.468;-16.131;55.879;77.114;61.132
5786212.707;63.516;70.147;38.184;95.256;-23.395;50.776;72.829;67.279
5786212.715;67.800;74.916;42.804;96.075;-17.844;45.933;71.637;71.302
5786212.723;66.049;79.200;33.304;89.929;-22.613;39.339;69.514;66.347
5786212.731;65.975;74.245;35.428;85.197;-19.334;39.935;67.838;64.746
5786212.739;59.903;72.382;21.942;80.578;-29.579;37.253;60.424;57.630
5786212.747;56.364;67.092;25.816;82.068;-18.924;39.749;59.865;59.381
5786212.755;61.169;70.259;35.949;88.029;-19.409;43.809;62.399;58.897
5786212.763;63.777;77.225;36.284;90.599;-11.139;49.919;66.236;57.966
5786212.771;58.599;73.463;32.894;86.166;-18.589;55.134;71.526;55.060
5786212.779;47.460;47.199;22.352;75.102;-27.791;55.507;73.500;53.160
5786212.787;49.099;49.695;20.415;73.500;-30.808;53.532;69.402;49.919
5786212.795;48.243;60.387;17.881;69.030;-33.677;51.782;66.236;51.446
5786212.795;47.535;60.536;23.916;69.104;-21.681;50.701;61.803;54.389
5786212.803;50.478;67.540;21.756;77.114;-14.752;51.409;60.722;56.103
5786212.811;48.988;56.699;23.134;79.721;-21.830;49.546;57.779;54.576
5786212.819;49.919;51.819;22.240;73.984;-35.018;39.712;42.655;45.933
5786212.827;51.595;54.650;21.458;71.712;-28.647;35.092;33.975;40.866
5786212.835;47.646;56.252;18.999;66.124;-31.628;30.063;31.292;34.235
5786212.843;40.606;47.274;10.990;61.616;-35.614;35.278;39.004;36.918
5786212.851;48.131;52.601;21.420;66.273;-16.689;28.685;39.004;27.046
5786212.859;59.158;67.838;34.869;70.930;-2.831;23.656;39.227;20.824
5786212.867;52.713;55.991;28.536;55.656;1.490;19.297;34.161;21.495
5786212.875;41.276;39.339;23.767;35.167;8.605;9.574;18.328;19.632
5786212.883;32.820;27.083;23.730;21.495;11.772;3.874;13.784;17.062
5786212.891;21.011;12.293;6.594;5.141;13.039;-2.421;10.580;11.139
5786212.899;14.678;6.221;2.645;-6.445;13.411;-6.445;5.551;8.456
5786212.907;8.754;-6.780;5.588;-16.466;11.772;-3.576;10.021;11.846
5786212.915;8.196;0.596;2.831;-15.870;20.117;3.166;16.578;13.486
5786212.923;14.380;4.321;5.960;-3.502;20.228;5.439;19.036;12.778
5786212.931;14.454;-0.224;3.353;-1.565;20.042;6.817;19.185;12.293
5786212.939;10.803;1.937;3.241;-6.221;12.219;3.316;6.817;6.780
5786212.947;-2.831;-14.380;-12.144;-15.348;6.780;-3.316;-4.470;-1.825
5786212.955;-4.768;-25.854;-12.070;-17.397;4.992;2.980;2.272;5.886
5786212.963;3.912;-12.964;3.576;-16.466;10.356;14.305;17.025;20.675
5786212.971;9.798;-3.092;6.780;-10.729;20.154;20.303;24.401;29.616
5786212.979;5.029;-3.986;0.298;-9.201;18.515;18.515;20.079;25.705
5786212.968;-4.247;-9.760;-7.525;-18.589;-1.118;9.462;8.196;14.901
5786212.976;-2.012;-6.296;-17.881;-11.176;-5.662;0.782;-0.559;8.345
5786212.984;1.043;-2.906;-16.131;-9.909;0.596;-3.166;-6.407;10.282
5786212.992;4.172;14.789;-0.633;-10.841;6.407;-2.347;-7.674;18.328
5786213.000;-2.012;20.601;0.633;-17.658;-5.439;-11.213;-15.832;8.643
5786213.008;-7.637;15.572;-10.170;-16.429;-19.185;-20.824;-27.306;-3.092
5786213.016;4.061;30.585;-5.104;-4.768;0.708;-15.311;-19.521;0.708
5786213.024;13.337;40.829;-2.347;7.264;8.568;-3.427;1.080;9.276
5786213.032;11.511;36.843;-5.551;10.431;7.376;0.708;15.385;12.927
5786213.040;6.221;34.086;-5.476;8.084;8.233;4.061;21.048;15.125
5786213.048;4.768;41.798;-0.671;3.539;8.531;10.766;23.171;24.252
5786213.056;-1.900;29.914;-4.321;-6.594;-9.164;12.890;19.930;25.816
5786213.064;-6.221;25.518;-13.150;-7.711;-17.248;9.760;12.517;17.881
5786213.072;-2.049;32.298;-14.305;-0.149;-5.700;13.970;10.207;19.334
5786213.080;0.931;39.153;-7.972;4.619;-0.447;19.558;11.846;23.879
5786213.088;1.863;36.471;-5.066;4.396;-0.559;14.827;8.307;19.707
5786213.096;-0.261;35.129;-14.007;0.075;-14.082;6.631;2.272;8.531
5786213.104;-6.557;26.114;-17.993;-6.817;-27.902;3.204;0.633;3.129
5786213.112;-7.562;29.691;-14.678;2.645;-14.715;3.949;5.513;6.706
5786213.120;-4.098;32.224;-12.591;1.937;-10.096;-1.714;2.794;5.141
5786213.128;1.490;36.284;-12.815;3.688;-13.113;-6.706;-4.098;-0.224
5786213.136;9.723;41.686;-5.737;10.133;-6.370;-2.123;2.943;6.147
5786213.144;5.662;38.221;-4.284;-2.086;-8.345;-4.768;6.482;10.431
5786213.152;3.204;36.396;-7.562;-3.874;-1.863;-8.717;7.525;11.474
5786213.177;-6.258;32.149;-15.572;-6.482;-11.995;-15.050;0.894;6.966
5786213.185;-6.780;29.840;-8.047;-5.923;-9.239;-10.505;0.075;10.729
5786213.193;0.857;32.075;-4.135;-1.341;-2.086;2.012;6.407;20.564
5786213.201;1.192;36.396;-8.233;6.035;0.335;2.794;7.190;18.701
5786213.209;-3.353;37.588;-8.196;4.992;-0.224;-4.061;3.800;10.319
5786213.217;-10.692;28.349;-16.093;-4.359;-8.978;-8.754;4.284;7.413
5786213.225;-19.558;16.242;-24.624;-16.280;-17.658;-22.836;-6.072;-3.166
5786213.233;-20.713;20.303;-30.622;-16.540;-27.269;-31.628;-14.789;-10.096
5786213.241;-23.358;14.007;-29.951;-14.566;-18.813;-32.783;-22.687;-9.499
5786213.249;-21.681;10.803;-27.232;-12.070;-18.179;-26.934;-19.632;-5.402
5786213.257;-20.899;21.346;-26.934;-9.350;-10.096;-22.091;-14.901;-1.080
5786213.265;-9.909;32.783;-18.179;-6.855;-4.135;-13.597;-5.290;9.276
5786213.273;-5.998;34.161;-7.972;-8.680;-7.078;-7.451;-0.410;12.629
5786213.281;-12.554;24.773;-16.056;-13.858;-12.107;-16.727;-8.643;1.155
5786213.289;-19.595;15.013;-22.575;-18.366;-12.927;-18.105;-14.827;-2.012
5786213.297;-9.164;26.338;-5.402;-6.929;-9.201;-17.695;-20.862;-3.651
5786213.305;11.288;53.793;6.258;15.162;-11.958;-23.097;-29.802;-12.107
5786213.313;24.475;68.098;15.572;22.352;-8.419;-21.011;-27.232;-11.362
5786213.321;52.564;92.424;43.213;43.288;11.213;-11.958;-14.789;0.820
5786213.329;51.111;99.018;38.333;49.546;18.142;-14.640;-11.250;1.825
5786213.337;39.935;84.676;32.261;42.915;12.256;-16.019;-7.041;-2.198
5786213.345;40.494;86.091;26.077;38.855;7.078;-14.193;-5.886;2.310
5786213.353;37.737;83.260;23.879;38.110;7.227;-12.442;-7.823;2.682
5786213.361;32.298;84.527;27.679;32.373;11.437;-12.144;-8.717;1.825
5786213.387;35.763;91.717;31.330;37.253;10.990;-6.035;-3.390;3.651
5786213.395;35.241;87.209;20.452;40.755;3.241;-9.574;-12.107;-3.874
5786213.403;29.132;90.897;9.760;34.496;-3.241;-10.505;-17.956;-12.219
5786213.411;31.479;93.654;20.228;37.253;-5.327;1.825;-9.872;-4.247
5786213.419;26.114;85.123;19.409;36.545;-14.007;1.490;-10.505;-3.986
5786213.427;26.487;80.466;16.466;30.436;-11.325;-5.811;-11.101;-3.763
5786213.435;28.461;90.972;16.205;27.046;-7.041;-11.697;-9.537;-0.261
5786213.443;28.610;93.319;16.615;33.416;5.104;-17.583;-7.935;1.080
5786213.451;26.934;88.438;14.901;34.086;4.508;-19.595;-9.052;5.811
5786213.459;30.063;93.989;13.299;31.963;5.290;-16.093;-8.568;9.574
5786213.467;31.032;92.201;22.985;28.014;-1.676;-14.119;-11.474;3.465
5786213.475;40.270;100.285;33.975;37.923;7.562;-7.004;-9.388;7.637
5786213.483;44.517;101.030;43.064;45.337;17.844;0.559;-4.470;15.162
5786213.491;37.141;97.379;34.012;38.780;1.527;-7.749;-14.529;2.570
5786213.499;29.691;87.321;18.887;27.604;-1.825;-8.680;-14.380;-2.570
5786213.507;34.049;91.568;23.134;34.049;6.370;-2.310;-4.023;3.837
5786213.515;47.721;104.234;44.480;47.646;18.068;1.490;0.596;7.264
5786213.523;43.400;93.877;37.439;43.064;18.589;4.731;1.751;11.101
5786213.531;38.184;99.875;33.118;35.092;12.442;3.092;-1.714;11.362
5786213.539;40.084;103.787;34.347;37.067;6.370;4.061;-3.725;15.348
5786213.547;31.255;90.376;20.824;31.516;-1.788;-3.017;-10.990;6.519
5786213.555;28.796;82.627;19.409;26.822;3.912;-8.307;-14.566;3.353
5786213.563;30.957;81.547;24.401;24.997;6.817;-10.915;-12.703;1.341
5786213.571;26.859;82.552;17.993;22.203;14.380;-12.293;-11.660;0.708
5786213.495;24.810;79.572;21.048;22.091;5.662;-13.001;-13.411;-0.410
5786213.503;31.628;86.166;32.075;27.306;15.087;-0.447;-1.602;7.637
5786213.511;38.110;94.734;35.353;36.806;26.971;16.019;13.933;23.767
5786213.519;30.473;82.515;28.834;31.851;8.643;12.517;13.039;15.162
5786213.527;29.840;79.349;23.283;30.510;-0.559;5.513;7.860;8.866
5786213.535;32.857;86.538;27.344;27.791;6.743;-0.335;1.006;9.947
5786213.543;29.542;84.825;26.971;26.412;12.033;-6.519;-0.633;4.917
5786213.551;34.086;85.719;27.046;33.081;5.998;-12.740;-5.551;3.465
5786213.559;32.894;81.584;26.710;31.516;1.490;-15.795;-7.376;3.614
5786213.567;34.124;82.143;31.367;32.485;12.629;-8.792;-0.522;10.431
5786213.575;32.559;81.286;27.455;30.659;7.525;-9.239;-0.559;8.941
5786213.583;35.986;81.733;30.808;37.104;17.956;-2.459;5.625;13.448
5786213.591;33.714;82.590;33.416;37.141;9.425;3.241;9.686;15.534
5786213.599;32.149;78.641;25.779;32.261;9.052;5.290;9.052;11.921
5786213.607;30.100;76.927;16.838;28.200;3.502;7.823;10.170;12.666
5786213.615;25.444;67.018;19.185;23.879;0.559;5.998;9.984;10.319
5786213.623;26.934;67.763;29.542;24.065;-3.278;6.370;7.711;8.196
5786213.631;28.796;69.328;25.965;26.114;0.484;12.442;11.660;17.174
5786213.639;23.581;65.155;24.401;25.965;-1.639;7.190;7.339;14.938
5786213.647;17.136;52.936;20.117;23.991;-9.350;0.335;-0.559;7.562
5786213.655;24.140;60.908;22.575;27.530;-2.198;4.433;4.619;13.858
5786213.663;34.198;75.288;29.765;35.800;2.421;13.635;14.417;23.581
5786213.671;28.796;67.949;28.051;34.720;10.356;11.846;16.652;19.446
5786213.679;24.922;60.089;27.828;30.063;15.423;9.947;21.271;14.417
5786213.658;16.913;53.905;14.156;25.108;1.639;5.923;18.962;12.517
5786213.666;22.501;60.499;19.148;30.957;6.668;4.806;20.117;16.317
5786213.674;27.306;59.903;26.561;34.571;3.166;5.253;21.309;15.236
5786213.682;24.214;60.871;21.793;28.238;-7.525;-0.596;15.870;11.809
5786213.690;27.269;64.857;22.464;35.986;17.956;0.298;17.434;13.448
5786213.698;35.502;76.257;35.912;46.752;17.658;2.347;21.867;12.852
5786213.706;43.958;80.317;41.798;54.948;12.629;13.374;27.120;28.536
5786213.714;49.137;84.713;50.217;61.989;15.534;13.597;21.234;25.369
5786213.722;46.231;83.707;47.311;59.940;11.027;8.419;12.442;17.323
5786213.730;46.454;91.977;45.225;57.817;-3.017;7.600;10.356;14.529
5786213.738;54.538;94.622;44.964;67.465;2.719;20.936;24.438;25.220
5786213.746;63.889;104.010;57.630;81.137;30.473;43.735;48.652;52.750
5786213.754;53.756;104.196;44.592;65.938;20.713;37.737;41.984;44.927
5786213.762;54.613;99.167;47.088;69.067;21.234;34.869;35.204;35.837
5786213.770;60.722;97.528;54.687;76.741;20.526;42.580;30.436;42.170
5786213.778;66.608;104.830;63.889;82.329;20.936;48.466;28.573;42.021
5786213.786;75.325;118.129;68.583;99.950;36.508;53.048;23.022;38.594
5786213.794;75.363;118.837;75.884;100.173;33.714;54.799;8.680;33.714
5786213.802;69.216;114.888;68.434;91.493;21.383;61.877;-5.700;20.675
5786213.810;70.818;116.453;68.769;88.774;22.352;139.512;-4.955;20.191
5786213.818;73.202;114.329;66.198;90.189;25.183;201.873;2.235;31.888
5786213.826;67.055;107.773;66.906;89.854;20.973;205.301;-1.490;25.518
5786213.834;71.153;112.690;68.471;90.823;23.879;208.691;2.421;26.673
5786213.842;79.349;120.066;71.414;99.279;29.653;212.491;11.027;32.820
5786213.884;77.859;118.129;75.325;95.554;32.485;217.594;20.675;41.611
5786213.892;68.396;103.228;69.253;90.227;18.626;228.882;32.298;55.209
5786213.900;87.507;136.495;76.480;121.258;33.155;229.180;30.547;54.128
5786213.908;88.438;136.457;77.561;124.462;24.959;226.833;21.644;47.758
5786213.916;84.154;127.181;67.614;128.560;0.522;226.498;19.707;47.460
5786213.924;87.060;128.187;63.442;131.577;-1.006;229.254;30.212;61.132
5786213.932;90.823;129.007;72.122;129.230;9.499;229.999;35.614;66.645
5786213.940;75.400;113.584;62.063;118.054;-10.692;210.442;15.832;36.955
5786213.948;70.818;104.047;55.842;117.943;-18.440;206.903;9.984;31.851
5786213.956;77.747;118.054;56.438;125.952;-7.860;211.149;21.867;38.631
5786213.964;72.382;107.065;59.977;120.252;6.892;212.789;25.965;38.929
5786213.972;63.181;99.577;50.180;115.968;-1.863;206.791;14.156;32.037
5786213.980;68.247;111.982;54.054;132.695;-5.327;211.112;10.394;33.081
5786213.988;78.902;115.000;63.516;134.893;-2.347;228.286;29.914;51.148
5786213.996;54.948;89.183;42.729;113.249;-16.093;215.396;18.999;38.147
5786214.004;58.338;89.929;37.290;112.019;-11.027;215.359;15.423;35.353
5786214.012;62.883;106.432;52.825;124.574;1.006;219.718;26.338;46.715
5786214.020;66.757;107.996;51.707;124.648;-0.224;203.662;28.461;44.703
5786214.028;51.931;95.256;38.445;109.449;-5.886;184.029;16.019;35.390
5786214.036;50.105;91.158;34.980;106.059;-13.560;176.542;6.407;26.859
5786214.044;54.799;95.740;41.351;117.570;-21.756;175.312;2.235;22.128
5786214.052;57.891;107.400;45.821;125.356;-13.486;180.192;6.184;23.805
5786214.060;72.643;117.496;58.226;139.438;10.431;196.807;27.455;40.196
5786214.068;71.526;119.619;57.667;132.248;9.127;202.395;32.447;46.715
5786214.033;68.247;118.501;50.701;129.528;6.519;197.776;17.472;34.422
5786214.041;80.876;135.452;57.444;142.604;9.723;205.189;13.709;46.641
5786214.049;80.019;131.018;64.559;147.745;17.583;209.361;16.168;54.128
5786214.057;79.572;132.993;65.975;152.104;16.950;203.066;16.242;44.070
5786214.065;88.289;135.452;72.904;156.946;20.079;207.759;24.065;53.234
5786214.073;92.797;136.755;76.555;155.009;23.767;206.716;22.277;53.979
5786214.081;96.820;155.680;69.775;161.342;27.604;198.372;9.835;40.755
5786214.089;98.906;153.705;80.690;168.532;25.518;196.956;5.364;35.055
5786214.097;102.110;151.992;94.287;176.616;38.072;203.513;14.380;45.411
5786214.105;107.661;156.090;92.797;170.767;57.817;207.461;20.489;53.495
5786214.113;95.069;144.094;79.125;156.239;39.525;198.148;13.933;43.623
5786214.121;83.223;133.701;65.640;141.785;27.195;191.256;6.296;36.098
5786214.129;82.366;123.084;68.583;141.636;16.280;194.274;4.955;38.929
5786214.137;86.501;131.130;73.127;151.172;13.188;197.366;10.468;42.617
5786214.145;88.476;140.034;76.592;153.817;32.596;209.585;28.461;59.977
5786214.153;85.160;131.465;65.528;146.925;29.318;210.367;37.551;63.069
5786214.161;82.925;124.238;58.413;137.873;19.111;203.028;34.645;53.570
5786214.169;83.782;126.734;70.706;141.636;24.140;203.438;37.961;56.140
5786214.177;93.281;133.626;77.672;152.290;33.937;201.687;39.898;55.656
5786214.185;93.915;139.624;76.219;157.170;37.402;195.280;33.565;50.515
5786214.193;92.462;146.106;72.457;154.637;32.708;186.525;21.011;41.388
5786214.201;94.138;146.627;71.600;155.754;22.464;184.886;15.683;40.382
5786214.209;89.630;138.059;68.620;154.935;21.458;182.651;10.319;39.078
5786214.217;77.188;126.138;61.207;141.002;15.050;175.424;2.533;30.547
5786214.227;71.563;116.490;59.716;133.887;17.844;174.344;1.788;26.859
5786214.235;58.077;93.840;46.454;121.556;0.820;163.689;-8.047;19.036
5786214.243;67.614;118.352;49.770;125.282;13.225;171.848;1.937;31.255
5786214.251;69.588;118.874;49.248;127.144;17.323;166.818;-2.123;27.791
5786214.259;64.149;107.624;48.690;116.080;9.872;162.981;-0.857;25.257
5786214.267;63.106;100.210;51.185;115.596;13.523;164.844;7.823;31.739
5786214.275;51.633;88.029;44.592;110.492;12.703;156.388;2.161;22.128
5786214.283;46.715;77.486;35.763;108.257;6.072;155.941;4.545;19.968
5786214.291;42.543;73.388;28.685;103.340;0.931;155.829;4.061;17.919
5786214.299;38.818;85.197;21.979;103.228;-3.949;147.037;-8.382;10.282
5786214.307;33.230;77.561;14.827;107.251;-20.117;142.381;-12.219;7.860
5786214.315;29.318;68.843;12.815;104.457;-26.301;141.449;-8.494;10.990
5786214.323;37.551;74.059;24.997;108.108;-9.276;153.631;9.909;31.367
5786214.331;41.574;72.084;21.234;107.698;-9.201;150.949;12.890;28.349
5786214.339;24.624;57.556;5.253;95.665;-20.079;133.850;-5.215;14.193
5786214.347;30.510;70.110;20.862;109.188;-12.293;132.807;-10.729;11.288
5786214.355;35.390;78.417;18.850;113.286;-19.744;119.582;-22.538;-8.494
5786214.363;38.296;72.941;20.899;112.727;-17.174;123.531;-16.950;-5.476
5786214.371;45.039;75.400;27.977;117.123;-12.256;131.316;-9.164;3.390
5786214.379;63.889;101.812;45.635;138.655;3.837;148.080;10.133;17.062
5786214.387;63.777;97.901;46.901;141.300;20.415;158.846;23.283;31.590
5786214.395;43.735;78.306;33.528;125.729;6.109;140.108;0.596;22.687
5786214.403;42.506;76.145;29.132;125.431;-0.335;134.446;-14.156;27.455
5786214.411;22.575;63.926;11.288;94.436;-26.673;100.583;-50.329;-8.568
5786214.379;27.306;65.528;12.629;102.147;-22.314;95.591;-55.544;-14.231
5786214.387;68.061;106.506;60.350;153.072;30.249;136.755;-15.460;32.410
5786214.395;75.735;114.217;67.838;159.368;37.663;145.324;-3.800;40.978
5786214.403;92.424;127.032;82.962;183.620;62.846;171.065;14.901;67.055
5786214.411;68.396;100.397;57.258;156.052;43.176;142.902;-24.810;38.035
5786214.419;48.950;86.017;42.357;129.268;22.948;124.387;-60.908;25.481
5786214.427;7.525;49.211;13.188;86.725;-22.799;68.918;-126.623;-31.590
5786214.435;29.728;59.940;36.880;124.015;-3.614;98.534;-99.093;-6.333
5786214.443;62.250;91.940;57.481;152.402;34.906;141.636;-59.567;39.041
5786214.451;78.976;116.788;78.976;171.885;54.948;170.581;-34.496;66.571
5786214.459;84.639;121.482;81.472;171.438;55.060;180.155;-25.854;66.794
5786214.467;102.073;130.236;102.632;191.033;67.428;181.533;-39.339;60.163
5786214.475;50.440;74.990;59.083;145.175;20.005;129.938;-105.090;10.803
5786214.483;-30.845;-8.121;-24.475;62.026;-52.750;57.817;-188.835;-51.334
5786214.491;-112.168;-96.336;-107.959;-19.260;-128.262;-16.801;-270.009;-126.921
5786214.499;-169.091;-148.974;-164.136;-67.987;-180.602;-73.649;-348.203;-196.695
5786214.507;-85.197;-79.609;-77.561;16.354;-105.016;9.723;-281.706;-116.713
5786214.515;-71.302;-80.578;-61.691;26.487;-94.734;37.514;-252.984;-93.542
5786214.523;-166.669;-181.310;-150.539;-71.228;-178.926;-71.414;-358.000;-194.721
5786214.531;-219.010;-241.622;-200.458;-118.390;-218.749;-121.482;-420.921;-234.731
5786214.539;-209.212;-226.870;-198.781;-110.045;-214.800;-109.375;-417.866;-241.846
5786214.547;-222.139;-237.525;-207.648;-117.309;-225.306;-114.217;-435.375;-241.473
5786214.555;-328.571;-351.295;-303.946;-224.076;-324.473;-238.642;-552.684;-367.425
5786214.563;-356.436;-382.140;-334.829;-250.451;-346.005;-262.186;-592.843;-384.338
5786214.574;-256.561;-285.134;-230.074;-144.020;-245.832;-166.409;-501.052;-305.660
5786214.582;-247.099;-271.648;-227.727;-134.371;-240.766;-166.558;-506.304;-319.071
5786214.590;-445.768;-484.735;-426.322;-343.211;-450.835;-347.309;-698.715;-508.688
5786214.598;-634.752;-690.445;-614.598;-530.854;-634.640;-511.706;-885.278;-690.669
5786214.606;-811.405;-869.408;-783.019;-702.664;-794.120;-673.607;-1071.990;-871.196
5786214.614;-944.473;-1001.544;-908.002;-842.810;-924.915;-786.930;-1206.026;-995.994
5786214.622;-1039.021;-1105.145;-1004.823;-935.718;-1033.172;-854.693;-1286.678;-1081.452
5786214.630;-1092.367;-1157.448;-1069.196;-978.820;-1087.002;-893.362;-1332.983;-1147.948
5786214.638;-1134.500;-1197.681;-1101.755;-1016.483;-1122.169;-917.800;-1356.490;-1193.062
5786214.646;-1195.557;-1259.036;-1160.204;-1076.385;-1176.223;-955.164;-1401.566;-1238.659
5786214.654;-1257.323;-1328.662;-1219.660;-1148.954;-1230.761;-1004.003;-1453.012;-1296.140
5786214.662;-1369.677;-1448.095;-1329.631;-1268.461;-1344.979;-1118.630;-1565.516;-1409.464
5786214.670;-1366.995;-1437.962;-1333.021;-1257.956;-1341.999;-1107.156;-1548.156;-1411.364
5786214.678;-1280.568;-1336.075;-1254.082;-1154.989;-1260.377;-995.584;-1429.208;-1298.562
5786214.686;-1169.965;-1221.001;-1143.776;-1039.952;-1155.324;-875.182;-1290.068;-1187.511
5786214.694;-1189.895;-1231.842;-1160.540;-1052.432;-1176.521;-882.484;-1280.047;-1204.237
5786214.702;-1206.882;-1259.781;-1179.054;-1078.136;-1187.921;-897.683;-1282.580;-1210.533
5786214.710;-1206.957;-1269.691;-1176.447;-1083.054;-1185.760;-898.652;-1272.298;-1205.616
5786214.718;-1231.432;-1286.976;-1210.906;-1102.090;-1207.069;-919.923;-1283.102;-1227.632
5786214.726;-1221.150;-1271.814;-1200.475;-1085.922;-1202.486;-908.971;-1259.223;-1215.562
5786214.734;-1206.249;-1255.423;-1181.811;-1069.047;-1181.476;-888.444;-1228.079;-1191.162
5786214.742;-1198.798;-1243.576;-1173.466;-1059.622;-1172.423;-878.647;-1209.006;-1182.072
5786214.750;-1132.339;-1181.513;-1110.099;-993.647;-1112.409;-809.878;-1129.098;-1110.658
5786214.758;-1102.909;-1146.458;-1085.885;-967.197;-1084.916;-779.666;-1088.977;-1070.276
5786214.767;-1064.874;-1106.486;-1050.644;-930.019;-1045.540;-735.112;-1024.231;-1016.110
5786214.775;-1017.042;-1061.372;-1001.656;-880.398;-988.692;-687.428;-963.956;-969.470
5786214.783;-1001.842;-1042.187;-986.978;-859.052;-968.464;-668.466;-941.269;-944.026
5786214.791;-982.136;-1025.908;-968.389;-839.904;-946.708;-643.209;-911.690;-913.106
5786214.799;-954.941;-991.598;-944.734;-813.007;-929.274;-616.722;-876.933;-882.484
5786214.807;-907.630;-942.051;-901.185;-769.161;-899.360;-579.022;-825.934;-843.294
5786214.815;-862.665;-895.672;-855.587;-717.454;-852.831;-535.659;-773.445;-805.147
5786214.823;-825.152;-853.874;-819.229;-679.195;-805.706;-497.922;-733.696;-763.796
5786214.831;-768.490;-797.771;-754.707;-622.384;-739.619;-441.596;-672.229;-703.409
5786214.839;-709.370;-738.613;-702.552;-564.344;-681.989;-388.734;-606.924;-651.032
5786214.847;-666.082;-687.502;-663.698;-519.268;-649.504;-347.272;-549.443;-601.746
5786214.855;-606.142;-622.123;-602.156;-459.440;-596.754;-284.277;-472.702;-530.444
5786214.863;-561.699;-575.483;-563.674;-416.301;-549.257;-238.642;-414.439;-480.078
5786214.871;-556.111;-573.993;-558.533;-412.762;-537.559;-235.401;-398.345;-467.114
5786214.879;-538.193;-554.658;-541.136;-399.649;-503.659;-227.131;-380.427;-451.058
5786214.887;-511.855;-526.644;-510.998;-369.996;-480.972;-215.396;-361.167;-435.784
5786214.895;-489.056;-499.189;-486.299;-341.348;-462.793;-202.619;-344.440;-416.972
5786214.903;-483.803;-485.890;-487.231;-342.168;-465.624;-206.009;-332.370;-408.068
5786214.911;-471.175;-468.716;-477.992;-333.004;-458.993;-194.572;-303.648;-390.597
5786214.919;-458.062;-452.809;-470.728;-324.547;-444.986;-186.078;-288.673;-383.072
5786214.927;-448.972;-448.413;-462.942;-319.444;-434.108;-184.327;-285.022;-375.658
5786214.935;-441.447;-438.876;-457.093;-315.569;-423.044;-177.175;-272.281;-361.353
5786214.943;-412.315;-404.567;-421.666;-286.400;-392.497;-153.258;-234.805;-323.690
5786214.951;-407.472;-397.563;-414.625;-288.971;-389.665;-156.388;-223.368;-319.295
5786215.024;-413.731;-401.624;-418.872;-295.900;-392.795;-173.189;-234.656;-332.519
5786215.032;-399.053;-386.052;-415.072;-275.336;-373.721;-169.501;-229.292;-323.728
5786215.040;-377.074;-356.510;-398.979;-256.263;-360.236;-160.784;-215.173;-312.179
5786215.048;-368.766;-345.930;-398.196;-254.922;-349.954;-158.884;-196.956;-305.474
5786215.056;-371.486;-351.667;-399.426;-265.427;-349.134;-158.809;-182.278;-299.700
5786215.064;-370.592;-349.469;-389.554;-269.562;-349.805;-154.786;-174.604;-297.800
5786215.072;-370.257;-344.291;-387.542;-267.662;-343.993;-158.697;-176.281;-299.402
5786215.080;-361.130;-342.429;-384.189;-254.810;-338.666;-156.909;-177.808;-296.570
5786215.088;-355.244;-329.092;-379.868;-248.440;-346.303;-158.660;-174.865;-301.599
5786215.096;-346.154;-309.609;-372.641;-242.479;-332.557;-152.327;-159.405;-286.549
5786215.104;-338.294;-302.717;-363.328;-230.074;-315.756;-141.598;-146.739;-271.164
5786215.112;-332.668;-291.131;-357.181;-228.286;-321.306;-141.524;-149.533;-275.783
5786215.120;-327.155;-287.741;-356.473;-233.725;-326.484;-132.322;-145.622;-264.719
5786215.128;-311.732;-274.889;-345.744;-221.580;-308.268;-112.578;-119.470;-242.554
5786215.136;-302.754;-260.249;-333.972;-204.444;-285.506;-102.818;-104.196;-232.533
5786215.144;-295.527;-248.887;-324.026;-193.752;-276.193;-96.969;-100.471;-229.552
5786215.152;-281.110;-233.985;-309.981;-186.227;-274.293;-95.628;-106.096;-226.870
5786215.160;-263.564;-219.829;-290.982;-169.650;-260.398;-88.848;-104.308;-220.016
5786215.168;-253.096;-208.803;-278.987;-168.234;-243.932;-84.825;-96.112;-217.780
5786215.176;-242.218;-209.957;-268.668;-160.113;-229.701;-67.428;-73.090;-194.311
5786215.184;-232.421;-202.693;-255.443;-150.725;-223.666;-61.579;-65.342;-179.969
5786215.192;-228.472;-192.970;-257.008;-151.061;-220.723;-71.190;-73.574;-187.680
5786215.200;-224.002;-188.239;-247.285;-139.512;-226.013;-70.520;-74.469;-192.560
5786215.208;-210.032;-169.240;-235.550;-125.170;-210.963;-56.773;-64.597;-183.582
5786215.218;-206.977;-169.240;-237.338;-116.192;-203.364;-50.776;-60.908;-176.281
5786215.226;-195.876;-159.256;-226.274;-105.575;-195.280;-43.102;-53.756;-165.775
5786215.234;-177.883;-145.733;-212.491;-91.828;-189.915;-26.673;-33.006;-145.137
5786215.242;-174.083;-145.845;-205.189;-92.611;-190.511;-18.664;-19.930;-137.575
5786215.250;-172.965;-151.545;-202.358;-95.628;-178.143;-17.844;-13.523;-133.850
5786215.258;-166.558;-141.636;-200.011;-84.043;-172.891;-7.115;1.602;-120.811
5786215.266;-160.374;-137.836;-194.758;-71.526;-159.070;-0.745;7.451;-110.604
5786215.274;-153.966;-134.595;-184.029;-69.775;-152.029;0.596;8.382;-103.563
5786215.282;-155.270;-141.785;-184.327;-77.784;-158.660;1.863;9.835;-102.520
5786215.290;-140.630;-121.891;-171.214;-50.701;-143.722;6.855;18.105;-98.757
5786215.298;-111.498;-94.734;-143.014;-23.246;-120.252;17.062;29.951;-87.954
5786215.306;-88.438;-74.022;-122.078;-0.484;-118.725;20.377;32.559;-84.862
5786215.314;-66.608;-46.045;-99.763;29.132;-116.862;16.838;28.610;-89.481
5786215.322;-26.301;-9.052;-57.630;74.431;-94.846;23.954;37.700;-81.696
5786215.330;27.828;56.401;-4.880;132.211;-62.585;26.114;43.921;-75.623
5786215.338;81.137;114.813;51.111;173.859;-16.391;38.296;55.395;-59.679
5786215.346;124.983;155.605;95.069;215.508;19.334;46.007;61.244;-46.529
5786215.354;151.768;188.053;119.917;243.969;42.617;44.517;66.161;-43.511
5786215.362;162.870;195.205;129.491;244.193;57.258;39.935;64.895;-48.950
5786215.370;168.271;197.068;148.267;242.852;71.563;43.996;73.090;-42.915
5786215.378;156.574;170.469;146.106;235.662;66.869;44.145;72.010;-44.107
5786215.386;124.462;132.211;117.235;207.461;48.205;34.273;58.338;-54.613
5786215.394;94.809;96.858;78.604;177.138;19.073;26.710;50.589;-57.817
5786215.402;72.680;73.165;46.343;157.245;-7.302;33.081;51.968;-53.644
5786215.325;52.452;45.858;23.022;132.248;-22.314;31.702;47.423;-51.633
5786215.333;35.055;26.114;5.960;109.412;-30.510;24.214;42.766;-53.681
5786215.341;13.001;-6.258;-15.013;97.789;-42.953;12.293;35.502;-56.177
5786215.349;-1.080;-15.385;-24.028;85.756;-57.481;7.972;39.116;-55.172
5786215.357;-4.172;-18.254;-32.000;82.217;-53.868;15.125;47.758;-47.460
5786215.365;-7.972;-28.312;-39.451;79.870;-45.113;16.056;43.400;-45.933
5786215.373;-9.574;-30.324;-41.425;77.151;-54.389;21.234;39.600;-44.331
5786215.381;-20.526;-48.168;-53.793;66.087;-75.698;25.183;39.823;-37.067
5786215.389;-40.121;-62.548;-75.772;39.563;-79.051;10.803;34.720;-53.868
5786215.397;-46.194;-66.608;-81.174;39.041;-76.592;2.719;37.141;-55.283
5786215.405;-46.082;-63.665;-85.197;41.090;-89.258;-8.866;32.187;-56.103
5786215.413;-40.308;-59.232;-71.898;46.715;-82.701;-7.711;37.141;-52.825
5786215.421;-43.288;-66.906;-73.202;38.780;-77.561;-10.207;35.316;-53.570
5786215.429;-46.864;-66.422;-80.615;33.677;-84.080;-17.546;31.106;-62.995
5786215.437;-49.286;-73.016;-88.736;32.932;-90.003;-18.813;31.479;-61.020
5786215.445;-48.839;-71.786;-86.986;37.476;-80.243;-18.924;35.577;-58.226
5786215.453;-41.239;-51.521;-80.280;39.935;-66.869;-17.323;41.276;-50.664
5786215.461;-51.595;-66.161;-91.307;28.647;-83.409;-33.826;20.005;-67.316
5786215.469;-64.261;-84.192;-101.626;16.466;-100.546;-48.801;-0.857;-78.939
5786215.477;-65.453;-80.988;-105.202;15.609;-98.906;-53.942;-5.960;-81.621
5786215.485;-65.044;-80.802;-102.296;14.529;-88.327;-57.071;0.075;-84.452
5786215.493;-67.204;-83.856;-103.898;10.580;-91.270;-54.054;12.405;-81.062
5786215.501;-73.574;-86.613;-112.467;8.047;-98.124;-53.607;13.933;-79.572
5786215.509;-75.884;-86.650;-115.931;5.551;-101.924;-53.942;12.368;-78.641
5786215.519;-67.092;-82.627;-114.664;7.637;-94.846;-46.901;13.746;-69.141
5786215.527;-73.910;-89.407;-117.756;-3.912;-110.343;-57.258;4.210;-78.678
5786215.535;-94.324;-110.976;-133.179;-23.432;-122.748;-75.400;-11.921;-101.812
5786215.543;-86.501;-106.245;-121.929;-18.962;-112.243;-70.892;-4.731;-95.032
5786215.551;-85.570;-109.076;-123.084;-20.340;-109.635;-73.425;0.857;-90.003
5786215.559;-103.116;-127.554;-139.847;-38.818;-118.464;-88.550;-6.892;-99.726
5786215.567;-113.398;-137.910;-150.651;-49.956;-124.313;-100.508;-16.652;-107.959
5786215.575;-114.925;-139.214;-151.433;-50.738;-128.932;-99.763;-18.887;-105.239
5786215.583;-114.404;-137.538;-148.602;-51.484;-126.623;-94.920;-14.268;-95.591
5786215.591;-110.753;-136.457;-149.086;-48.615;-126.027;-92.946;-3.166;-95.107
5786215.599;-112.690;-139.512;-151.210;-46.119;-125.319;-90.860;4.508;-94.213
5786215.607;-107.400;-138.693;-142.381;-44.964;-112.951;-92.462;3.614;-93.468
5786215.615;-116.713;-146.367;-147.633;-57.817;-119.507;-106.543;-16.168;-110.157
5786215.623;-125.393;-156.350;-156.537;-64.932;-129.007;-113.174;-28.014;-116.415
5786215.631;-112.802;-150.315;-146.069;-53.272;-116.602;-104.718;-13.225;-101.849
5786215.639;-113.174;-148.676;-144.020;-50.031;-111.312;-103.042;-5.737;-97.305
5786215.647;-127.368;-162.907;-158.399;-70.259;-122.972;-118.911;-19.968;-115.223
5786215.655;-135.973;-178.553;-171.438;-82.701;-139.438;-129.305;-33.379;-121.854
5786215.663;-139.847;-183.918;-170.954;-85.011;-149.421;-138.506;-45.225;-129.081
5786215.671;-147.112;-187.419;-183.992;-94.697;-156.872;-144.802;-45.486;-128.932
5786215.679;-148.229;-190.623;-179.596;-94.660;-144.839;-141.524;-37.253;-118.166
5786215.687;-147.074;-189.990;-174.679;-87.246;-136.271;-143.647;-37.551;-118.278
5786215.695;-154.525;-205.822;-178.888;-92.164;-144.206;-158.399;-53.905;-137.351
5786215.703;-160.895;-213.385;-178.739;-98.422;-153.258;-173.897;-71.228;-151.768
5786215.682;-163.801;-216.924;-186.302;-108.629;-151.694;-177.957;-67.651;-146.404
5786215.690;-168.458;-228.994;-189.319;-114.776;-147.521;-177.473;-59.381;-137.426
5786215.698;-165.328;-229.366;-186.935;-112.541;-141.524;-175.573;-54.240;-130.050
5786215.706;-172.406;-238.046;-200.197;-114.441;-164.025;-177.659;-61.095;-137.128
5786215.714;-180.043;-250.749;-209.771;-118.501;-177.249;-181.720;-75.176;-144.206
5786215.722;-181.459;-255.890;-206.791;-123.270;-167.824;-183.098;-73.612;-143.945
5786215.730;-182.316;-256.374;-199.191;-122.041;-163.987;-185.147;-68.210;-145.845
5786215.738;-179.261;-257.157;-192.039;-118.613;-163.913;-187.382;-69.812;-149.608
5786215.746;-178.628;-256.114;-195.019;-118.017;-172.406;-188.686;-71.488;-148.788
5786215.754;-191.778;-265.762;-216.179;-129.715;-174.306;-200.123;-77.710;-155.456
5786215.762;-190.251;-258.163;-219.829;-132.620;-170.320;-196.360;-67.577;-147.410
5786215.770;-183.508;-247.359;-205.487;-119.656;-175.387;-191.927;-67.540;-139.475
5786215.778;-174.604;-236.146;-195.950;-114.776;-174.604;-187.010;-64.187;-133.477
5786215.786;-178.516;-234.619;-201.128;-116.639;-181.831;-193.194;-67.428;-139.251
5786215.794;-178.888;-230.148;-203.364;-114.217;-180.490;-199.191;-69.179;-142.045
5786215.802;-180.639;-230.595;-206.418;-118.725;-191.629;-199.564;-61.207;-135.638
5786215.810;-190.698;-242.181;-213.385;-128.672;-193.194;-203.997;-65.304;-135.824
5786215.818;-187.382;-223.219;-210.293;-131.726;-181.347;-210.777;-76.815;-147.820
5786215.826;-182.390;-208.318;-210.516;-130.199;-185.370;-214.539;-85.570;-154.600
5786215.834;-176.914;-207.275;-206.679;-117.570;-188.015;-209.026;-81.658;-148.080
5786215.842;-163.466;-189.729;-195.801;-108.257;-175.238;-202.693;-72.680;-136.346
5786215.850;-155.382;-184.476;-189.655;-103.973;-172.295;-199.266;-66.161;-129.975
5786215.858;-144.318;-168.309;-180.304;-86.725;-153.854;-196.844;-61.542;-126.660
5786215.866;-147.931;-169.948;-180.975;-92.946;-156.946;-198.930;-63.442;-131.875
5786215.922;-156.872;-181.384;-188.202;-102.632;-171.773;-208.132;-74.916;-147.000
5786215.930;-155.382;-178.665;-187.606;-110.678;-176.951;-214.502;-83.037;-158.101
5786215.938;-155.792;-178.963;-185.594;-108.890;-176.877;-218.824;-87.172;-156.835
5786215.946;-148.863;-177.734;-176.206;-95.144;-159.740;-219.606;-82.888;-150.949
5786215.954;-149.645;-174.940;-179.261;-97.938;-161.529;-220.723;-76.517;-150.762
5786215.962;-141.524;-168.085;-175.573;-95.479;-158.288;-213.906;-66.012;-140.145
5786215.970;-135.787;-165.515;-171.326;-91.754;-150.688;-211.671;-59.828;-137.202
5786215.978;-149.012;-182.949;-182.614;-101.253;-165.813;-221.618;-71.153;-144.541
5786215.986;-147.261;-178.181;-181.459;-107.288;-163.428;-221.953;-68.806;-136.271
5786215.994;-147.633;-173.636;-182.018;-104.681;-162.944;-224.039;-67.800;-132.732
5786216.002;-153.780;-177.920;-188.500;-106.692;-162.348;-238.419;-79.870;-149.012
5786216.010;-149.906;-182.539;-182.837;-108.145;-160.970;-235.029;-71.861;-145.771
5786216.018;-145.361;-181.161;-181.571;-108.331;-161.119;-234.284;-76.480;-146.627
5786216.026;-147.223;-181.012;-178.479;-108.629;-163.205;-241.138;-82.739;-155.717
5786216.034;-150.539;-179.335;-182.427;-101.849;-168.122;-243.001;-85.868;-155.270
5786216.042;-153.184;-179.559;-186.972;-108.108;-176.802;-244.714;-89.556;-150.651
5786216.050;-140.294;-165.105;-171.959;-95.405;-159.405;-237.897;-77.225;-137.687
5786216.058;-133.589;-161.156;-157.952;-93.691;-142.865;-234.060;-66.496;-134.259
5786216.066;-133.999;-153.966;-161.640;-101.291;-143.237;-234.321;-61.616;-136.159
5786216.074;-128.448;-155.680;-157.580;-86.762;-141.896;-225.082;-51.372;-126.511
5786216.082;-131.764;-155.121;-155.494;-76.965;-144.131;-228.994;-56.960;-134.856
5786216.090;-131.167;-150.949;-155.903;-85.048;-141.300;-228.807;-57.630;-135.824
5786216.098;-126.883;-142.343;-157.282;-83.894;-145.473;-226.274;-59.940;-133.216
5786216.106;-122.674;-142.604;-150.613;-81.360;-139.177;-224.225;-64.932;-131.391
5786216.254;-114.515;-133.067;-142.232;-72.159;-132.620;-215.620;-56.699;-123.195
5786216.262;-115.745;-131.316;-140.071;-74.804;-144.243;-219.867;-60.834;-127.517
5786216.270;-116.341;-131.987;-143.982;-78.566;-143.759;-224.710;-67.130;-131.540
5786216.278;-116.602;-129.938;-143.945;-80.504;-141.673;-224.486;-68.247;-134.148
5786216.286;-115.335;-132.695;-144.839;-80.243;-137.351;-217.967;-62.510;-125.878
5786216.294;-106.953;-121.035;-134.632;-67.763;-133.552;-204.928;-50.701;-112.206
5786216.302;-105.761;-106.432;-132.471;-64.671;-135.675;-199.080;-41.649;-107.437
5786216.310;-111.945;-120.513;-141.002;-74.096;-135.303;-200.868;-41.574;-109.375
5786216.318;-113.249;-119.358;-140.406;-75.288;-136.346;-204.444;-49.807;-108.816
5786216.326;-108.182;-113.435;-138.022;-77.076;-142.567;-205.748;-51.372;-107.996
5786216.334;-111.088;-118.129;-133.738;-83.819;-141.412;-211.447;-64.149;-120.401
5786216.342;-116.304;-127.293;-138.395;-84.229;-135.303;-213.236;-71.637;-125.021
5786216.350;-109.822;-117.458;-135.750;-82.031;-142.902;-213.981;-68.583;-130.050
5786216.358;-116.564;-123.233;-135.936;-91.977;-154.003;-223.741;-80.094;-137.165
5786216.366;-122.972;-134.222;-139.959;-94.026;-154.935;-222.102;-79.200;-128.448
5786216.374;-121.482;-130.683;-136.495;-92.462;-151.470;-215.508;-72.084;-116.639
5786216.382;-126.846;-130.571;-141.002;-98.459;-154.339;-222.325;-80.913;-122.227
5786216.390;-123.568;-130.385;-139.847;-101.961;-148.416;-228.435;-82.552;-135.973
5786216.398;-120.066;-127.740;-134.706;-97.416;-147.857;-223.219;-76.070;-131.540
5786216.406;-114.515;-122.488;-133.291;-89.481;-146.218;-213.161;-63.926;-115.149
5786216.414;-129.603;-146.031;-147.745;-110.120;-158.586;-219.382;-67.204;-121.370
5786216.422;-136.979;-149.347;-151.582;-119.843;-166.111;-225.902;-75.661;-128.932
5786216.430;-129.119;-137.240;-143.945;-112.504;-160.486;-221.357;-70.743;-125.580
5786216.438;-120.476;-128.970;-138.544;-93.691;-149.384;-215.024;-68.396;-115.745
5786216.464;-124.723;-133.961;-141.636;-96.224;-148.565;-220.463;-75.959;-123.717
5786216.472;-135.563;-147.261;-152.737;-109.002;-161.454;-227.913;-88.625;-136.644
5786216.480;-133.552;-145.584;-145.249;-121.891;-163.428;-225.231;-92.275;-128.821
5786216.488;-122.301;-137.128;-136.606;-116.192;-146.255;-214.763;-81.062;-112.690
5786216.496;-128.075;-145.622;-139.028;-118.986;-147.969;-218.041;-82.552;-120.550
5786216.504;-127.479;-143.908;-138.953;-119.396;-152.178;-221.357;-84.788;-122.488
5786216.512;-111.312;-128.224;-122.935;-103.042;-137.351;-224.970;-85.756;-127.107
5786216.520;-103.787;-122.935;-117.309;-92.126;-131.801;-222.810;-83.260;-124.127
5786216.528;-90.711;-108.853;-111.721;-73.910;-126.399;-217.073;-68.583;-111.796
5786216.536;-84.937;-100.061;-103.302;-67.018;-121.556;-214.428;-64.708;-106.506
5786216.544;-78.827;-97.267;-92.685;-59.083;-110.008;-213.422;-63.442;-109.784
5786216.552;-71.861;-96.038;-84.639;-58.822;-101.514;-205.450;-51.148;-108.145
5786216.560;-75.549;-102.296;-85.235;-62.175;-110.082;-203.922;-50.925;-110.567
5786216.568;-68.247;-96.075;-83.484;-54.874;-106.469;-189.096;-40.792;-90.003
5786216.576;-67.353;-97.156;-84.825;-55.693;-94.399;-180.714;-38.221;-77.598
5786216.584;-72.308;-110.976;-90.860;-61.207;-101.775;-188.090;-54.203;-82.552
5786216.592;-73.276;-111.237;-92.052;-56.289;-106.953;-199.303;-72.457;-87.433
5786216.600;-76.406;-112.914;-90.301;-54.874;-108.518;-200.234;-76.666;-87.768
5786216.608;-72.531;-107.996;-89.072;-56.326;-111.610;-182.129;-58.003;-71.116
5786216.616;-75.735;-109.673;-90.934;-56.662;-116.155;-176.169;-50.701;-64.820
5786216.624;-66.571;-98.981;-82.217;-46.194;-106.804;-173.971;-40.382;-61.542
5786216.632;-64.410;-98.422;-85.905;-41.910;-101.998;-175.685;-30.324;-58.599
5786216.640;-59.269;-91.493;-77.784;-36.545;-97.267;-178.553;-36.396;-63.963
5786216.648;-50.999;-95.367;-69.067;-33.490;-93.840;-179.522;-41.723;-61.393
5786216.690;-45.858;-78.157;-65.565;-29.989;-100.583;-176.057;-47.237;-56.922
5786216.698;-39.525;-69.067;-62.287;-24.363;-84.452;-170.060;-45.598;-48.280
5786216.706;-45.113;-78.492;-62.212;-22.277;-82.031;-174.791;-50.366;-56.960
5786216.714;-42.059;-63.851;-59.642;-9.015;-87.507;-174.716;-52.489;-60.499
5786216.722;-34.012;-51.968;-55.544;-2.533;-84.788;-167.191;-43.064;-54.948
5786216.730;-31.441;-52.564;-43.735;-0.186;-76.480;-154.786;-31.404;-42.915
5786216.738;-22.650;-30.175;-38.147;-0.261;-65.230;-149.906;-21.346;-33.639
5786216.746;-21.942;-49.099;-42.133;-2.682;-59.344;-150.912;-16.168;-32.336
5786216.754;-18.068;-36.061;-29.914;-3.800;-59.530;-154.860;-22.352;-34.869
5786216.762;-13.523;-4.396;-36.657;17.732;-58.822;-152.662;-21.085;-35.278
5786216.770;-26.338;-10.468;-51.931;8.568;-63.255;-155.009;-23.767;-33.528
5786216.778;10.617;27.791;-12.890;2.943;-57.518;-149.421;-16.019;-25.183
5786216.786;20.862;44.294;18.291;35.763;-45.933;-141.747;-7.153;-19.968
5786216.794;30.883;92.238;0.820;68.992;-37.178;-147.633;-9.909;-23.730
5786216.802;52.676;135.154;25.295;94.473;-37.104;-147.037;-3.465;-23.060
5786216.810;72.978;182.763;35.651;107.922;-31.739;-133.291;10.654;-6.519
5786216.818;75.437;204.481;28.014;104.085;-43.288;-124.462;20.377;5.849
5786216.826;63.553;211.895;8.531;99.577;-62.697;-129.826;8.345;-3.912
5786216.834;69.141;230.931;13.746;106.767;-67.241;-123.456;9.909;-1.043
5786216.842;81.547;255.406;24.773;113.845;-56.215;-111.982;22.724;7.488
5786216.850;57.258;229.143;5.551;88.327;-75.363;-133.403;-3.465;-23.246
5786216.858;54.613;227.056;4.321;78.790;-73.425;-137.128;-8.121;-26.785
5786216.866;55.730;226.088;4.582;75.959;-65.826;-125.058;-1.155;-9.537
5786216.874;48.913;212.416;-0.671;78.529;-68.173;-119.656;-2.086;-5.439
5786216.992;47.460;205.077;-4.172;76.741;-72.569;-116.788;6.557;0.484
5786217.000;41.835;189.804;-3.017;66.981;-71.786;-119.656;4.768;-1.155
5786217.008;42.096;179.484;2.235;64.634;-71.637;-120.588;-6.147;1.453
5786217.016;46.976;174.828;3.465;58.375;-61.952;-114.292;-7.674;8.978
5786217.024;32.932;152.029;-5.923;43.772;-66.310;-124.909;-17.323;0.075
5786217.032;36.731;145.435;-4.247;48.392;-61.691;-121.705;-3.390;15.125
5786217.040;36.433;136.420;-4.359;50.627;-59.083;-128.821;-4.284;14.752
5786217.048;35.278;127.926;-1.900;41.351;-58.524;-143.684;-16.019;-3.204
5786217.056;27.195;105.351;-8.531;28.946;-67.204;-150.800;-21.718;-5.364
5786217.064;22.352;82.329;-9.201;31.479;-59.232;-163.428;-32.000;-6.594
5786217.072;33.863;98.944;-0.745;42.543;-51.036;-162.125;-21.681;5.513
5786217.080;22.314;83.707;-11.325;31.143;-70.110;-171.401;-30.734;-7.711
5786217.088;18.626;75.810;-7.339;24.326;-62.846;-175.722;-38.818;-5.215
5786217.096;29.057;85.160;5.513;19.707;-46.827;-169.016;-35.465;3.725
5786217.104;29.914;84.341;3.427;21.011;-48.354;-165.515;-30.175;5.923
5786217.112;21.271;68.173;-4.172;17.732;-55.507;-167.042;-26.152;3.241
5786217.120;25.742;71.414;2.831;24.587;-42.580;-158.921;-13.225;13.635
5786217.128;30.324;69.551;8.307;24.065;-36.806;-156.462;-10.468;19.707
5786217.136;21.569;56.811;-3.055;8.568;-53.048;-164.472;-26.263;9.947
5786217.144;25.630;62.324;2.980;12.070;-54.538;-161.156;-32.447;9.611
5786217.152;36.135;72.271;8.345;8.605;-43.102;-152.625;-23.469;17.993
5786217.160;33.341;69.439;16.689;-0.969;-36.545;-156.425;-34.347;10.431
5786217.168;27.083;64.671;6.258;-5.066;-44.219;-164.323;-47.162;1.937
5786217.176;25.257;64.559;2.719;1.602;-45.076;-169.016;-52.117;-2.496
5786217.197;31.143;68.359;12.927;12.219;-38.631;-168.420;-54.389;-5.513
5786217.205;40.457;81.509;19.819;20.489;-27.865;-148.006;-45.188;3.204
5786217.213;41.761;88.215;23.134;14.044;-27.753;-131.391;-42.915;5.886
5786217.221;42.804;87.768;24.773;11.437;-25.406;-127.405;-38.408;2.012
5786217.229;52.303;91.381;28.163;22.240;-16.615;-121.891;-31.032;6.072
5786217.237;50.738;89.072;23.246;21.011;-17.621;-123.642;-36.657;4.359
5786217.245;55.507;88.029;30.473;18.328;-13.784;-119.396;-31.441;10.021
5786217.253;59.567;95.367;45.635;25.928;-4.843;-112.280;-23.134;18.701
5786217.261;62.026;107.251;40.159;23.544;-4.806;-117.645;-20.303;12.778
5786217.269;70.296;110.976;49.882;25.034;18.515;-115.484;-9.499;13.895
5786217.277;61.840;98.869;44.517;22.128;16.540;-120.588;-17.062;13.225
5786217.285;59.605;97.863;40.755;22.426;11.399;-118.725;-16.578;16.727
5786217.293;60.797;93.989;40.606;21.607;3.651;-117.831;-25.742;19.073
5786217.301;48.354;85.160;26.040;6.407;-10.431;-130.795;-42.580;2.682
5786217.309;46.603;83.968;26.971;4.061;-16.764;-126.362;-36.620;-1.341
5786217.317;46.976;81.845;31.926;5.402;-7.972;-122.935;-40.270;1.155
5786217.325;56.736;89.929;43.884;13.188;1.341;-112.131;-21.793;15.385
5786217.333;57.444;89.072;41.500;24.922;0.745;-108.480;-18.589;20.601
5786217.341;49.695;86.240;28.312;14.454;-6.184;-114.627;-26.636;11.362
5786217.349;41.500;77.076;18.515;5.774;-18.440;-123.717;-39.935;-0.782
5786217.357;39.712;75.661;21.160;8.643;-32.820;-126.921;-46.119;0.298
5786217.365;48.615;80.355;33.155;8.941;-28.536;-122.972;-40.159;11.548
5786217.373;46.380;76.331;29.691;7.451;-21.420;-120.364;-41.127;15.274
5786217.381;57.481;92.797;38.296;19.073;-14.491;-107.773;-24.252;30.622
5786217.320;52.378;89.556;34.757;15.534;-14.193;-102.855;-13.448;35.018
5786217.328;44.070;74.171;26.971;9.127;-18.701;-106.320;-24.810;28.238
5786217.336;59.158;83.372;46.454;23.171;-1.118;-112.988;-26.673;21.346
5786217.344;52.750;79.349;40.531;19.521;-6.780;-123.046;-35.241;12.256
5786217.352;40.643;60.536;27.083;1.937;-10.692;-122.972;-32.000;16.466
5786217.360;29.765;52.340;20.750;-18.179;-23.767;-128.038;-33.267;13.411
5786217.368;33.192;56.587;26.301;-18.179;-21.383;-126.883;-30.734;14.454
5786217.376;37.178;59.232;28.312;-6.519;-8.158;-119.954;-22.426;21.532
5786217.384;36.918;59.456;27.902;0.596;-8.419;-116.527;-21.495;24.140
5786217.392;47.758;62.473;34.608;11.064;2.719;-107.735;-11.027;29.653
5786217.400;49.248;68.806;43.288;14.268;8.792;-103.377;-13.001;27.493
5786217.408;45.225;65.230;45.635;6.668;-3.539;-101.365;-20.154;25.928
5786217.416;43.325;63.181;35.204;6.482;-8.792;-99.279;-15.460;22.426
5786217.424;38.594;57.705;25.332;7.078;-14.864;-98.124;-15.683;24.028
5786217.432;48.131;66.236;31.702;18.477;-7.115;-92.313;-9.313;38.408
5786217.440;45.225;57.220;37.439;13.225;-3.427;-98.608;-16.727;33.230
5786217.448;34.794;41.761;30.063;8.307;-14.268;-112.355;-34.980;17.062
5786217.456;45.635;53.607;34.161;13.746;-5.700;-108.331;-20.303;28.014
5786217.464;47.199;58.636;39.302;16.503;3.166;-121.258;-16.317;32.447
5786217.472;42.059;56.140;38.557;10.952;3.614;-135.712;-23.767;32.410
5786217.480;46.715;56.103;42.804;13.001;6.966;-141.002;-21.979;34.682
5786217.488;52.936;51.819;54.017;17.732;20.303;-138.432;-14.156;39.376
5786217.496;58.748;54.650;58.375;24.624;26.785;-127.256;8.456;55.395
5786217.504;50.999;40.829;51.968;20.117;14.678;-130.832;6.892;54.725
5786217.500;49.435;40.419;46.976;11.027;26.897;-142.939;-1.341;44.368
5786217.508;48.168;39.488;47.013;11.809;33.900;-150.800;-13.858;36.955
5786217.516;46.901;38.072;46.529;17.434;19.222;-154.153;-26.189;34.980
5786217.524;63.963;63.069;54.352;33.304;24.028;-146.665;-16.280;43.735
5786217.532;72.196;81.249;70.557;49.062;42.953;-140.145;-10.580;44.666
5786217.540;78.529;86.352;79.609;46.864;52.936;-135.116;-1.676;53.123
5786217.548;82.515;85.868;87.470;40.606;62.436;-128.411;5.066;66.273
5786217.556;65.789;68.732;70.110;37.551;44.443;-140.294;-8.345;42.208
5786217.564;81.509;99.353;78.604;51.744;55.656;-126.250;9.686;56.438
5786217.572;82.254;103.526;84.043;49.882;56.811;-126.399;9.835;58.003
5786217.580;86.352;112.318;79.498;52.787;62.510;-135.154;15.758;56.773
5786217.588;93.021;119.507;81.733;51.707;66.906;-139.177;17.844;63.702
5786217.596;93.244;128.113;82.068;53.383;66.049;-161.789;11.399;67.875
5786217.604;83.223;122.562;69.700;40.457;54.017;-195.578;6.780;61.020
5786217.612;72.159;105.128;61.728;42.841;43.660;-212.379;-13.970;46.529
5786217.620;73.910;102.147;67.689;43.623;43.251;-210.963;-18.552;51.968
5786217.628;65.975;96.373;66.049;40.159;41.537;-222.400;-34.422;35.055
5786217.636;62.138;93.542;69.104;43.400;45.039;-225.492;-43.325;25.332
5786217.644;69.141;99.503;70.371;40.233;40.606;-213.571;-25.854;40.680
5786217.652;59.567;85.272;61.430;35.167;35.167;-216.626;-33.043;36.508
5786217.660;49.993;79.088;52.489;29.132;28.573;-222.325;-36.098;31.814
5786217.668;49.397;80.019;50.142;30.547;28.536;-227.168;-31.218;37.141
5786217.676;52.191;91.270;54.240;34.347;27.791;-234.395;-35.278;37.104
5786217.684;49.770;90.636;47.721;36.173;23.432;-241.399;-30.771;36.471
5786217.680;48.950;86.762;50.552;40.047;22.724;-244.044;-27.791;36.024
5786217.688;55.172;88.662;56.364;44.294;26.785;-244.975;-16.503;41.351
5786217.696;53.979;90.003;54.426;37.327;22.128;-249.147;-10.580;42.692
5786217.704;50.850;89.817;56.475;38.892;18.999;-258.945;-17.993;38.408
5786217.712;47.795;80.392;53.607;29.691;17.509;-267.960;-18.105;31.367
5786217.720;36.471;70.594;43.660;28.387;7.004;-271.015;-19.036;30.994
5786217.728;26.822;61.281;35.465;18.515;0.820;-268.705;-16.764;35.577
5786217.736;25.854;55.097;34.943;16.242;0.335;-258.163;-8.270;46.082
5786217.744;21.756;46.566;28.573;16.652;-8.717;-254.698;-11.250;47.870
5786217.752;25.071;52.415;33.341;15.981;2.123;-249.632;-5.662;49.733
5786217.760;26.338;53.979;44.070;16.578;1.043;-248.663;-12.182;44.927
5786217.768;38.706;67.204;52.005;31.069;16.168;-238.717;-4.321;51.185
5786217.776;40.196;76.480;48.131;33.304;17.807;-238.791;-6.557;49.844
5786217.784;40.904;81.919;52.713;36.508;13.970;-242.740;-14.529;42.953
5786217.792;45.523;85.644;62.101;39.749;18.999;-236.668;-8.158;44.480
5786217.800;39.786;78.417;59.009;35.949;18.626;-238.642;-22.948;38.072
5786217.808;43.064;78.045;57.817;40.904;15.460;-236.779;-28.424;37.700
5786217.816;58.785;100.881;73.016;65.714;26.859;-227.764;-24.736;44.182
5786217.824;98.869;151.396;112.094;111.796;50.440;-208.952;-13.597;53.719
5786217.832;136.234;196.770;144.616;152.215;67.912;-181.757;11.884;79.647
5786217.840;168.942;229.292;182.763;176.542;92.871;-188.611;-1.863;62.585
5786217.848;222.251;289.455;236.668;216.588;137.724;-187.568;-0.559;57.705
5786217.856;258.051;328.012;276.864;246.726;170.022;-177.696;4.917;70.445
5786217.864;274.964;350.811;293.292;262.745;178.367;-182.427;-4.359;67.651
5786217.919;287.741;368.506;305.884;270.493;191.592;-182.725;-2.198;75.474
5786217.927;294.670;371.523;312.887;271.052;199.489;-182.651;-5.066;68.173
5786217.935;297.725;366.382;310.764;275.634;208.840;-174.455;5.513;71.824
5786217.943;300.147;360.832;321.642;280.775;222.847;-155.829;27.604;88.252
5786217.951;268.333;325.777;291.094;252.128;194.535;-163.019;11.250;74.841
5786217.959;232.533;287.518;255.816;203.773;166.148;-170.879;2.459;63.330
5786217.967;210.814;265.464;233.650;172.406;148.751;-174.008;-5.476;58.822
5786217.975;201.017;245.683;215.173;168.569;148.192;-161.827;5.327;72.010
5786217.983;179.596;219.457;193.380;152.439;141.338;-159.927;7.674;74.655
5786217.991;162.609;201.315;176.206;134.632;133.254;-166.632;0.410;72.531
5786217.999;146.776;183.173;162.870;109.486;129.268;-179.484;-5.998;65.342
5786218.007;124.350;150.017;144.131;81.509;121.109;-190.809;-16.838;50.701
5786218.015;135.265;155.829;155.307;85.272;131.354;-178.553;1.155;60.797
5786218.023;136.606;160.299;152.066;82.813;132.844;-168.942;12.070;71.228
5786218.031;120.774;140.183;140.145;73.165;122.488;-165.887;10.729;78.417
5786218.039;108.033;125.282;125.431;60.797;115.633;-167.675;9.947;68.359
5786218.047;105.053;122.711;122.190;62.212;112.653;-162.274;15.274;70.967
5786218.055;100.657;117.496;116.155;56.811;108.331;-164.621;5.849;72.084
5786218.063;92.164;104.979;115.782;51.744;112.914;-174.828;-6.892;66.832
5786218.071;86.911;106.543;110.008;36.880;107.214;-178.702;-5.700;68.992
5786218.079;85.905;103.526;100.918;35.763;99.204;-180.043;5.774;64.410
5786218.087;87.209;97.565;105.388;45.002;104.494;-182.837;7.637;59.456
5786218.095;84.229;96.262;100.210;41.462;93.132;-192.709;6.929;55.023
5786218.103;79.684;95.367;91.344;32.969;85.123;-200.607;3.688;55.134
5786218.143;87.842;101.365;104.234;44.778;93.356;-194.199;16.838;73.239
5786218.151;74.059;84.303;88.811;36.806;87.507;-208.318;15.944;64.820
5786218.159;59.977;65.044;74.133;21.681;85.719;-211.969;8.158;65.267
5786218.167;62.697;69.104;78.604;13.411;89.109;-202.022;20.191;78.529
5786218.175;60.312;55.954;72.569;10.580;87.023;-201.799;22.426;81.360
5786218.183;59.344;52.415;71.079;10.990;87.395;-202.358;23.171;88.625
5786218.191;64.783;57.817;70.296;16.131;93.952;-201.575;28.983;89.817
5786218.199;62.324;50.701;73.873;12.778;93.877;-207.722;21.309;85.644
5786218.207;76.406;69.775;87.358;21.607;101.365;-200.048;35.428;101.998
5786218.215;74.282;62.920;84.043;22.203;104.234;-207.536;31.926;93.058
5786218.223;67.540;56.513;77.859;20.266;97.677;-218.824;16.950;77.859
5786218.231;73.686;63.218;80.951;18.477;98.646;-223.145;12.778;84.154
5786218.239;72.420;60.275;79.684;14.305;95.367;-229.366;1.527;77.635
5786218.247;72.420;58.264;85.011;17.248;97.081;-224.002;7.786;74.208
5786218.255;68.955;54.948;81.360;9.649;97.789;-224.672;6.557;72.867
5786218.263;73.500;60.461;88.736;16.056;101.477;-217.929;8.196;81.509
5786218.271;74.394;64.000;90.115;17.956;102.259;-213.645;14.454;80.504
5786218.279;81.174;74.282;93.021;30.957;111.796;-210.069;16.093;79.721
5786218.287;85.682;79.274;93.468;33.043;111.721;-207.685;25.630;83.521
5786218.295;75.437;63.293;81.621;16.987;105.649;-215.806;18.626;73.798
5786218.303;83.856;66.906;93.319;25.705;118.092;-199.452;31.479;86.874
5786218.311;91.158;77.896;99.503;32.894;127.889;-181.235;56.140;110.306
5786218.319;78.678;75.921;82.143;20.415;113.398;-184.663;46.007;102.147
5786218.327;68.098;69.439;70.482;11.064;98.795;-185.147;41.239;94.026
5786218.295;69.290;70.073;78.045;8.754;107.847;-190.139;29.169;87.284
5786218.303;71.488;73.016;85.384;10.654;117.384;-186.004;25.481;86.613
5786218.311;67.279;67.279;83.707;1.863;118.390;-183.769;30.920;93.654
5786218.319;48.168;50.366;68.732;-11.660;104.010;-194.721;9.462;75.847
5786218.327;58.264;62.808;79.684;-7.190;120.476;-178.255;21.495;89.034
5786218.335;54.576;58.152;79.088;-7.711;123.642;-167.973;32.894;102.222
5786218.343;48.131;57.705;73.016;-12.219;116.862;-172.853;26.040;99.167
5786218.351;40.792;53.309;61.058;-21.458;106.432;-186.227;11.250;78.492
5786218.359;30.249;44.219;52.191;-23.432;90.525;-193.901;-5.551;58.673
5786218.367;39.451;50.999;63.814;-11.511;101.663;-180.937;5.737;61.840
5786218.375;40.494;51.074;63.628;-10.245;108.331;-172.257;17.583;67.689
5786218.383;35.055;36.769;60.126;-16.205;110.008;-162.944;27.083;79.721
5786218.391;30.771;29.691;57.071;-22.873;111.870;-162.572;29.169;86.688
5786218.399;18.887;19.483;49.323;-32.112;99.614;-178.479;7.227;66.422
5786218.407;19.185;14.566;53.756;-31.479;99.614;-182.278;4.396;63.740
5786218.415;29.020;26.524;57.705;-18.887;101.849;-181.980;8.941;57.518
5786218.423;21.458;23.358;54.315;-27.157;94.362;-190.958;-2.831;44.480
5786218.431;19.148;16.093;57.481;-36.694;97.901;-190.288;-1.155;50.589
5786218.439;24.028;17.807;66.124;-19.185;111.721;-182.800;1.602;53.011
5786218.447;36.433;23.693;74.394;-4.470;114.255;-175.871;5.066;54.240
5786218.455;36.098;27.083;73.127;-4.172;120.178;-172.630;3.874;58.152
5786218.463;32.149;26.301;68.173;-15.236;122.711;-172.071;1.863;55.544
5786218.471;37.141;25.518;75.661;-22.985;124.052;-161.380;19.856;59.046
5786218.479;34.720;15.460;77.970;-11.511;133.142;-157.394;23.730;58.003
5786218.457;47.050;39.935;85.458;2.012;143.461;-145.473;37.253;70.930
5786218.465;57.109;46.156;97.901;12.331;157.170;-136.793;47.833;76.704
5786218.473;54.315;44.741;96.001;11.511;155.605;-138.506;42.468;74.282
5786218.481;54.538;45.411;96.373;3.837;153.705;-139.661;42.953;74.655
5786218.489;63.255;52.676;107.363;7.153;160.746;-137.575;37.551;74.767
5786218.497;72.159;65.267;115.484;15.981;167.564;-133.812;34.682;78.268
5786218.505;78.864;70.445;134.259;23.209;182.353;-131.093;32.820;76.108
5786218.513;94.250;87.395;148.676;40.419;186.004;-138.395;22.016;58.860
5786218.521;143.796;146.776;195.093;84.564;217.967;-131.130;26.077;67.092
5786218.529;182.576;190.325;235.513;129.119;234.917;-119.843;27.120;76.629
5786218.537;224.262;240.766;269.637;177.324;252.128;-103.749;43.809;94.846
5786218.545;270.903;295.565;309.199;233.203;277.162;-84.601;63.255;108.592
5786218.553;296.012;328.049;329.278;266.321;281.297;-74.916;67.726;112.094
5786218.561;311.509;342.093;337.064;287.443;276.528;-63.889;80.280;121.146
5786218.569;320.375;355.728;341.348;301.078;268.072;-58.189;86.762;114.255
5786218.577;330.023;366.345;353.865;316.128;260.435;-47.907;96.746;120.029
5786218.585;336.729;378.117;348.203;337.139;248.142;-45.672;93.989;120.029
5786218.593;322.908;367.574;327.788;338.145;236.593;-56.177;73.351;104.159
5786218.601;297.986;341.907;299.737;322.200;216.514;-63.106;63.740;100.732
5786218.609;273.883;312.701;268.780;300.407;194.646;-53.532;74.394;110.529
5786218.617;254.139;281.781;243.597;287.220;174.530;-46.529;87.060;123.382
5786218.625;221.655;251.867;204.220;253.581;139.736;-63.404;71.675;99.018
5786218.633;199.825;225.641;186.451;231.303;123.493;-70.035;60.871;87.731
5786218.641;192.001;210.665;181.086;224.113;119.321;-58.375;74.692;102.110
5786218.667;171.624;191.405;161.342;204.667;99.614;-57.220;71.675;99.130
5786218.675;155.717;167.862;143.163;189.170;92.536;-54.389;71.861;103.638
5786218.683;151.768;161.156;142.902;180.639;96.224;-48.392;76.331;113.361
5786218.691;144.318;150.837;133.738;168.532;90.152;-53.532;65.677;105.314
5786218.699;136.085;137.538;121.854;161.007;80.019;-52.415;66.198;107.512
5786218.707;121.444;115.260;106.469;142.865;67.949;-58.301;56.513;94.846
5786218.715;128.075;119.284;114.739;150.092;78.492;-47.162;75.288;101.961
5786218.723;135.750;129.193;119.582;154.637;90.785;-37.290;88.960;113.472
5786218.731;129.677;121.146;114.329;141.785;87.619;-41.984;76.108;108.071
5786218.739;121.333;110.343;108.667;131.279;83.148;-42.878;70.110;103.712
5786218.747;119.470;111.051;114.217;128.411;82.962;-36.545;70.296;109.076
5786218.755;117.607;108.816;110.008;124.164;80.056;-31.926;73.127;112.541
5786218.763;112.057;98.050;103.600;117.235;76.629;-23.656;83.968;120.401
5786218.771;110.529;92.462;104.271;123.344;77.114;-16.056;94.436;126.995
5786218.779;104.159;88.550;97.528;120.923;83.596;-18.403;99.726;116.341
5786218.787;111.498;99.950;103.861;127.628;83.484;-9.723;100.955;121.780
5786218.795;124.946;111.461;117.756;138.916;101.924;2.012;115.521;136.420
5786218.803;114.106;101.365;108.182;123.493;88.476;-15.944;95.591;115.409
5786218.811;117.943;98.571;108.033;129.379;87.284;-21.607;80.913;107.326
5786218.819;121.780;98.385;118.464;133.291;91.717;-16.168;87.619;109.300
5786218.827;125.095;103.749;119.023;130.348;90.152;-9.611;87.656;111.535
5786218.835;121.854;100.508;113.621;123.046;88.774;-8.456;87.395;115.186
5786218.843;118.129;94.324;111.200;129.901;92.089;-8.531;90.152;111.498
5786218.851;112.690;89.295;107.139;124.201;94.846;-11.884;86.688;112.243
5786218.879;107.475;75.959;101.253;119.545;94.362;-14.864;89.891;113.547
5786218.887;105.612;82.552;99.391;112.727;87.619;-16.019;86.166;110.343
5786218.895;109.635;84.415;102.185;112.392;92.052;-9.537;91.717;116.341
5786218.903;120.029;87.097;116.974;125.654;107.996;2.570;105.686;126.623
5786218.911;115.037;81.994;116.564;128.001;106.432;-1.788;95.591;122.748
5786218.919;109.971;80.764;108.927;119.694;97.826;-9.984;83.297;113.994
5786218.927;101.924;74.580;104.234;109.710;85.421;-22.426;69.775;97.677
5786218.935;107.139;81.211;104.681;113.733;90.525;-15.497;77.300;111.498
5786218.943;100.993;79.125;98.757;112.876;87.321;-16.093;78.045;112.504
5786218.951;100.508;81.100;101.477;109.971;91.717;-10.356;87.582;112.131
5786218.959;100.769;67.092;103.042;107.251;95.107;-3.166;102.036;122.823
5786218.967;93.244;57.630;97.603;100.061;93.579;-12.107;91.046;117.980
5786218.975;99.540;63.479;104.420;101.961;108.145;-5.476;101.067;143.424
5786218.983;85.831;51.856;93.915;88.774;94.138;-23.097;89.370;117.794
5786218.991;72.457;43.213;82.329;79.200;78.790;-39.935;74.431;86.874
5786218.999;69.514;39.712;78.827;75.176;80.913;-28.983;89.407;102.893
5786219.007;77.672;48.839;88.252;79.200;90.934;-15.683;99.987;116.974
5786219.015;103.563;79.200;108.220;101.328;102.036;-3.241;112.057;129.454
5786219.023;126.585;109.151;126.995;119.545;112.616;11.772;127.926;144.392
5786219.031;128.634;112.541;127.964;126.772;109.449;1.602;115.298;132.136
5786219.039;138.059;124.201;137.165;134.110;126.436;-0.745;114.366;127.219
5786219.047;134.483;126.548;143.200;130.869;121.780;-5.476;112.951;121.705
5786219.055;138.320;146.702;143.163;127.293;121.556;-15.423;92.611;109.337
5786219.063;133.701;138.134;138.506;115.484;127.256;-18.850;89.258;106.283
5786219.086;125.356;133.216;133.440;106.469;121.556;-21.122;84.564;104.681
5786219.094;125.803;133.701;134.408;108.629;116.527;-11.362;88.401;110.120
5786219.102;145.882;150.576;155.792;131.279;143.908;12.927;105.202;131.465
5786219.110;140.369;147.745;148.453;125.170;143.163;16.056;106.171;134.557
5786219.118;123.754;129.193;132.620;110.790;125.952;7.488;91.270;115.409
5786219.126;116.676;118.203;127.070;102.781;118.501;10.543;87.097;111.200
5786219.134;118.949;116.900;133.254;98.534;127.293;23.730;102.818;129.491
5786219.142;112.876;109.673;127.815;88.513;119.396;21.122;97.081;135.712
5786219.150;111.423;111.312;130.311;92.797;126.287;17.621;94.622;124.387
5786219.158;106.394;116.527;125.356;94.846;127.479;9.052;88.327;106.692
5786219.166;102.185;108.033;121.407;93.132;117.868;4.806;80.988;102.669
5786219.174;87.470;87.693;101.142;81.472;88.960;-0.186;76.145;105.835
5786219.182;83.484;85.346;99.577;75.996;88.550;-3.465;64.485;102.408
5786219.190;82.552;83.894;103.302;74.990;88.662;-14.007;51.670;91.977
5786219.198;72.978;76.704;92.052;66.981;86.613;-17.919;44.964;82.552
5786219.206;68.955;69.924;86.427;68.024;82.217;-10.543;52.676;83.782
5786219.214;99.018;103.377;121.035;94.362;108.890;10.915;77.002;108.741
5786219.222;92.462;97.230;114.813;80.578;96.820;-1.900;58.860;93.170
5786219.230;92.462;102.296;114.366;78.753;92.313;0.522;59.567;95.218
5786219.238;108.443;123.307;138.804;104.755;117.794;13.448;74.171;117.421
5786219.246;103.191;119.098;138.469;103.414;121.221;13.672;77.598;122.152
5786219.254;88.625;104.047;120.811;86.352;106.916;6.929;71.898;116.192
5786219.262;93.877;112.094;124.238;94.101;114.925;9.537;74.580;118.650
5786219.270;100.061;119.358;133.179;103.749;120.252;11.846;78.976;126.213
5786219.224;101.477;114.366;136.122;102.483;116.974;9.537;74.320;115.782
5786219.232;105.873;125.617;142.753;103.861;122.748;8.158;64.857;108.704
5786219.240;107.549;132.285;141.710;108.965;118.911;3.502;60.946;102.147
5786219.248;121.705;147.596;153.705;132.695;131.130;15.460;72.978;117.794
5786219.256;120.848;151.396;154.860;134.297;129.640;13.672;67.987;110.045
5786219.264;126.138;156.984;157.915;134.632;138.693;22.575;78.455;122.935
5786219.272;124.574;155.047;159.405;129.901;138.357;29.542;96.224;126.846
5786219.280;133.626;161.417;168.607;134.595;151.768;43.325;114.962;144.951
5786219.288;128.895;162.683;161.082;139.177;144.169;39.041;106.916;141.785
5786219.296;118.166;154.972;152.439;126.101;136.681;34.720;103.526;131.279
5786219.304;127.256;161.752;167.228;135.489;143.610;46.417;113.435;146.888
5786219.312;123.568;166.930;163.317;138.655;130.758;37.551;98.459;132.509
5786219.320;145.659;186.041;183.769;164.285;166.930;53.793;116.564;146.925
5786219.328;137.202;179.335;176.914;156.052;164.807;51.074;112.131;146.367
5786219.336;121.072;167.154;163.391;142.008;151.619;47.535;108.853;139.140
5786219.344;129.975;177.361;170.134;149.570;157.058;56.960;121.482;147.559
5786219.352;140.965;187.233;181.049;157.543;164.509;61.095;128.672;154.823
5786219.360;131.093;179.075;167.862;153.407;147.335;44.219;109.449;134.110
5786219.368;125.244;175.871;165.068;146.143;152.402;37.067;93.468;123.456
5786219.376;116.713;165.775;158.139;133.216;136.569;36.061;85.384;124.238
5786219.384;114.739;165.738;157.654;142.269;129.379;40.345;82.031;127.330
5786219.392;126.027;179.969;173.301;154.600;144.057;48.801;87.172;129.938
5786219.400;137.314;192.970;184.812;163.466;158.101;55.507;98.944;136.420
5786219.408;138.693;194.460;184.290;164.434;164.323;52.527;94.324;135.899
5786219.432;157.133;216.216;203.103;187.531;172.965;48.429;91.530;124.499
5786219.440;187.233;251.979;229.441;218.898;185.221;63.702;109.076;131.726
5786219.448;223.294;291.243;265.092;255.518;214.241;69.812;113.472;134.632
5786219.456;244.677;316.799;282.116;274.256;220.016;68.285;108.331;132.062
5786219.464;276.268;353.083;317.246;302.270;245.869;62.510;90.674;123.903
5786219.472;320.897;399.239;363.998;345.409;276.603;73.612;99.763;138.693
5786219.480;350.066;431.202;391.901;374.839;295.155;85.197;114.627;153.109
5786219.488;347.123;428.706;387.244;371.747;279.844;71.749;102.259;134.744
5786219.496;348.017;422.820;384.264;377.558;280.514;72.382;103.638;130.124
5786219.504;354.312;426.807;395.216;387.542;297.874;75.288;105.985;130.273
5786219.512;360.124;433.698;400.618;389.963;300.296;79.870;110.008;132.360
5786219.520;355.579;429.228;386.685;389.442;289.530;80.802;109.561;128.299
5786219.528;352.785;424.460;380.352;391.044;282.526;79.945;108.108;126.176
5786219.536;358.298;425.503;384.413;402.182;287.443;93.728;126.287;143.237
5786219.544;357.144;419.617;385.866;396.334;288.524;96.560;131.838;144.541
5786219.552;340.566;393.651;366.420;383.556;269.972;95.144;134.781;146.143
5786219.560;321.195;379.235;342.764;375.397;247.136;84.378;120.550;133.626
5786219.568;303.872;356.697;322.051;361.688;230.931;83.372;118.166;134.222
5786219.576;293.143;339.188;304.580;350.177;223.592;85.384;124.276;139.400
5786219.584;276.901;322.051;286.475;337.772;209.138;89.668;122.711;139.922
5786219.592;254.922;291.541;263.192;318.810;189.580;94.138;119.358;139.698
5786219.600;231.639;259.802;241.026;303.276;164.732;98.869;122.227;141.673
5786219.608;208.691;227.876;216.179;278.912;144.728;96.522;121.668;136.383
5786219.616;206.940;222.623;214.353;281.967;147.335;115.819;152.066;155.009
5786219.628;187.568;201.613;201.538;267.178;145.063;100.024;137.389;136.904
5786219.636;161.007;168.830;175.200;233.725;124.611;72.457;100.881;108.257
5786219.644;159.964;159.554;172.965;226.013;125.170;79.982;108.033;123.195
5786219.652;158.437;154.153;173.561;218.600;126.772;88.029;115.111;131.726
5786219.660;158.176;152.402;174.455;216.924;136.234;96.709;125.803;140.555
5786219.668;141.934;130.162;161.566;201.724;124.536;94.399;117.868;135.154
5786219.676;130.273;113.100;150.353;187.904;117.905;93.915;104.420;126.995
5786219.684;132.062;111.945;152.215;190.176;123.158;104.792;111.647;136.942
5786219.692;132.993;114.031;156.090;188.723;123.568;113.323;127.368;146.702
5786219.700;132.807;113.025;158.660;187.270;128.523;118.054;144.392;146.963
5786219.708;123.531;101.253;152.923;167.266;123.307;106.432;135.750;133.216
5786219.716;123.344;97.938;150.912;164.248;126.995;106.245;135.973;130.273
5786219.724;120.923;95.926;146.404;167.154;130.981;104.196;131.279;130.720
5786219.732;124.015;105.239;151.694;174.642;131.056;106.096;131.354;135.042
5786219.740;132.620;118.315;158.586;184.886;139.438;118.986;143.200;148.155
5786219.748;127.926;112.094;153.482;174.157;139.959;117.868;134.669;148.639
5786219.756;121.444;104.271;150.055;164.658;135.079;116.490;123.382;146.776
5786219.764;113.659;95.479;143.908;151.731;127.070;119.768;121.668;136.867
5786219.772;117.235;99.167;148.751;149.459;130.534;135.377;137.240;141.636
5786219.780;118.949;104.308;151.806;145.808;135.116;140.704;148.863;144.802
5786219.788;120.699;108.071;158.921;147.671;145.771;140.369;151.843;145.584
5786219.796;106.134;98.422;137.687;141.598;131.428;122.227;136.197;122.897
5786219.804;102.744;92.275;134.408;139.438;131.130;121.221;127.070;126.176
5786219.812;100.285;82.776;136.793;131.465;133.030;126.287;125.095;136.197
5786219.809;100.099;81.062;136.159;132.248;139.587;128.634;126.995;137.426
5786219.817;94.175;75.325;136.904;123.978;146.441;130.124;125.766;142.828
5786219.825;86.688;71.786;133.738;117.235;141.673;130.981;130.050;142.753
5786219.833;79.311;64.634;125.170;110.120;129.230;120.439;119.433;119.135
5786219.841;76.555;64.559;121.221;106.841;131.726;113.733;107.475;109.673
5786219.849;78.008;61.095;123.791;105.202;135.228;114.925;105.947;115.745
5786219.857;71.526;54.240;122.786;96.448;130.199;110.306;93.766;107.512
5786219.865;78.045;61.207;130.758;102.036;134.557;124.164;107.288;121.854
5786219.873;82.850;66.198;137.202;101.104;142.418;129.044;112.504;128.970
5786219.881;76.778;60.275;128.821;85.719;141.971;118.390;101.291;125.319
5786219.889;68.769;43.735;126.399;75.363;141.636;122.115;106.804;134.036
5786219.897;75.176;49.435;136.159;88.699;147.223;121.817;103.898;129.081
5786219.905;76.741;64.187;131.242;110.194;141.338;110.678;88.885;104.085
5786219.913;92.015;83.856;142.381;138.283;145.994;124.164;101.179;106.059
5786219.921;126.325;122.972;175.349;176.951;163.950;153.705;124.127;132.509
5786219.929;157.692;165.254;204.705;210.926;177.324;165.552;131.391;139.810
5786219.937;200.756;213.832;246.577;255.816;200.309;181.235;141.077;154.786
5786219.945;252.761;268.295;297.092;309.348;230.670;190.325;142.120;160.821
5786219.953;284.426;305.884;330.023;342.801;244.118;182.688;123.009;149.906
5786219.961;308.976;338.145;353.791;370.443;247.024;177.957;114.404;138.283
5786219.969;341.013;377.223;374.876;399.277;262.633;190.623;129.454;147.410
5786219.977;372.119;403.859;404.641;442.751;278.763;204.220;139.214;154.562
5786219.985;362.769;395.402;393.055;450.648;270.270;195.317;132.322;140.145
5786219.993;360.794;394.024;389.256;448.450;281.744;197.552;140.481;147.931
5786220.032;338.703;366.494;362.471;424.646;262.633;197.962;138.767;156.127
5786220.040;313.595;335.835;331.327;403.784;242.628;203.103;142.343;158.623
5786220.048;312.924;330.284;329.055;401.027;240.691;228.100;165.589;180.341
5786220.056;287.704;296.086;301.376;367.761;217.147;222.251;155.792;169.612
5786220.064;257.082;254.437;269.637;345.409;195.540;213.943;144.206;153.258
5786220.072;241.026;238.195;255.518;330.098;183.545;209.175;135.787;148.527
5786220.080;217.259;205.673;232.905;306.889;165.142;193.715;119.619;138.171
