Timestamp,AFz,AF3,AF4,AF7,AF8,Pz,P3,P4,2024-05-20 10:37:48.775,fs=125
5786714.388;60.312;14.752;41.388;87.135;101.924;19.297;50.962;32.969
5786714.396;66.161;20.340;45.635;95.703;106.618;28.238;61.579;43.400
5786714.404;71.712;28.126;50.068;102.259;107.586;27.157;62.585;45.113
5786714.412;62.995;18.328;41.872;93.021;98.199;15.609;52.862;32.783
5786714.420;54.352;8.717;33.714;85.421;91.605;12.890;45.039;36.657
5786714.428;53.532;6.892;31.665;85.086;90.189;17.732;46.939;46.119
5786714.436;58.189;10.841;35.949;87.842;91.493;20.862;49.397;50.589
5786714.444;53.756;6.966;32.596;85.458;83.260;14.193;40.904;39.004
5786714.452;64.485;18.626;44.703;98.720;91.903;23.730;51.297;43.102
5786714.460;72.829;31.851;52.452;107.922;103.824;31.888;57.667;57.183
5786714.468;67.092;23.767;44.927;104.234;101.812;27.269;53.011;53.719
5786714.476;66.794;20.340;44.592;104.494;97.454;22.762;50.068;37.774
5786714.484;77.784;30.883;55.768;118.129;103.228;30.436;60.834;41.872
5786714.492;81.211;35.018;57.332;122.897;105.277;33.155;66.049;48.615
5786714.500;76.368;30.249;51.148;120.252;101.626;29.057;63.069;48.429
5786714.508;73.910;25.779;51.968;119.135;97.379;24.959;60.946;46.901
5786714.516;61.058;15.460;36.545;107.512;82.292;12.070;44.890;36.880
5786714.524;62.548;22.501;37.029;110.641;85.868;17.360;47.460;45.113
5786714.532;61.467;18.738;37.104;107.661;84.601;11.511;38.929;39.637
5786714.540;72.569;28.946;48.093;119.694;94.883;15.609;40.531;45.970
5786714.548;79.945;37.253;55.879;127.815;104.271;22.389;46.976;48.876
5786714.556;75.102;32.485;50.664;123.344;95.852;13.933;41.649;30.734
5786714.564;72.606;29.616;49.137;120.662;96.634;17.658;48.950;35.241
5786714.572;66.869;23.693;46.305;113.621;93.207;10.170;43.847;26.152
5786714.540;59.530;13.970;39.488;100.248;87.880;11.288;44.703;27.195
5786714.548;60.014;15.758;34.794;109.263;80.764;18.701;47.497;41.388
5786714.556;71.302;35.278;43.623;127.777;81.919;15.125;42.655;32.857
5786714.564;73.798;40.866;42.170;136.904;70.669;20.601;46.827;37.365
5786714.572;85.123;53.048;48.243;156.909;72.084;32.820;57.146;56.177
5786714.580;84.415;55.581;44.480;165.328;58.636;30.585;54.277;51.223
5786714.588;90.860;63.106;47.237;176.169;53.123;27.381;54.017;43.139
5786714.596;104.196;79.051;56.848;197.776;57.034;42.692;74.208;62.846
5786714.604;108.033;81.696;60.126;205.375;60.350;53.123;88.885;70.855
5786714.612;102.110;77.859;52.378;199.080;50.664;50.887;87.656;57.407
5786714.620;96.895;75.884;46.529;195.689;44.778;42.878;75.772;44.480
5786714.628;101.142;78.306;54.128;200.123;55.023;45.635;79.311;47.982
5786714.636;95.591;72.978;50.031;196.770;49.472;35.278;70.743;41.313
5786714.644;96.783;72.569;51.185;195.168;52.974;37.551;68.955;50.850
5786714.652;97.640;73.910;51.707;196.472;54.315;42.729;70.333;53.532
5786714.660;91.121;66.943;46.082;188.760;45.002;38.408;59.679;43.400
5786714.668;89.295;67.391;44.852;191.070;44.666;52.415;73.798;65.193
5786714.676;77.672;53.979;33.602;178.702;37.067;52.564;73.463;58.003
5786714.684;76.182;50.850;34.310;175.834;37.923;54.874;77.449;60.648
5786714.692;94.846;76.294;51.782;197.813;50.180;67.502;96.634;78.492
5786714.700;80.466;61.318;36.769;182.986;34.422;46.045;78.008;54.352
5786714.708;88.587;66.794;44.852;187.047;44.331;45.374;78.902;53.830
5786714.716;91.754;69.253;45.709;188.760;46.417;42.804;76.480;61.393
5786714.724;106.171;83.297;59.046;203.103;61.616;50.478;82.925;73.239
5786714.702;104.457;81.137;58.673;201.203;58.301;45.374;78.045;56.438
5786714.710;98.124;74.245;49.807;194.050;43.996;38.557;69.216;46.343
5786714.718;106.059;83.037;54.352;204.742;50.850;53.048;82.143;61.132
5786714.726;133.701;109.822;83.745;229.962;82.739;91.568;115.745;115.596
5786714.734;98.050;71.712;49.174;189.245;50.738;61.095;75.959;75.698
5786714.742;94.697;64.522;46.529;182.800;45.635;50.738;70.445;52.601
5786714.750;115.633;88.625;64.149;205.860;54.948;56.438;79.758;54.277
5786714.758;132.658;108.220;78.641;225.827;63.293;66.385;93.654;69.104
5786714.766;130.758;102.930;78.343;219.531;65.304;64.149;96.969;67.167
5786714.774;128.746;100.471;72.829;219.122;61.840;65.416;93.915;66.012
5786714.782;149.980;121.556;93.393;241.101;80.168;88.327;116.117;89.742
5786714.790;142.418;111.647;85.384;230.968;69.551;80.690;105.835;83.484
5786714.798;134.148;102.110;76.965;222.139;63.516;75.512;100.024;72.941
5786714.806;117.645;86.650;59.381;208.169;46.566;59.530;84.341;62.957
5786714.814;127.777;94.734;67.838;216.700;54.948;64.075;90.860;68.396
5786714.822;142.194;105.649;83.521;226.833;75.176;85.086;103.675;96.597
5786714.830;131.018;94.101;71.265;218.004;64.969;77.114;93.393;83.596
5786714.838;125.170;85.458;66.012;208.579;58.338;64.485;76.666;73.351
5786714.846;128.448;87.544;67.651;210.144;58.822;69.104;79.796;76.517
5786714.854;134.595;92.164;71.824;215.136;68.583;79.349;92.685;84.788
5786714.862;135.712;93.877;69.849;218.377;65.342;80.876;101.179;85.905
5786714.870;151.694;109.188;82.143;235.252;76.517;89.630;117.496;89.891
5786714.878;144.728;100.620;75.959;225.641;69.924;72.382;98.720;77.151
5786714.886;152.364;107.847;81.845;233.129;72.047;76.778;103.712;78.529
5786714.927;153.854;107.475;81.994;234.842;74.804;85.533;110.753;92.424
5786714.935;130.497;81.398;59.344;209.995;56.364;71.265;91.866;77.039
5786714.943;130.646;80.355;60.312;208.206;55.544;69.141;84.154;79.758
5786714.951;135.824;83.037;64.038;212.565;59.977;68.918;85.905;82.664
5786714.959;163.466;110.455;87.321;240.169;88.438;100.993;112.727;121.780
5786714.967;135.861;82.590;56.997;212.379;56.736;81.472;100.210;97.230
5786714.975;123.195;70.632;40.904;198.632;38.110;62.734;78.492;62.883
5786714.983;151.470;96.262;66.645;222.176;67.875;86.352;103.153;82.813
5786714.991;155.866;98.571;70.296;221.804;74.878;82.515;99.465;82.701
5786714.999;150.353;91.381;64.336;213.906;64.299;62.250;80.876;62.995
5786715.007;158.027;96.969;70.557;217.892;73.798;68.657;86.203;70.557
5786715.015;166.371;104.085;75.251;224.672;82.999;89.929;116.527;102.445
5786715.023;152.513;89.258;61.058;207.871;67.949;78.604;104.047;86.166
5786715.031;155.307;91.866;59.567;211.932;61.244;78.790;109.710;88.401
5786715.039;143.126;77.672;43.102;198.595;46.380;57.705;71.079;73.090
5786715.047;154.078;85.011;54.091;205.599;62.138;59.158;71.451;77.821
5786715.055;165.552;96.895;65.342;218.488;76.145;64.410;85.719;85.309
5786715.063;187.717;118.650;85.011;241.473;93.207;80.839;105.388;107.139
5786715.071;148.118;78.343;43.362;202.581;47.795;37.923;59.195;45.449
5786715.079;166.148;95.740;58.115;222.698;62.138;47.646;76.890;49.062
5786715.087;185.072;112.243;72.978;239.238;81.211;60.648;87.619;64.261
5786715.095;173.897;102.147;60.163;232.644;71.041;54.911;85.793;70.371
5786715.103;187.121;112.951;74.655;243.448;87.954;78.008;111.908;109.710
5786715.111;169.389;93.021;57.630;223.294;67.092;59.567;92.909;86.352
5786715.168;162.497;85.570;49.360;219.233;54.911;42.431;73.351;61.803
5786715.176;179.149;101.626;64.187;236.779;73.127;57.518;94.175;90.711
5786715.184;169.612;90.264;55.060;226.870;66.645;42.282;82.850;69.104
5786715.192;175.945;95.367;60.275;231.825;69.179;32.671;60.126;46.156
5786715.200;206.493;123.195;87.582;264.011;93.132;62.399;87.731;84.415
5786715.208;187.159;108.890;63.367;248.216;72.643;50.403;76.145;72.829
5786715.216;174.977;97.379;51.409;237.338;63.479;39.600;65.938;55.358
5786715.224;195.093;118.129;71.190;263.564;78.864;51.782;85.793;63.963
5786715.232;224.635;147.298;100.471;296.943;109.449;78.194;121.370;87.880
5786715.240;212.304;132.173;90.078;284.128;104.010;65.416;106.655;86.911
5786715.248;182.837;104.457;59.716;258.535;72.382;34.608;62.734;62.957
5786715.256;163.950;85.235;39.600;242.628;48.093;14.193;39.674;38.110
5786715.264;173.375;93.021;46.901;253.133;55.954;24.512;55.395;56.997
5786715.272;165.515;85.197;38.855;247.881;50.887;12.964;37.290;46.641
5786715.280;194.572;115.521;68.918;280.179;79.684;47.833;80.764;78.939
5786715.288;189.729;110.082;64.485;277.683;71.190;42.692;80.168;73.500
5786715.296;153.705;72.159;26.636;238.083;35.651;5.476;27.828;29.057
5786715.304;169.463;89.295;40.010;258.945;49.025;19.297;51.931;34.273
5786715.312;165.813;85.533;35.800;257.343;41.313;18.664;56.885;36.433
5786715.320;186.786;105.761;57.705;281.297;67.689;42.729;85.384;68.508
5786715.328;194.088;113.323;66.869;289.306;80.056;48.056;88.438;78.492
5786715.336;160.635;83.745;32.783;257.380;45.225;8.978;42.319;31.702
5786715.344;161.268;82.254;33.751;258.610;47.125;14.789;44.294;36.284
5786715.352;162.832;80.056;37.551;255.257;53.234;28.647;59.940;55.134
5786715.332;150.204;71.526;21.197;251.308;30.771;4.508;45.598;23.805
5786715.340;144.057;67.167;11.399;254.214;17.248;0.335;38.296;21.532
5786715.348;142.828;65.453;9.909;256.710;16.987;3.800;24.885;34.720
5786715.356;146.180;70.371;10.356;266.619;14.193;5.253;28.498;37.625
5786715.364;158.437;83.148;21.569;283.979;23.469;10.021;40.829;34.980
5786715.372;166.222;91.940;31.814;294.112;35.986;22.799;63.330;46.566
5786715.380;130.571;56.028;-1.565;257.194;2.868;-8.009;27.604;11.623
5786715.388;143.573;69.812;10.990;274.517;13.374;11.399;47.237;30.473
5786715.396;151.210;79.200;17.025;285.991;23.656;31.032;65.453;58.599
5786715.404;119.470;49.993;-14.268;257.455;-10.058;-1.304;27.083;13.448
5786715.412;130.944;62.175;-0.745;271.313;-0.410;13.709;41.910;28.536
5786715.420;152.253;82.888;20.377;292.324;23.581;43.623;65.938;62.361
5786715.428;124.276;55.917;-9.276;266.694;-5.700;20.452;41.947;37.588
5786715.436;106.320;38.259;-25.891;249.371;-23.246;-1.416;21.309;12.703
5786715.444;141.710;73.239;10.282;283.755;16.168;35.726;54.464;57.854
5786715.452;138.991;73.239;5.960;288.934;11.586;36.657;74.841;56.140
5786715.460;114.553;49.137;-16.764;265.129;-13.374;9.201;55.283;20.750
5786715.468;127.219;62.436;-3.166;283.755;3.129;23.879;68.024;45.598
5786715.476;93.430;28.312;-37.104;251.494;-32.783;-12.405;26.152;7.376
5786715.484;122.041;55.656;-6.519;276.491;0.186;10.617;45.151;38.743
5786715.492;116.900;51.446;-10.096;272.840;-2.272;3.614;42.282;22.203
5786715.500;110.269;45.933;-17.993;267.737;-10.654;-1.527;28.200;12.144
5786715.508;135.154;70.594;9.127;294.931;15.870;25.555;50.329;48.913
5786715.516;119.545;56.624;-3.166;277.944;5.141;14.491;34.459;29.989
5786715.542;90.674;32.634;-35.167;252.500;-27.791;-7.637;13.821;-3.576
5786715.550;102.744;44.703;-24.810;266.694;-20.117;6.333;32.559;11.288
5786715.558;129.603;69.104;2.906;290.312;13.672;22.650;54.054;31.441
5786715.566;121.035;58.785;-3.129;277.869;8.531;8.419;38.743;22.240
5786715.574;109.337;47.833;-14.603;268.295;-6.631;-0.149;24.363;17.956
5786715.582;137.687;76.145;15.125;299.960;26.748;28.759;57.407;49.435
5786715.590;105.761;43.064;-17.583;264.719;-8.605;-0.522;29.989;14.454
5786715.598;82.441;21.569;-42.021;244.007;-35.577;-26.152;-1.602;-13.448
5786715.606;134.669;73.016;10.207;295.974;18.217;23.954;45.002;45.598
5786715.614;114.888;56.438;-11.772;279.918;-3.427;2.943;25.667;21.234
5786715.622;111.461;53.123;-14.901;275.336;-10.692;-4.359;22.352;5.625
5786715.630;138.618;79.237;15.646;301.674;23.879;24.959;46.194;47.386
5786715.638;114.813;55.730;-7.451;278.763;1.155;-1.788;21.309;10.617
5786715.646;93.989;34.571;-29.728;258.163;-18.775;-20.452;1.937;-9.798
5786715.654;109.114;50.254;-13.001;274.032;-3.614;-6.445;12.964;16.429
5786715.662;108.853;50.254;-13.746;275.224;-7.488;-6.370;21.458;5.811
5786715.670;121.444;62.734;0.149;289.343;10.468;11.437;51.670;24.810
5786715.678;105.985;45.188;-14.268;267.848;-4.731;-4.508;19.670;15.385
5786715.686;108.108;48.056;-13.560;271.127;-8.643;-5.513;16.503;7.860
5786715.694;132.956;71.265;14.827;294.112;20.564;17.583;41.313;46.194
5786715.702;138.357;76.629;51.633;296.757;24.177;17.136;47.646;36.843
5786715.710;130.832;69.626;98.124;286.289;13.411;4.321;40.755;21.085
5786715.718;98.124;37.625;79.796;255.369;-18.664;-34.608;-7.078;-23.656
5786715.726;111.014;52.564;92.275;271.983;-4.284;-14.305;13.411;6.966
5786715.767;112.876;53.272;96.075;272.132;0.000;-14.193;14.715;-7.451
5786715.775;114.441;55.917;100.061;274.144;4.657;-6.109;29.169;-0.037
5786715.783;102.520;46.082;90.040;263.862;-5.402;-10.729;20.713;-6.706
5786715.791;104.643;45.337;93.542;260.584;2.682;-12.293;1.751;-1.937
5786715.799;106.953;46.603;95.963;261.366;6.147;-0.447;21.607;11.921
5786715.807;96.075;37.178;85.309;251.904;-8.494;-15.162;8.792;-8.494
5786715.815;105.537;46.827;92.685;261.106;1.267;-7.860;18.291;0.112
5786715.823;119.619;61.318;105.314;273.474;18.254;14.231;44.778;25.183
5786715.831;85.644;30.212;69.700;240.169;-17.732;-26.263;-2.347;-18.328
5786715.839;104.792;47.646;89.966;253.171;2.198;-13.262;14.640;-5.960
5786715.847;96.001;37.961;78.976;238.866;-6.594;-22.948;-2.496;-7.004
5786715.855;123.270;65.751;105.724;263.415;24.736;-2.123;12.517;13.821
5786715.863;127.181;70.855;112.280;267.699;29.914;-2.682;18.850;6.445
5786715.871;97.379;41.015;83.186;237.897;2.086;-29.504;-8.829;-25.406
5786715.879;91.568;38.221;77.076;232.048;0.969;-25.183;-3.241;-15.981
5786715.887;107.214;56.438;94.771;247.099;16.876;-11.139;13.560;2.868
5786715.895;119.880;67.614;108.555;260.361;30.249;-10.096;22.165;-6.072
5786715.903;128.821;75.363;119.358;267.401;45.821;0.857;29.020;10.468
5786715.911;106.990;51.036;99.912;241.213;27.306;-21.756;0.708;-7.153
5786715.919;127.405;71.153;120.178;260.957;47.609;-8.605;14.715;15.050
5786715.927;95.442;38.892;84.378;228.100;9.201;-43.549;-21.495;-29.616
5786715.935;94.324;35.800;83.596;224.188;9.313;-40.978;-18.366;-30.547
5786715.943;117.272;59.381;106.506;249.334;34.124;-9.798;11.772;10.058
5786715.951;101.961;44.815;91.791;234.693;22.091;-21.644;10.468;-4.545
5786716.037;96.783;40.494;85.719;230.521;14.082;-27.083;4.172;-21.905
5786716.045;96.709;38.333;87.917;227.541;19.036;-24.587;-9.611;-14.827
5786716.053;113.323;56.401;102.744;246.912;36.769;-0.857;23.507;14.789
5786716.061;78.827;24.140;66.608;214.763;-1.267;-31.665;-9.127;-26.971
5786716.069;109.039;53.756;97.826;244.863;28.200;-4.657;18.254;5.998
5786716.077;86.017;27.455;77.039;214.502;8.047;-27.865;-11.958;-18.142
5786716.085;83.297;25.593;72.792;212.789;9.760;-26.338;-6.109;-6.296
5786716.093;96.001;38.035;83.148;225.976;20.638;-15.721;11.772;-0.894
5786716.101;100.695;45.337;87.544;232.160;19.558;-18.813;4.731;-7.823
5786716.109;102.073;49.025;88.662;235.587;17.062;-17.770;7.190;-11.027
5786716.117;125.207;72.382;110.641;258.796;37.923;11.250;39.637;19.819
5786716.125;100.583;47.311;85.719;234.284;12.852;-14.938;7.749;-10.207
5786716.133;105.165;51.782;90.189;238.083;15.385;-8.233;16.056;-2.235
5786716.141;92.834;40.494;77.002;228.249;-0.708;-17.434;14.380;-15.348
5786716.149;72.531;19.334;56.587;205.673;-15.832;-39.488;-26.226;-33.416
5786716.157;86.725;34.682;71.041;223.480;3.166;-17.583;-2.533;-1.118
5786716.165;94.436;43.139;82.292;230.335;11.958;-2.123;16.019;15.274
5786716.173;82.254;33.118;69.216;221.133;0.186;-10.543;7.302;-3.614
5786716.181;74.431;24.736;60.014;213.049;-6.631;-14.976;4.359;-11.437
5786716.189;73.314;22.314;59.791;207.089;-4.619;-20.899;-13.262;-15.162
5786716.197;104.681;53.085;93.915;235.327;31.963;10.431;20.638;23.395
5786716.205;79.200;28.051;67.800;212.677;4.470;-16.280;1.006;-4.955
5786716.213;45.262;-6.780;35.278;177.734;-29.542;-54.352;-48.429;-49.472
5786716.221;43.735;-9.649;34.645;174.046;-28.834;-56.662;-48.466;-49.770
5786716.217;80.690;27.493;68.769;212.863;7.823;-24.028;-7.786;-14.491
5786716.225;83.111;29.504;70.818;213.571;13.076;-18.142;0.186;2.980
5786716.233;60.610;6.035;49.733;186.525;-7.786;-46.864;-37.029;-32.894
5786716.241;52.042;0.000;42.953;180.826;-16.354;-56.177;-48.503;-48.988
5786716.249;80.392;30.436;71.004;212.826;10.543;-23.656;-7.972;-21.383
5786716.257;104.532;56.401;94.362;237.413;33.453;5.066;18.924;7.153
5786716.265;78.492;30.361;68.918;209.622;12.890;-13.672;-4.396;-4.545
5786716.273;69.253;21.234;58.748;199.564;4.955;-31.218;-23.544;-24.512
5786716.281;81.994;33.751;71.451;211.000;17.025;-27.008;-17.285;-21.122
5786716.289;68.620;21.569;58.264;197.887;-1.043;-46.231;-36.173;-40.717
5786716.297;69.067;22.054;58.375;198.670;-0.373;-52.676;-39.078;-44.219
5786716.305;67.838;20.042;59.009;196.733;3.166;-53.421;-37.216;-45.151
5786716.313;89.742;41.872;81.770;216.253;30.696;-22.165;-5.700;-10.170
5786716.321;72.792;23.618;63.255;195.950;14.119;-27.455;-18.664;-19.632
5786716.329;85.644;38.259;76.853;211.224;29.691;-7.227;-3.539;2.570
5786716.337;53.383;7.153;43.102;179.671;-8.084;-40.159;-32.894;-42.804
5786716.345;59.567;13.933;47.758;185.706;-5.662;-33.490;-13.970;-45.262
5786716.353;61.914;16.317;51.223;187.643;-2.719;-31.516;-14.044;-35.502
5786716.361;57.220;10.021;46.566;178.218;-3.017;-46.007;-48.093;-43.549
5786716.369;80.541;33.937;67.651;202.097;20.340;-26.338;-19.968;-13.672
5786716.377;66.645;21.569;52.378;192.113;3.576;-37.178;-18.701;-29.542
5786716.385;51.185;7.376;35.912;176.989;-12.554;-50.664;-43.139;-53.793
5786716.393;71.898;26.524;57.705;192.560;10.990;-20.750;-9.052;-13.299
5786716.401;55.172;9.686;38.520;175.759;-6.147;-29.616;-21.458;-26.375
5786716.308;80.094;36.284;64.299;202.097;23.134;-5.141;4.768;-2.608
5786716.316;59.716;17.434;43.958;181.831;-0.186;-28.200;-10.021;-22.352
5786716.324;40.606;0.335;26.599;164.881;-19.409;-51.521;-34.273;-36.620
5786716.332;49.956;9.872;36.620;175.722;-11.921;-47.982;-28.051;-48.652
5786716.340;66.087;24.326;50.776;186.898;1.341;-30.883;-19.632;-30.808
5786716.348;63.851;21.569;47.162;184.476;4.135;-31.404;-25.481;-20.340
5786716.356;81.062;41.053;65.714;205.114;26.263;-12.778;-3.092;3.092
5786716.364;41.835;2.198;24.959;163.354;-21.048;-60.350;-54.203;-66.943
5786716.372;69.365;28.685;51.185;186.823;4.992;-37.700;-20.787;-41.351
5786716.380;72.308;31.963;52.005;191.033;5.066;-34.533;-6.407;-38.892
5786716.388;46.454;3.055;28.610;160.933;-19.372;-60.014;-42.915;-65.900
5786716.396;51.931;13.486;33.230;166.856;-13.821;-44.070;-27.828;-39.376
5786716.404;45.784;9.462;25.965;163.130;-15.274;-41.984;-28.685;-34.049
5786716.412;37.104;-1.341;16.391;151.210;-24.624;-52.787;-46.156;-45.411
5786716.420;50.254;10.766;30.063;160.635;-14.082;-42.692;-36.471;-31.441
5786716.428;70.259;33.043;49.956;183.210;1.527;-25.369;-12.405;-11.288
5786716.436;61.132;24.624;39.861;176.132;-7.637;-36.359;-19.968;-32.373
5786716.444;74.394;37.216;54.501;186.116;10.654;-26.859;-22.762;-25.257
5786716.452;45.188;8.866;25.965;156.239;-18.068;-50.776;-40.904;-54.538
5786716.460;55.246;20.228;35.316;168.048;-12.480;-44.033;-24.363;-48.243
5786716.468;58.115;23.097;41.090;169.985;-4.582;-37.067;-10.356;-30.957
5786716.476;64.448;30.249;47.497;179.224;7.376;-31.404;-3.912;-18.775
5786716.484;39.563;5.662;20.377;153.854;-17.881;-58.450;-31.665;-41.425
5786716.492;29.132;-4.992;12.331;140.965;-25.257;-70.892;-56.624;-56.885
5786716.474;57.220;22.389;42.208;166.409;3.465;-36.508;-21.867;-16.131
5786716.482;28.722;-6.855;14.938;132.099;-24.624;-63.889;-58.450;-56.699
5786716.490;45.188;11.586;29.542;148.527;-11.735;-51.148;-42.021;-49.099
5786716.498;62.287;29.542;46.045;164.695;4.321;-26.636;-4.582;-32.410
5786716.506;38.147;2.831;23.656;133.626;-13.523;-43.549;-26.189;-48.168
5786716.514;37.141;1.900;23.171;129.975;-6.780;-38.743;-25.108;-32.224
5786716.522;28.498;-4.731;16.242;121.072;-9.984;-44.815;-25.071;-35.316
5786716.530;23.544;-9.239;13.597;112.616;-8.456;-52.415;-22.650;-40.419
5786716.538;19.856;-11.586;7.600;106.841;-17.099;-62.175;-32.410;-48.354
5786716.546;18.105;-13.933;9.686;100.471;-12.442;-71.228;-44.219;-57.220
5786716.554;26.487;-6.184;19.781;108.331;-3.129;-65.081;-30.324;-51.856
5786716.562;23.842;-9.462;18.030;103.973;-0.261;-66.981;-39.041;-51.744
5786716.570;3.278;-30.473;-2.719;81.547;-18.626;-83.335;-62.548;-70.259
5786716.578;12.778;-19.819;7.004;92.648;-9.537;-70.818;-48.615;-52.862
5786716.586;35.241;1.006;30.398;110.418;12.517;-57.705;-47.535;-38.072
5786716.594;30.994;-5.588;24.252;102.930;2.459;-57.966;-47.274;-42.692
5786716.602;32.559;-4.508;23.060;103.228;-4.768;-50.515;-29.877;-47.795
5786716.610;51.409;14.156;41.686;120.178;18.701;-25.891;-0.894;-20.079
5786716.618;31.516;-4.955;21.383;102.110;1.639;-42.990;-19.670;-35.278
5786716.626;27.455;-8.307;17.695;99.987;0.037;-45.709;-21.234;-34.235
5786716.634;12.107;-24.475;1.602;82.478;-14.417;-63.404;-37.551;-57.220
5786716.642;21.346;-15.944;12.591;90.227;-5.402;-54.426;-27.455;-36.322
5786716.650;7.376;-29.318;-3.092;80.280;-24.661;-78.082;-50.925;-70.892
5786716.658;27.716;-4.210;16.615;99.465;-7.041;-68.285;-46.119;-68.285
5786716.668;47.646;15.050;37.439;118.427;13.225;-49.584;-18.068;-45.784
5786716.676;31.032;-2.868;19.409;103.787;-0.745;-70.743;-45.747;-61.542
5786716.684;30.510;-4.955;20.526;99.391;3.986;-69.700;-50.329;-45.374
5786716.692;46.976;10.915;36.955;114.664;22.054;-45.821;-20.191;-14.529
5786716.700;9.499;-26.450;-0.596;78.268;-16.578;-80.466;-54.762;-68.285
5786716.708;28.238;-6.594;20.415;97.677;2.272;-56.438;-27.679;-49.695
5786716.716;24.550;-7.860;16.093;98.012;-7.078;-52.899;-25.742;-47.274
5786716.724;23.805;-8.270;15.162;98.199;-10.058;-49.993;-27.902;-41.090
5786716.732;34.422;2.757;22.799;110.008;-0.633;-36.061;-9.313;-37.067
5786716.740;43.213;11.362;29.020;121.184;8.456;-27.046;-1.267;-27.940
5786716.748;23.134;-9.611;11.399;98.385;-6.668;-50.329;-27.157;-39.861
5786716.756;1.974;-29.653;-6.445;75.959;-24.997;-90.376;-70.781;-76.108
5786716.764;11.660;-19.111;4.433;90.860;-17.062;-98.757;-69.104;-83.447
5786716.772;26.748;-5.178;20.862;102.669;-3.092;-91.158;-52.527;-74.990
5786716.780;-4.396;-32.559;-12.293;68.583;-37.141;-116.192;-83.335;-105.277
5786716.788;8.792;-19.930;1.080;84.601;-22.724;-85.346;-54.725;-77.002
5786716.796;21.979;-10.468;14.938;95.554;-2.682;-50.403;-13.001;-40.829
5786716.804;5.178;-28.759;-0.671;74.506;-16.317;-48.056;-22.948;-40.382
5786716.812;4.172;-28.014;-3.763;76.666;-15.087;-41.276;-24.959;-33.230
5786716.820;20.303;-10.990;12.368;92.462;2.421;-21.756;-6.557;-2.347
5786716.828;-3.241;-34.459;-9.760;66.832;-23.060;-46.864;-33.565;-35.651
5786716.836;-14.119;-44.629;-20.266;56.028;-35.800;-63.591;-53.793;-52.862
5786716.844;1.788;-28.908;-2.906;71.526;-18.738;-56.922;-46.454;-49.099
5786716.852;25.891;-5.476;20.862;93.654;2.608;-37.067;-15.721;-25.406
5786716.936;6.333;-23.879;-0.484;74.580;-21.048;-54.650;-24.624;-53.868
5786716.944;7.935;-20.899;1.118;78.417;-17.323;-58.115;-31.143;-61.765
5786716.952;-2.384;-31.777;-10.282;66.645;-26.338;-72.569;-46.156;-71.973
5786716.960;11.064;-17.136;3.614;80.317;-10.766;-64.000;-28.573;-55.730
5786716.968;1.714;-26.263;-5.625;70.520;-18.291;-78.119;-42.059;-64.820
5786716.976;-13.337;-42.543;-20.377;52.527;-34.869;-91.717;-65.193;-85.942
5786716.984;5.476;-24.103;-0.410;71.228;-19.521;-67.800;-43.809;-64.373
5786716.992;10.915;-19.968;5.476;76.927;-16.578;-43.213;-24.326;-34.273
5786717.000;2.235;-24.326;-4.694;67.465;-22.016;-40.866;-32.261;-33.155
5786717.008;0.447;-24.959;-7.488;65.863;-20.750;-33.826;-24.326;-21.420
5786717.016;-4.470;-27.940;-13.746;63.777;-29.467;-38.147;-32.783;-25.369
5786717.024;-10.915;-35.055;-18.850;56.662;-33.714;-41.537;-37.700;-26.897
5786717.032;-18.775;-44.852;-26.003;46.492;-37.551;-45.970;-45.486;-36.582
5786717.040;-12.144;-37.961;-17.211;52.117;-31.032;-43.325;-36.061;-37.216
5786717.048;-12.405;-37.812;-17.807;52.601;-33.900;-49.733;-34.869;-44.778
5786717.056;-16.727;-41.164;-21.309;50.515;-37.104;-61.467;-46.939;-58.077
5786717.064;-14.789;-40.010;-15.870;50.291;-33.863;-69.886;-50.589;-72.718
5786717.072;-3.912;-30.100;-4.917;59.903;-22.165;-62.510;-38.184;-57.891
5786717.080;-12.331;-37.365;-14.752;50.589;-25.332;-75.065;-54.874;-79.572
5786717.088;-8.717;-33.714;-13.448;53.011;-25.667;-66.310;-44.890;-68.806
5786717.096;3.539;-22.464;-0.969;64.820;-15.460;-43.735;-29.616;-38.669
5786717.104;-17.062;-38.072;-22.724;47.274;-37.104;-48.317;-41.984;-47.348
5786717.112;-31.218;-49.584;-37.253;30.175;-52.117;-53.756;-56.066;-48.876
5786717.120;-16.466;-34.943;-21.085;43.511;-39.153;-35.539;-38.929;-22.538
5786717.042;-4.433;-23.991;-10.468;55.395;-29.393;-28.089;-23.246;-13.262
5786717.050;-22.501;-43.772;-27.381;33.118;-42.990;-46.603;-39.674;-37.178
5786717.058;-17.844;-37.998;-23.209;37.178;-40.121;-46.231;-42.953;-36.992
5786717.066;4.396;-14.566;-2.272;62.473;-23.209;-27.679;-19.670;-20.936
5786717.074;2.980;-16.727;-1.937;59.642;-22.054;-28.573;-18.142;-27.195
5786717.082;-12.927;-32.298;-18.552;42.692;-35.651;-42.170;-31.963;-47.572
5786717.090;-14.380;-33.416;-20.303;39.116;-33.230;-43.884;-34.869;-56.811
5786717.098;-9.462;-28.946;-13.448;42.394;-27.679;-43.549;-33.565;-53.979
5786717.106;-4.545;-21.979;-9.537;52.638;-27.232;-43.772;-30.100;-54.874
5786717.114;-1.602;-19.297;-7.227;53.234;-23.581;-36.992;-30.622;-37.961
5786717.122;-8.456;-27.642;-12.405;44.219;-25.630;-30.920;-34.012;-17.770
5786717.130;-10.319;-27.791;-12.107;43.325;-27.418;-25.779;-28.387;-23.916
5786717.138;0.149;-10.282;-2.645;58.971;-20.638;-11.139;-6.482;-9.723
5786717.146;-0.559;-11.995;-2.831;56.550;-21.793;-9.611;-5.849;1.192
5786717.154;-15.758;-28.312;-17.770;40.084;-32.373;-25.928;-25.891;-18.775
5786717.162;-2.906;-15.311;-7.749;52.378;-20.266;-17.546;-10.394;-14.193
5786717.170;-12.740;-25.965;-15.683;42.319;-32.149;-31.777;-23.358;-35.129
5786717.178;-7.339;-23.954;-7.823;40.010;-26.487;-37.625;-29.169;-42.878
5786717.186;1.639;-14.454;2.719;48.168;-15.497;-38.482;-26.822;-56.848
5786717.194;-5.439;-19.483;-2.794;42.878;-21.234;-47.684;-34.124;-72.978
5786717.202;10.431;-4.508;15.497;55.879;-1.676;-27.381;-14.454;-50.887
5786717.210;12.964;-2.161;17.770;56.215;-4.135;-17.025;-6.631;-39.488
5786717.218;-12.107;-27.269;-6.221;30.361;-24.848;-32.112;-29.281;-39.041
5786717.226;-7.190;-21.011;-2.570;36.061;-18.291;-22.352;-22.985;-21.234
5786717.234;-8.233;-20.899;-1.118;34.049;-18.440;-18.924;-18.626;-14.491
5786717.242;-7.004;-18.850;1.118;34.533;-19.930;-17.323;-17.397;-9.649
5786717.250;-13.486;-24.550;-7.674;29.691;-29.020;-22.203;-24.661;-12.629
5786717.258;-17.844;-28.685;-10.282;23.842;-31.404;-26.412;-25.332;-21.756
5786717.268;-4.321;-12.815;5.178;39.488;-14.603;-13.858;-15.721;-11.250
5786717.276;-1.006;-6.780;9.127;46.045;-9.462;-16.689;-12.070;-17.323
5786717.284;-21.830;-28.647;-14.193;19.297;-37.886;-49.695;-39.488;-63.628
5786717.292;-12.591;-19.707;-2.347;23.060;-22.054;-40.382;-28.536;-57.481
5786717.300;26.338;20.638;41.127;51.074;22.575;-31.739;-17.993;-44.256
5786717.308;60.350;53.793;80.168;69.030;58.077;-24.922;-15.311;-35.241
5786717.316;87.060;79.758;112.914;78.008;88.997;-26.487;-18.552;-45.262
5786717.324;114.255;110.082;142.120;96.746;116.900;-20.079;-12.964;-38.743
5786717.332;151.768;148.602;180.341;126.585;153.966;2.831;7.600;-4.359
5786717.340;161.529;157.170;193.901;129.379;168.048;-4.731;-6.370;-14.007
5786717.348;169.761;164.956;203.438;133.961;172.779;-8.270;-13.672;-16.578
5786717.356;178.516;178.032;212.900;138.059;181.943;0.745;-5.327;-2.757
5786717.364;177.249;178.479;209.361;138.395;179.857;3.688;4.284;2.198
5786717.372;171.475;166.968;201.613;127.889;176.653;1.937;-2.608;-2.459
5786717.380;152.551;144.690;182.316;109.151;162.497;-3.874;-9.649;-9.537
5786717.388;146.888;135.824;173.077;104.383;159.033;4.470;3.465;5.625
5786717.396;117.011;102.967;142.008;75.959;129.305;-11.735;-11.325;-16.280
5786717.404;88.327;76.853;109.561;55.991;96.783;-20.638;-15.683;-32.671
5786717.412;62.548;51.484;80.876;34.049;70.222;-26.561;-26.748;-39.265
5786717.420;56.438;45.188;72.867;30.845;63.665;-17.621;-23.022;-23.320
5786717.428;69.961;57.444;84.490;45.113;79.237;12.778;11.027;20.675
5786717.436;53.719;41.947;70.147;29.653;66.310;4.917;1.080;5.737
5786717.444;31.628;19.036;49.323;7.339;45.374;-10.245;-21.942;-10.431
5786717.452;-0.894;-15.423;16.913;-26.450;13.933;-37.067;-51.334;-42.170
5786717.448;21.495;6.929;39.227;0.410;41.239;-7.302;-16.652;-12.442
5786717.456;34.422;20.303;52.415;15.050;58.226;14.156;8.568;18.924
5786717.464;30.212;20.489;48.205;10.096;53.979;7.637;12.629;0.186
5786717.472;14.044;3.800;30.026;-6.780;30.771;-14.231;-14.268;-39.041
5786717.480;6.743;-5.737;22.799;-15.236;24.214;-21.532;-26.971;-44.964
5786717.488;25.555;12.852;41.090;5.849;45.560;5.886;9.425;1.937
5786717.496;-4.172;-17.360;8.307;-21.718;16.503;-17.658;-14.342;-19.148
5786717.504;1.453;-13.597;16.205;-19.632;24.065;-10.282;-18.701;-2.310
5786717.512;4.284;-10.841;19.222;-15.944;24.289;-9.872;-16.093;0.186
5786717.520;0.410;-14.044;14.491;-16.242;17.062;-15.125;-16.987;-11.474
5786717.528;-10.505;-24.140;2.272;-23.507;4.321;-22.724;-21.942;-22.203
5786717.536;-11.437;-25.220;0.782;-24.661;2.943;-24.699;-27.418;-24.177
5786717.544;12.890;-1.378;25.444;-1.527;29.765;0.149;-4.359;-0.261
5786717.552;10.803;-3.800;24.214;-3.278;31.069;8.419;4.880;8.531
5786717.560;-9.909;-20.750;2.012;-17.472;7.376;0.969;-3.539;-6.966
5786717.568;-20.675;-31.851;-6.109;-30.845;2.012;-0.745;-10.841;-12.740
5786717.576;-25.667;-38.147;-7.860;-39.153;-1.751;-0.671;-13.374;-12.629
5786717.584;-18.813;-31.143;-1.527;-31.516;3.278;9.947;-1.639;4.917
5786717.592;-32.298;-43.511;-17.397;-42.878;-13.113;-9.574;-16.429;-19.521
5786717.600;-34.459;-42.394;-21.607;-41.574;-19.372;-15.460;-21.979;-24.587
5786717.608;-19.073;-26.189;-6.296;-24.736;-1.043;-4.023;-12.033;-4.470
5786717.616;-29.504;-38.557;-14.938;-38.631;-1.378;-19.558;-26.040;-27.828
5786717.624;-22.687;-30.287;-7.264;-29.281;3.688;-20.452;-21.644;-35.390
5786717.632;-10.990;-20.489;3.129;-22.687;10.468;-12.256;-13.933;-23.060
5786717.673;-24.177;-30.287;-11.586;-37.178;-5.774;-22.762;-29.095;-32.671
5786717.681;-33.751;-40.419;-19.930;-47.125;-18.291;-25.071;-30.249;-40.941
5786717.689;-7.153;-14.976;7.041;-23.171;9.909;7.227;1.602;-2.868
5786717.697;-18.589;-23.209;-6.519;-29.057;1.229;-3.017;-7.711;-6.519
5786717.705;-34.422;-37.663;-23.060;-42.804;-14.752;-26.710;-36.210;-35.763
5786717.713;-27.083;-30.696;-16.280;-35.241;-10.021;-24.885;-32.932;-34.198
5786717.721;-26.114;-30.398;-13.709;-36.769;-6.817;-18.440;-30.212;-15.162
5786717.729;-29.504;-33.900;-15.832;-40.233;-4.433;-15.460;-24.326;-8.680
5786717.737;-25.146;-30.845;-9.798;-36.806;2.719;-14.044;-23.507;-15.348
5786717.745;-22.650;-28.759;-7.935;-35.241;0.633;-16.205;-23.134;-25.555
5786717.753;-12.293;-11.846;0.782;-20.824;3.986;-11.884;-12.666;-29.616
5786717.761;-18.626;-18.775;-4.843;-26.450;-2.086;-16.950;-19.744;-27.940
5786717.769;-25.705;-25.816;-11.623;-31.553;-8.196;-30.249;-30.696;-38.221
5786717.777;-21.309;-23.022;-5.625;-30.734;1.676;-32.745;-38.147;-34.086
5786717.785;-5.811;-8.047;7.600;-16.429;17.770;-15.944;-25.667;-10.431
5786717.793;5.662;5.998;18.030;-2.794;24.177;-2.235;-8.941;4.284
5786717.801;-28.312;-27.753;-14.603;-38.035;-11.735;-31.888;-37.886;-32.820
5786717.809;-28.312;-26.822;-14.566;-36.769;-13.262;-22.613;-29.653;-29.616
5786717.817;-13.709;-10.319;-0.931;-20.154;0.522;-0.708;-3.651;-6.743
5786717.825;-18.552;-15.572;-7.004;-27.828;-4.023;-9.909;-12.964;-17.360
5786717.833;-16.131;-15.013;-2.049;-28.126;2.272;-12.368;-16.056;-19.632
5786717.841;-26.785;-24.997;-12.591;-37.029;-9.909;-32.634;-34.012;-35.986
5786717.849;-32.894;-30.473;-19.707;-43.660;-18.328;-40.866;-41.313;-45.039
5786717.857;-27.083;-27.046;-12.368;-40.419;-12.517;-33.826;-37.067;-39.525
5786717.853;-4.619;-3.837;10.096;-21.160;9.052;-7.078;-12.703;-11.623
5786717.861;-22.985;-19.372;-10.356;-39.414;-11.064;-19.632;-21.607;-37.476
5786717.869;-16.838;-14.417;-3.278;-34.012;-6.594;-14.454;-18.254;-31.665
5786717.877;-9.798;-8.307;5.141;-28.014;3.278;-8.754;-20.154;-12.554
5786717.885;-20.042;-18.291;-5.662;-37.476;-5.476;-16.168;-28.387;-19.260
5786717.893;-35.241;-32.783;-22.575;-52.787;-20.713;-21.979;-36.024;-26.077
5786717.901;-46.305;-43.288;-33.379;-65.379;-31.479;-14.566;-26.599;-21.197
5786717.909;-18.999;-17.546;-0.782;-43.586;7.227;-2.906;-13.374;-11.772
5786717.917;10.729;8.866;31.702;-21.905;43.362;20.377;9.947;25.034
5786717.925;-24.550;-30.473;-2.086;-64.559;15.087;-8.382;-22.128;-9.760
5786717.933;-41.723;-46.641;-17.136;-89.183;10.133;-17.583;-36.918;-29.095
5786717.941;-37.923;-43.400;-10.096;-93.356;22.352;-10.133;-31.404;-17.099
5786717.949;-30.436;-39.227;-0.037;-92.275;35.614;-8.903;-27.306;-6.668
5786717.957;-30.696;-41.239;2.980;-95.405;43.251;-10.915;-25.630;-8.121
5786717.965;-45.858;-56.699;-9.947;-111.908;32.522;-19.446;-32.820;-25.816
5786717.973;-37.849;-51.409;-2.496;-104.494;40.419;-13.299;-27.120;-20.564
5786717.981;-29.318;-42.729;7.264;-95.814;47.907;-7.786;-22.538;-9.798
5786717.989;-31.330;-40.866;4.731;-98.757;46.678;-9.015;-23.618;-8.345
5786717.997;-41.835;-52.899;-5.662;-111.535;37.700;-17.285;-33.416;-24.773
5786718.005;-38.259;-49.062;-2.012;-106.916;39.972;-7.302;-24.252;-18.775
5786718.013;-43.325;-54.091;-7.972;-111.982;32.075;-7.190;-23.879;-23.358
5786718.021;-38.072;-47.833;-1.490;-105.761;41.611;11.399;-6.221;-3.092
5786718.029;-59.605;-69.141;-20.489;-128.187;24.252;-0.931;-23.246;-7.600
5786718.037;-62.548;-71.973;-23.954;-131.354;20.675;-3.092;-28.238;-11.884
5786718.045;-63.032;-72.755;-24.773;-132.881;17.807;-12.964;-34.869;-17.285
5786718.053;-65.640;-76.145;-27.865;-137.016;11.586;-33.267;-48.727;-38.706
5786718.061;-42.804;-52.787;-4.582;-113.063;33.975;-23.171;-32.447;-27.008
5786718.069;-33.155;-43.213;5.215;-102.632;44.890;-18.701;-23.544;-12.368
5786718.032;-66.683;-76.965;-29.020;-134.967;8.792;-50.180;-54.836;-51.521
5786718.040;-72.382;-77.784;-34.682;-141.300;2.570;-48.541;-55.209;-57.928
5786718.048;-64.000;-68.285;-28.014;-132.285;7.823;-33.677;-41.537;-38.482
5786718.056;-54.538;-58.226;-17.807;-121.407;13.001;-20.787;-30.771;-26.710
5786718.064;-73.761;-78.492;-33.565;-142.194;-2.943;-30.398;-42.543;-40.308
5786718.072;-97.193;-103.451;-54.948;-167.340;-20.601;-31.330;-45.188;-50.291
5786718.080;-74.655;-75.549;-38.259;-135.601;-6.892;-11.288;-26.226;-30.398
5786718.088;-58.524;-57.369;-25.034;-115.447;0.410;-2.049;-24.587;-19.521
5786718.096;-58.264;-53.234;-28.349;-108.071;-10.878;1.043;-19.483;-21.681
5786718.104;-46.566;-39.823;-19.930;-90.152;-9.537;11.623;-7.749;-7.525
5786718.112;-35.837;-27.530;-11.697;-76.555;-5.811;18.589;0.820;-0.522
5786718.120;-32.745;-21.793;-9.649;-71.637;-5.998;17.323;1.974;-6.109
5786718.128;-40.270;-30.845;-15.721;-81.360;-11.362;1.825;-11.362;-12.293
5786718.136;-34.533;-23.022;-10.617;-79.870;-1.751;4.321;-6.072;-7.004
5786718.144;-31.888;-16.950;-7.786;-81.025;2.198;7.451;-0.782;-8.307
5786718.152;-43.698;-31.255;-20.824;-93.803;-5.402;4.098;-7.525;-6.892
5786718.160;-39.041;-29.244;-14.044;-93.579;5.513;12.070;-6.221;4.135
5786718.168;-37.365;-27.530;-9.090;-93.952;8.829;17.732;-2.757;14.640
5786718.176;-37.663;-27.157;-9.499;-95.591;8.829;20.973;2.161;11.586
5786718.184;-31.702;-20.303;-6.743;-87.544;14.789;29.914;9.947;10.207
5786718.192;-46.007;-33.863;-21.793;-101.924;0.410;28.983;7.264;1.080
5786718.200;-48.988;-36.024;-22.314;-104.718;-0.857;35.129;12.517;7.078
5786718.208;-46.529;-33.677;-20.266;-102.110;-0.969;35.092;9.909;5.700
5786718.216;-43.549;-30.994;-16.242;-100.210;2.608;37.700;13.262;15.870
5786718.182;-48.988;-37.253;-17.919;-107.773;-1.192;24.028;5.588;6.407
5786718.190;-45.039;-34.198;-15.087;-105.649;6.855;20.340;4.247;9.984
5786718.198;-57.966;-49.733;-25.593;-121.444;-3.241;2.459;-15.013;-3.986
5786718.206;-64.187;-50.999;-31.516;-127.964;-10.915;-8.382;-25.295;-13.784
5786718.214;-55.768;-40.978;-21.830;-119.619;-3.763;-1.155;-16.764;-1.378
5786718.222;-49.993;-34.198;-15.087;-112.765;-2.235;-0.708;-14.901;-9.127
5786718.230;-55.917;-42.804;-22.165;-119.992;-10.952;-8.009;-21.942;-23.618
5786718.238;-53.085;-41.239;-20.973;-115.298;-7.302;3.055;-12.107;-6.147
5786718.246;-54.315;-40.308;-22.985;-116.266;-8.941;8.643;-7.190;1.490
5786718.254;-56.215;-42.841;-25.183;-119.545;-10.692;2.198;-10.841;-16.801
5786718.262;-49.807;-35.390;-19.297;-110.865;-8.121;7.264;-4.172;-14.566
5786718.270;-47.274;-27.940;-13.709;-109.598;-7.600;14.752;2.794;-6.594
5786718.278;-43.549;-27.306;-9.239;-104.569;1.676;17.956;7.227;-4.433
5786718.286;-62.287;-47.982;-27.791;-121.333;-14.789;4.061;-7.711;-14.268
5786718.294;-62.957;-47.721;-26.524;-122.450;-11.437;6.445;-10.505;-12.740
5786718.302;-64.671;-48.950;-24.624;-125.952;-14.342;5.104;-13.746;-11.027
5786718.310;-57.109;-41.425;-15.609;-118.203;-9.015;10.319;-7.264;-5.253
5786718.318;-51.446;-34.794;-12.554;-107.400;-6.258;11.697;-6.519;-3.688
5786718.326;-66.087;-50.105;-27.455;-123.866;-23.469;0.037;-22.873;-12.778
5786718.334;-59.195;-43.958;-20.377;-119.135;-13.858;9.686;-9.872;3.800
5786718.342;-49.956;-36.284;-11.027;-109.635;-4.396;25.705;9.798;20.191
5786718.350;-51.893;-39.302;-12.219;-111.759;-13.337;26.040;12.442;6.221
5786718.358;-60.163;-41.202;-23.544;-118.613;-22.203;15.981;1.304;-6.296
5786718.366;-63.255;-45.411;-24.103;-122.897;-24.848;4.619;-14.119;-19.670
5786718.317;-48.541;-30.287;-10.133;-109.784;-9.649;10.356;-8.456;-13.635
5786718.325;-48.392;-31.181;-11.958;-108.294;-6.184;9.313;-10.617;-6.407
5786718.333;-59.828;-45.449;-22.836;-118.911;-18.366;1.788;-17.174;-11.176
5786718.341;-54.389;-35.800;-16.131;-114.553;-7.488;15.199;-4.023;4.098
5786718.349;-70.594;-57.034;-32.671;-131.950;-20.564;6.668;-16.652;-2.943
5786718.357;-65.714;-50.254;-23.805;-129.528;-18.477;19.111;-5.104;5.178
5786718.365;-55.991;-36.880;-15.758;-116.676;-8.605;30.659;7.264;15.199
5786718.373;-54.874;-36.396;-16.317;-112.839;-6.929;32.075;10.170;22.203
5786718.381;-55.060;-35.800;-15.162;-114.180;-11.101;23.730;4.917;5.439
5786718.389;-57.183;-39.116;-15.609;-120.401;-11.697;11.660;-8.196;-9.462
5786718.397;-51.334;-34.757;-9.574;-117.905;-2.086;15.385;-1.527;-0.596
5786718.405;-50.254;-32.708;-9.909;-113.882;-3.092;17.434;0.447;10.990
5786718.413;-52.638;-35.614;-11.623;-114.813;-11.735;12.591;-2.868;-3.651
5786718.421;-64.895;-46.380;-26.748;-126.734;-28.610;-0.149;-16.987;-23.916
5786718.429;-57.630;-38.333;-20.452;-120.848;-21.122;5.402;-14.305;-10.766
5786718.437;-48.466;-30.622;-8.419;-112.727;-7.004;19.558;-1.714;7.041
5786718.445;-58.636;-41.239;-17.062;-123.866;-18.291;11.697;-10.617;-9.574
5786718.453;-48.913;-30.249;-6.258;-120.774;-11.101;17.993;-6.519;-3.688
5786718.461;-43.288;-23.767;-1.714;-113.919;-4.843;25.965;2.868;8.196
5786718.469;-39.898;-19.334;-2.980;-107.586;-1.639;29.691;8.270;14.044
5786718.477;-39.525;-18.589;-3.576;-108.965;5.029;33.453;11.660;25.071
5786718.485;-45.821;-24.028;-6.482;-114.068;-0.484;24.587;6.072;12.852
5786718.493;-60.536;-40.308;-18.999;-124.238;-19.111;4.470;-14.119;-8.494
5786718.501;-55.134;-33.826;-12.517;-119.917;-18.664;4.657;-13.374;-12.964
5786718.483;-46.678;-25.034;-5.886;-117.756;-14.752;9.984;-11.213;-4.768
5786718.491;-35.577;-15.236;1.602;-109.561;4.359;27.791;2.421;19.260
5786718.499;-51.744;-30.175;-13.039;-130.162;-6.817;18.924;-8.419;5.700
5786718.507;-53.719;-36.471;-11.586;-132.360;-10.394;23.544;-6.072;7.376
5786718.515;-53.905;-35.055;-9.984;-130.944;-14.119;25.183;-1.900;9.537
5786718.523;-39.525;-20.079;0.857;-120.886;-1.751;30.361;8.158;16.913
5786718.531;-41.723;-15.087;-3.390;-115.633;-8.196;21.495;4.880;5.849
5786718.539;-49.882;-24.512;-10.915;-118.725;-16.615;15.274;-3.166;-4.768
5786718.547;-54.762;-30.324;-13.635;-125.654;-22.426;17.174;-6.706;-1.788
5786718.555;-51.111;-24.922;-7.451;-122.748;-10.990;29.542;4.582;18.887
5786718.563;-60.461;-32.410;-21.122;-130.348;-19.707;25.183;2.384;14.566
5786718.571;-68.657;-40.457;-27.791;-142.604;-32.932;11.511;-8.531;-3.614
5786718.579;-51.446;-25.593;-9.201;-126.734;-15.050;13.784;-4.061;-0.224
5786718.587;-39.674;-11.250;4.321;-118.725;-6.445;10.654;-5.737;3.837
5786718.595;-61.728;-32.932;-20.564;-137.351;-29.914;-17.360;-31.888;-22.687
5786718.603;-51.223;-23.879;-10.319;-125.542;-19.595;-5.625;-19.856;-8.903
5786718.611;-43.809;-15.683;-5.402;-120.290;-13.225;11.213;-4.955;8.605
5786718.619;-51.334;-21.644;-14.715;-128.634;-19.744;11.362;-4.098;5.402
5786718.627;-55.470;-28.536;-15.907;-140.071;-23.209;11.027;-5.513;7.190
5786718.635;-72.122;-44.927;-31.330;-161.268;-35.353;-4.023;-25.071;-10.096
5786718.643;-61.877;-32.112;-24.624;-143.982;-27.753;1.006;-19.819;0.559
5786718.651;-45.113;-11.586;-11.325;-120.029;-18.179;-3.316;-21.793;-9.388
5786718.659;-38.929;0.037;-6.370;-105.873;-28.051;-3.614;-21.458;-12.890
5786718.667;-21.085;20.303;5.886;-82.143;-25.742;5.178;-7.749;-6.109
5786718.648;-10.133;32.224;15.683;-71.526;-28.946;8.158;-4.806;-16.242
5786718.656;-1.378;42.282;23.432;-58.487;-32.298;12.256;-7.078;-13.560
5786718.664;8.382;51.819;29.355;-42.394;-29.840;23.320;5.513;1.006
5786718.672;6.519;53.234;26.003;-37.588;-38.408;19.968;2.906;-4.694
5786718.680;16.168;69.030;35.465;-25.369;-36.433;27.455;9.872;2.496
5786718.688;26.226;82.254;42.953;-11.995;-30.734;42.655;28.946;22.016
5786718.696;23.320;79.349;35.763;-6.855;-34.831;45.449;36.508;21.569
5786718.704;26.226;83.335;41.202;-2.459;-34.347;48.690;44.443;19.334
5786718.712;17.807;73.388;33.602;-12.629;-44.107;46.715;42.096;11.660
5786718.720;8.531;60.573;23.171;-24.959;-49.509;53.719;42.766;17.658
5786718.728;11.250;63.516;28.461;-27.120;-41.388;69.812;50.925;38.818
5786718.736;7.227;63.702;24.699;-29.914;-52.750;65.863;43.809;32.410
5786718.744;-5.364;47.833;11.846;-41.910;-65.640;55.023;29.393;22.501
5786718.752;0.373;50.776;21.122;-37.700;-50.440;62.026;36.247;33.565
5786718.760;9.052;58.003;30.100;-28.089;-39.190;68.322;47.274;42.655
5786718.768;1.043;53.570;17.360;-34.571;-49.211;58.822;45.672;29.020
5786718.776;-0.112;54.054;17.211;-34.794;-48.466;59.307;52.042;26.673
5786718.784;-5.290;49.248;11.735;-39.302;-51.782;56.550;50.478;29.355
5786718.792;-5.402;48.615;13.709;-43.176;-52.527;52.266;49.025;28.349
5786718.800;-8.270;47.497;12.890;-48.392;-55.805;38.929;39.004;9.611
5786718.808;-1.341;53.085;19.707;-42.692;-48.876;41.425;37.998;10.766
5786718.816;11.995;62.436;32.410;-30.883;-35.837;62.808;59.009;39.414
5786718.824;1.453;52.378;24.959;-42.468;-37.551;62.622;55.730;42.170
5786718.832;-14.007;36.694;4.955;-58.822;-54.277;45.598;33.565;16.801
5786718.874;-19.073;32.187;-1.565;-63.069;-63.069;40.494;27.716;10.356
5786718.882;-10.543;44.629;10.915;-56.811;-50.142;49.286;38.370;23.693
5786718.890;-15.311;38.333;8.270;-64.969;-52.415;46.082;37.625;19.409
5786718.898;-27.567;28.200;-7.488;-81.621;-69.439;36.471;24.848;8.941
5786718.906;-26.561;28.871;-6.743;-80.951;-71.004;40.680;29.989;11.884
5786718.914;-20.266;34.682;-1.118;-81.621;-64.112;45.970;31.292;16.689
5786718.922;-20.266;30.622;-2.831;-85.719;-58.152;54.240;38.482;32.187
5786718.930;-31.739;16.987;-13.299;-101.030;-59.865;46.939;31.479;22.948
5786718.938;-38.743;13.337;-17.323;-112.019;-65.528;39.786;27.269;14.715
5786718.946;-38.035;16.801;-18.328;-112.802;-65.379;37.141;25.816;14.603
5786718.954;-21.197;32.336;0.261;-93.319;-41.425;51.074;39.190;43.288
5786718.962;-33.267;20.005;-10.729;-105.910;-51.148;37.886;29.132;30.808
5786718.970;-38.780;15.795;-15.460;-117.421;-53.681;26.487;16.317;7.600
5786718.978;-34.831;20.377;-13.113;-116.266;-46.454;30.063;20.526;10.431
5786718.986;-31.032;25.854;-10.133;-109.673;-48.131;31.330;22.575;13.076
5786718.994;-30.324;24.512;-10.617;-108.220;-44.070;34.608;28.908;29.169
5786719.002;-44.033;11.399;-23.507;-124.499;-56.773;21.793;15.236;8.456
5786719.010;-34.161;21.495;-13.821;-114.888;-50.887;23.842;16.950;2.682
5786719.018;-33.826;18.813;-11.548;-113.845;-46.752;29.169;23.693;12.256
5786719.026;-48.093;4.321;-23.916;-128.783;-55.395;20.936;13.113;8.829
5786719.034;-51.297;5.439;-26.375;-132.062;-60.089;12.405;5.066;-6.557
5786719.042;-43.102;14.864;-23.581;-118.427;-53.607;21.756;17.062;8.680
5786719.050;-50.031;8.531;-29.095;-128.970;-60.759;17.285;8.643;6.929
5786719.058;-52.713;-0.186;-25.257;-130.460;-55.917;19.073;6.929;6.035
5786719.098;-47.013;7.637;-18.775;-122.897;-48.652;27.940;17.434;12.182
5786719.106;-49.509;9.872;-23.022;-130.199;-55.023;25.257;14.007;10.580
5786719.114;-48.503;10.617;-25.220;-131.056;-57.407;19.632;7.041;8.158
5786719.122;-49.956;6.109;-26.748;-134.930;-60.052;16.242;5.178;-6.817
5786719.130;-49.062;7.153;-23.395;-130.571;-55.693;24.624;15.572;1.565
5786719.138;-42.096;16.540;-16.503;-119.433;-49.882;24.810;16.429;8.456
5786719.146;-37.737;21.160;-14.566;-111.572;-47.833;36.508;29.132;22.165
5786719.154;-42.059;19.595;-16.764;-114.143;-58.375;26.226;16.727;7.264
5786719.162;-41.090;20.303;-20.452;-114.590;-60.908;18.999;9.947;-0.522
5786719.170;-30.473;31.367;-10.617;-107.177;-46.752;23.954;17.583;3.576
5786719.178;-28.573;30.287;-6.519;-104.122;-37.514;26.710;24.550;10.841
5786719.186;-36.508;18.291;-15.944;-112.131;-45.337;22.799;16.168;4.694
5786719.194;-40.606;16.727;-20.415;-115.931;-54.948;23.507;13.299;9.574
5786719.202;-52.080;7.376;-28.461;-127.368;-69.439;13.784;5.402;-3.129
5786719.210;-46.566;10.468;-21.011;-123.121;-61.318;21.458;12.070;5.849
5786719.218;-47.982;8.382;-29.430;-124.909;-61.132;20.042;5.662;5.551
5786719.226;-49.286;10.133;-29.765;-125.729;-67.838;16.764;-1.192;1.229
5786719.234;-49.882;10.021;-26.636;-126.958;-64.485;15.683;-1.118;3.353
5786719.242;-42.282;13.448;-18.291;-122.152;-52.378;20.005;3.092;15.311
5786719.250;-48.727;7.451;-24.401;-125.542;-62.250;12.890;5.551;3.166
5786719.258;-46.790;12.219;-22.165;-125.542;-61.430;19.968;15.944;4.582
5786719.266;-50.887;7.674;-28.014;-130.571;-62.846;24.401;19.670;11.139
5786719.274;-49.658;10.543;-30.324;-124.611;-61.132;28.834;29.653;2.496
5786719.282;-51.558;11.101;-31.404;-124.276;-67.800;26.040;25.406;1.416
5786719.263;-48.280;11.176;-27.977;-123.903;-61.914;33.155;26.971;17.285
5786719.271;-59.903;-4.284;-37.588;-139.996;-71.675;21.867;12.852;6.035
5786719.279;-53.085;10.207;-29.877;-133.440;-68.843;25.667;19.968;6.743
5786719.287;-48.727;13.933;-28.946;-126.809;-60.946;34.384;29.989;23.618
5786719.295;-57.891;4.433;-40.792;-130.534;-69.439;22.054;14.193;7.898
5786719.303;-53.309;7.115;-32.634;-131.167;-67.353;22.464;13.933;1.378
5786719.311;-41.425;15.460;-20.079;-121.668;-53.421;36.880;26.971;20.340
5786719.319;-43.102;13.933;-22.203;-123.791;-55.432;38.855;29.281;19.334
5786719.327;-48.466;6.221;-25.779;-135.265;-55.172;29.206;21.830;5.290
5786719.335;-53.719;-0.373;-30.436;-143.684;-59.232;24.587;16.205;0.335
5786719.343;-51.744;3.912;-27.977;-141.971;-57.556;26.822;15.348;5.513
5786719.351;-56.624;-0.149;-35.204;-145.845;-65.155;16.317;1.639;0.969
5786719.359;-50.366;5.513;-27.381;-133.701;-60.573;31.665;15.795;27.306
5786719.367;-63.553;-7.339;-41.537;-144.951;-67.502;24.103;7.972;8.196
5786719.375;-61.579;-6.557;-37.625;-147.782;-64.671;26.971;11.511;7.041
5786719.383;-52.750;-0.037;-29.542;-144.355;-60.871;37.439;24.736;19.334
5786719.391;-52.154;2.496;-36.098;-138.320;-62.510;40.494;33.565;16.838
5786719.399;-56.401;-1.527;-34.161;-145.473;-59.530;11.176;5.290;-14.864
5786719.407;-47.274;6.706;-20.675;-143.647;-50.142;8.792;1.974;-15.534
5786719.415;-33.677;18.217;-5.849;-134.371;-31.330;21.271;13.560;8.829
5786719.423;-44.890;4.806;-17.136;-149.086;-42.990;3.502;-5.737;-5.215
5786719.431;-46.082;2.198;-16.987;-154.786;-49.919;-0.820;-8.196;-23.805
5786719.439;-36.322;13.523;-7.525;-144.541;-32.671;17.956;7.041;-1.155
5786719.447;-41.425;9.388;-11.325;-144.280;-32.559;26.636;16.131;11.697
5786719.655;-56.848;-5.737;-27.344;-162.423;-49.956;12.964;-2.310;0.447
5786719.663;-58.226;-7.637;-31.628;-161.044;-54.389;10.841;-5.327;-3.465
5786719.671;-55.507;-4.508;-27.120;-156.201;-54.911;11.101;-0.484;-8.792
5786719.679;-47.050;5.141;-16.652;-150.055;-44.256;19.670;11.362;-2.906
5786719.687;-45.076;6.296;-14.417;-151.061;-43.623;23.320;12.964;-0.969
5786719.695;-42.319;9.872;-12.815;-151.619;-45.076;20.824;8.121;-0.708
5786719.703;-46.715;3.241;-20.862;-154.488;-52.415;10.096;-1.043;-15.870
5786719.711;-38.110;10.431;-12.331;-143.200;-41.649;17.844;9.611;-1.676
5786719.719;-40.643;9.872;-12.666;-142.418;-43.213;18.217;14.231;4.582
5786719.727;-65.379;-14.566;-35.688;-167.750;-65.975;-9.611;-16.801;-28.200
5786719.735;-63.255;-7.898;-33.714;-169.352;-60.834;-9.723;-16.503;-26.897
5786719.743;-51.633;2.086;-16.168;-165.626;-47.311;-0.186;-6.966;-10.878
5786719.751;-52.936;-1.751;-24.438;-161.789;-49.844;-5.849;-13.523;-19.409
5786719.759;-55.023;-2.645;-29.504;-158.958;-56.177;-10.729;-22.762;-27.083
5786719.767;-52.191;1.751;-24.401;-154.376;-53.681;-6.445;-18.440;-24.289
5786719.775;-44.741;14.007;-16.429;-144.057;-44.629;3.465;-5.290;-13.709
5786719.783;-42.841;16.615;-14.491;-138.506;-39.488;0.671;-9.537;-17.621
5786719.791;-23.395;39.637;3.204;-117.198;-30.622;10.170;-0.261;-14.380
5786719.799;1.639;68.955;27.195;-92.871;-16.205;33.788;25.220;11.586
5786719.807;32.671;99.763;64.299;-70.073;23.507;24.438;13.933;8.382
5786719.815;56.066;124.387;93.095;-59.083;50.031;2.012;-8.792;-18.068
5786719.823;87.470;152.290;129.528;-46.752;80.839;-3.949;-17.472;-20.489
5786719.831;119.284;181.831;167.787;-27.679;120.848;3.166;-13.150;-1.937
5786719.839;134.520;197.813;186.302;-24.363;144.653;-0.596;-13.486;-9.350
5786719.893;148.006;211.000;206.940;-21.718;161.156;-4.433;-16.429;-16.093
5786719.901;150.241;210.702;213.198;-32.336;168.197;-16.950;-30.771;-31.330
5786719.909;159.815;218.786;220.761;-28.946;189.841;-14.678;-30.175;-32.783
5786719.917;160.635;212.975;223.741;-35.167;195.839;-6.072;-20.973;-25.854
5786719.925;157.543;207.424;226.386;-42.357;199.750;-2.682;-17.174;-18.366
5786719.933;145.435;198.670;215.881;-54.538;189.506;-14.938;-31.181;-21.160
5786719.941;132.695;184.886;201.389;-67.279;178.888;-27.083;-41.686;-35.949
5786719.949;111.498;160.448;182.129;-86.278;162.832;-29.914;-44.405;-36.061
5786719.957;99.912;149.012;168.718;-94.399;155.680;-16.652;-34.198;-15.907
5786719.965;85.719;131.130;153.109;-107.810;143.722;0.484;-20.191;5.886
5786719.973;60.350;105.537;130.162;-131.801;117.272;-5.327;-25.108;-4.135
5786719.981;27.567;72.643;96.299;-162.981;91.679;-27.791;-45.486;-46.492
5786719.989;10.990;52.191;77.449;-178.590;80.466;-26.971;-46.454;-48.988
5786719.997;-2.272;40.233;64.075;-188.574;68.918;-26.450;-46.492;-43.325
5786720.005;-13.076;26.822;52.266;-192.784;61.393;-28.685;-39.488;-40.308
5786720.013;-30.361;10.505;34.980;-208.765;41.239;-38.967;-45.039;-50.329
5786720.021;-44.294;-3.278;17.434;-221.133;24.587;-45.821;-51.670;-57.109
5786720.029;-51.223;-10.505;10.654;-225.678;20.750;-39.414;-47.088;-50.999
5786720.037;-55.283;-13.486;4.210;-229.068;17.658;-32.298;-46.343;-38.035
5786720.045;-50.887;-9.649;7.190;-224.113;27.046;-15.013;-37.253;-6.929
5786720.053;-78.045;-39.935;-15.050;-248.700;8.680;-27.455;-52.862;-25.257
5786720.061;-91.232;-54.613;-27.865;-262.298;-6.706;-31.218;-61.132;-43.325
5786720.069;-89.295;-51.185;-29.989;-254.773;-12.219;-14.044;-42.245;-39.637
5786720.077;-85.160;-45.523;-27.195;-244.640;-11.958;-4.619;-25.071;-29.989
5786720.118;-89.817;-44.107;-35.912;-250.600;-15.534;-12.852;-30.883;-29.020
5786720.126;-100.806;-55.432;-49.993;-264.011;-14.640;-28.089;-42.990;-42.953
5786720.134;-105.761;-63.404;-52.266;-274.219;-16.019;-30.957;-41.798;-43.400
5786720.142;-109.673;-70.408;-54.874;-280.626;-17.583;-29.951;-42.431;-35.800
5786720.150;-118.166;-78.008;-62.659;-290.647;-21.122;-33.453;-48.280;-36.508
5786720.158;-124.685;-82.515;-70.781;-295.714;-28.424;-38.184;-51.334;-43.623
5786720.166;-128.485;-88.066;-74.506;-299.104;-32.559;-40.084;-49.397;-43.996
5786720.174;-124.797;-85.756;-72.792;-298.247;-26.673;-35.763;-46.007;-43.772
5786720.182;-113.286;-74.282;-61.616;-286.736;-9.984;-15.721;-27.642;-21.756
5786720.190;-130.162;-91.456;-77.263;-304.133;-24.140;-27.902;-44.256;-28.759
5786720.198;-137.649;-99.130;-85.421;-312.887;-30.585;-41.947;-61.095;-45.337
5786720.206;-125.542;-86.501;-71.302;-300.072;-17.695;-34.124;-52.601;-37.290
5786720.214;-128.634;-88.662;-75.176;-300.594;-24.401;-35.465;-51.223;-37.886
5786720.222;-121.482;-82.701;-67.838;-294.037;-20.079;-21.420;-36.918;-32.447
5786720.230;-107.698;-70.445;-53.309;-281.222;-6.631;-4.768;-20.638;-11.213
5786720.238;-125.207;-86.352;-73.053;-299.327;-21.122;-16.987;-32.559;-20.340
5786720.246;-140.592;-101.477;-86.650;-313.595;-33.192;-35.688;-49.509;-43.176
5786720.254;-140.294;-100.285;-90.227;-307.932;-34.608;-43.958;-59.754;-51.185
5786720.262;-137.687;-98.124;-88.774;-303.760;-35.465;-47.162;-63.404;-52.340
5786720.270;-136.346;-98.348;-89.072;-301.860;-38.594;-49.137;-63.255;-58.971
5786720.278;-139.028;-101.849;-90.748;-304.990;-41.313;-48.652;-65.528;-60.536
5786720.286;-133.067;-92.722;-86.650;-298.284;-31.143;-38.855;-57.556;-40.419
5786720.294;-123.233;-81.770;-77.486;-288.822;-19.372;-32.261;-48.056;-31.628
5786720.302;-137.314;-97.342;-87.060;-300.668;-36.694;-46.305;-61.132;-47.944
5786720.268;-148.863;-105.575;-100.508;-309.348;-47.982;-39.823;-56.438;-41.351
5786720.276;-137.649;-96.969;-85.160;-302.680;-29.355;-32.298;-49.025;-30.100
5786720.284;-127.926;-89.295;-71.228;-299.923;-10.692;-35.763;-51.334;-31.814
5786720.292;-134.595;-99.055;-78.380;-313.483;-11.437;-52.005;-67.838;-50.776
5786720.300;-135.116;-103.116;-77.523;-324.100;-4.396;-67.502;-85.831;-63.851
5786720.308;-128.783;-98.459;-67.241;-326.298;11.027;-69.849;-88.327;-59.344
5786720.316;-135.936;-109.039;-70.222;-335.909;8.754;-74.543;-91.419;-63.367
5786720.324;-138.246;-111.833;-72.978;-336.878;4.694;-71.079;-85.682;-70.035
5786720.332;-136.457;-110.604;-76.704;-334.345;8.680;-60.648;-74.022;-60.685
5786720.340;-134.893;-109.114;-74.618;-331.253;8.270;-53.905;-67.875;-49.919
5786720.348;-141.598;-116.862;-78.678;-335.500;0.298;-58.860;-71.526;-61.728
5786720.356;-141.226;-115.670;-77.784;-334.419;5.327;-56.364;-71.563;-63.516
5786720.364;-152.811;-127.852;-90.748;-344.664;-9.164;-60.312;-79.125;-70.371
5786720.372;-149.570;-126.734;-87.470;-339.672;-8.941;-55.023;-77.039;-66.273
5786720.380;-144.355;-122.637;-79.460;-337.996;0.149;-50.403;-76.219;-57.630
5786720.388;-149.608;-126.921;-83.596;-345.670;-7.227;-61.914;-88.923;-68.396
5786720.396;-159.964;-137.649;-100.397;-351.742;-22.277;-74.878;-96.150;-87.805
5786720.404;-148.974;-128.299;-90.413;-337.698;-11.176;-59.083;-74.208;-70.035
5786720.412;-129.975;-107.922;-71.675;-318.252;8.196;-39.712;-46.492;-45.896
5786720.420;-115.447;-91.232;-56.997;-302.903;19.930;-23.097;-22.650;-21.681
5786720.428;-126.436;-103.749;-65.975;-312.924;12.629;-37.625;-37.663;-34.012
5786720.436;-142.343;-117.086;-82.925;-329.092;-0.596;-60.387;-69.812;-57.146
5786720.444;-135.489;-107.847;-76.480;-321.195;4.396;-49.472;-68.955;-38.706
5786720.452;-141.189;-115.074;-83.223;-322.573;-5.700;-54.576;-77.188;-39.302
5786720.477;-156.052;-130.907;-102.110;-334.494;-28.834;-70.445;-89.593;-61.058
5786720.485;-161.901;-136.159;-107.586;-340.194;-36.396;-77.300;-94.809;-67.391
5786720.493;-150.241;-124.313;-90.562;-329.316;-20.191;-68.061;-85.235;-55.693
5786720.501;-125.244;-98.832;-64.485;-306.107;5.290;-46.827;-62.995;-29.244
5786720.509;-140.071;-114.180;-81.807;-321.046;-10.692;-65.826;-77.896;-57.034
5786720.517;-147.149;-123.531;-90.562;-325.777;-20.713;-75.884;-86.464;-84.639
5786720.525;-130.981;-98.012;-74.469;-304.244;-5.513;-57.779;-68.396;-62.585
5786720.533;-133.663;-101.924;-80.019;-305.176;-11.437;-54.240;-64.708;-52.676
5786720.541;-141.934;-113.435;-88.848;-318.512;-17.881;-67.353;-78.939;-65.826
5786720.549;-136.606;-110.753;-80.504;-316.836;-6.109;-80.355;-97.156;-75.772
5786720.557;-140.741;-116.117;-83.335;-325.777;-7.525;-75.474;-94.660;-68.918
5786720.565;-135.526;-111.572;-73.202;-327.863;1.490;-68.434;-88.066;-62.026
5786720.573;-142.939;-120.886;-79.498;-340.603;2.906;-70.110;-87.582;-61.803
5786720.581;-146.814;-126.213;-84.788;-341.423;-4.396;-70.781;-87.805;-62.697
5786720.589;-148.080;-128.336;-88.029;-340.603;-6.594;-66.049;-81.174;-63.926
5786720.597;-147.372;-127.368;-85.905;-338.517;-9.947;-58.301;-76.182;-56.438
5786720.605;-144.094;-121.519;-84.825;-334.755;-7.302;-51.931;-73.835;-42.804
5786720.613;-139.363;-120.811;-85.235;-329.688;-1.378;-47.274;-68.210;-38.743
5786720.621;-135.973;-116.006;-80.355;-325.628;-3.539;-45.337;-61.058;-39.376
5786720.629;-147.969;-130.571;-91.270;-336.394;-12.666;-62.548;-74.096;-66.832
5786720.637;-141.114;-122.339;-82.962;-329.837;-6.929;-57.071;-72.569;-67.092
5786720.645;-135.936;-115.596;-79.647;-321.344;-9.909;-47.088;-66.571;-59.269
5786720.653;-139.810;-118.092;-85.495;-325.628;-17.323;-36.694;-58.971;-44.443
5786720.661;-144.653;-124.201;-88.289;-329.614;-25.183;-34.533;-58.115;-39.786
5786720.644;-145.212;-127.852;-88.066;-327.192;-27.008;-37.663;-58.077;-42.953
5786720.652;-140.481;-119.731;-86.166;-320.114;-19.893;-38.072;-56.066;-36.806
5786720.660;-136.420;-115.968;-81.509;-315.346;-19.222;-42.766;-58.934;-41.090
5786720.668;-141.524;-122.301;-84.229;-319.332;-24.736;-48.727;-64.820;-51.633
5786720.676;-133.365;-114.813;-78.380;-310.019;-18.440;-42.319;-58.487;-49.286
5786720.684;-126.250;-108.220;-72.941;-307.374;-15.274;-41.425;-57.928;-48.168
5786720.692;-122.562;-104.606;-68.471;-302.829;-11.139;-37.737;-55.991;-49.248
5786720.700;-122.637;-105.239;-67.428;-301.451;-7.674;-35.055;-56.103;-45.486
5786720.708;-127.219;-109.263;-71.451;-303.462;-13.784;-36.694;-55.842;-47.013
5786720.716;-132.285;-113.845;-76.368;-303.201;-19.968;-38.743;-54.203;-48.764
5786720.724;-134.781;-109.412;-83.670;-305.064;-23.395;-37.439;-52.787;-44.703
5786720.732;-134.110;-111.014;-80.466;-306.852;-23.060;-34.980;-51.819;-34.012
5786720.740;-133.701;-112.168;-80.243;-304.505;-23.730;-42.580;-59.940;-44.256
5786720.748;-134.930;-113.249;-81.696;-305.399;-21.793;-48.876;-63.851;-53.458
5786720.756;-134.595;-114.888;-78.045;-306.293;-16.093;-46.492;-59.605;-48.168
5786720.764;-126.585;-108.108;-69.104;-300.296;-8.270;-36.657;-53.644;-33.490
5786720.772;-118.017;-99.801;-64.559;-294.037;-0.596;-23.954;-45.300;-18.887
5786720.780;-128.075;-111.312;-76.033;-305.101;-15.683;-35.800;-56.885;-38.669
5786720.788;-127.219;-107.810;-76.182;-303.499;-20.266;-37.327;-60.201;-43.772
5786720.796;-127.479;-107.177;-76.294;-299.141;-21.942;-36.396;-59.046;-41.015
5786720.804;-131.875;-109.300;-80.355;-299.923;-30.808;-40.866;-58.524;-49.360
5786720.812;-132.136;-106.208;-79.162;-297.949;-36.322;-40.643;-55.209;-54.240
5786720.820;-125.468;-101.626;-75.959;-289.567;-27.195;-35.651;-43.772;-56.848
5786720.828;-123.605;-101.738;-74.580;-285.804;-23.209;-38.072;-45.225;-56.066
5786720.927;-128.001;-107.661;-78.157;-289.343;-29.579;-34.906;-49.919;-47.646
5786720.935;-133.179;-111.721;-83.894;-296.645;-28.610;-39.376;-62.026;-47.684
5786720.943;-133.142;-113.584;-79.535;-300.705;-19.893;-42.915;-66.496;-44.294
5786720.951;-133.999;-116.900;-76.965;-302.941;-16.168;-35.316;-60.722;-26.189
5786720.959;-136.681;-118.241;-81.025;-305.437;-19.707;-28.871;-58.115;-14.640
5786720.967;-129.752;-108.629;-73.127;-295.714;-13.784;-19.893;-48.727;-10.580
5786720.975;-134.856;-112.876;-81.696;-300.556;-22.203;-27.195;-55.805;-21.569
5786720.983;-139.624;-114.478;-86.986;-304.691;-25.965;-33.639;-56.848;-30.138
5786720.991;-138.395;-118.464;-84.788;-300.594;-22.911;-38.706;-54.091;-36.769
5786720.999;-140.332;-119.805;-83.856;-300.817;-23.879;-52.787;-62.771;-52.415
5786721.007;-140.406;-113.174;-85.048;-300.854;-28.796;-62.510;-67.614;-67.167
5786721.015;-140.518;-114.515;-81.174;-300.184;-33.900;-67.651;-69.514;-85.682
5786721.023;-140.257;-114.962;-82.515;-297.725;-36.471;-59.679;-66.347;-83.968
5786721.031;-137.277;-110.865;-84.005;-292.286;-31.963;-45.933;-58.748;-68.732
5786721.039;-128.709;-101.924;-76.070;-285.581;-21.718;-27.530;-47.609;-40.233
5786721.047;-139.885;-114.553;-85.346;-294.410;-32.075;-26.859;-51.446;-27.753
5786721.055;-140.294;-113.286;-82.441;-292.659;-33.230;-25.779;-50.738;-13.560
5786721.063;-135.675;-109.002;-79.609;-288.077;-26.599;-26.003;-49.584;-10.580
5786721.071;-134.818;-107.251;-79.721;-289.008;-20.377;-26.487;-46.678;-13.709
5786721.079;-142.753;-113.323;-86.650;-298.023;-30.324;-32.671;-48.950;-24.885
5786721.087;-144.765;-117.980;-87.246;-300.966;-34.161;-36.806;-49.286;-31.628
5786721.095;-138.283;-111.908;-79.013;-295.490;-31.739;-39.861;-48.615;-40.084
5786721.103;-142.939;-113.323;-85.905;-305.511;-41.723;-49.472;-57.891;-57.891
5786721.111;-141.263;-111.796;-80.317;-306.144;-38.259;-48.019;-55.358;-60.350
5786721.063;-139.698;-107.661;-83.782;-302.978;-34.869;-49.137;-53.234;-70.408
5786721.071;-133.701;-101.067;-85.533;-299.215;-28.461;-43.325;-46.417;-72.047
5786721.079;-124.313;-91.977;-75.921;-290.908;-21.495;-27.679;-33.304;-55.321
5786721.087;-114.217;-84.788;-64.410;-281.893;-10.170;-6.109;-18.142;-26.971
5786721.095;-112.206;-84.043;-61.244;-282.936;-1.937;0.335;-20.973;-10.543
5786721.103;-125.021;-97.230;-72.420;-297.502;-11.027;-14.268;-42.170;-10.356
5786721.111;-132.993;-102.222;-79.796;-304.468;-12.368;-28.200;-56.699;-9.686
5786721.119;-138.097;-110.045;-78.455;-312.068;-13.188;-38.929;-63.442;-12.629
5786721.127;-143.871;-117.235;-88.178;-315.681;-22.314;-48.243;-68.769;-21.793
5786721.135;-143.126;-110.231;-89.444;-311.360;-27.828;-50.887;-65.900;-24.885
5786721.143;-142.157;-110.567;-87.060;-309.534;-28.424;-53.160;-64.299;-28.461
5786721.151;-134.297;-102.073;-81.435;-296.198;-19.819;-46.827;-53.011;-31.665
5786721.159;-127.703;-90.376;-73.388;-286.624;-17.285;-40.457;-39.749;-38.259
5786721.167;-123.046;-86.837;-68.508;-279.769;-16.801;-28.573;-24.810;-39.823
5786721.175;-112.355;-74.916;-61.058;-265.688;-14.193;-11.958;-9.686;-33.416
5786721.183;-108.257;-71.675;-60.685;-262.260;-15.311;-1.714;-4.657;-29.504
5786721.191;-107.959;-73.910;-58.077;-263.043;-8.792;6.184;-4.545;-16.801
5786721.199;-106.506;-72.122;-56.513;-261.590;-3.949;8.978;-10.468;-6.072
5786721.207;-109.188;-73.947;-55.581;-267.960;-4.694;2.794;-20.340;-2.831
5786721.215;-106.841;-72.792;-47.274;-269.003;-4.433;0.335;-21.532;2.272
5786721.223;-111.498;-76.965;-54.277;-268.370;-6.370;-14.752;-30.547;-13.709
5786721.231;-120.439;-84.750;-63.926;-273.287;-2.459;-28.796;-40.159;-24.475
5786721.239;-113.510;-79.572;-54.650;-269.003;7.488;-28.834;-36.098;-18.999
5786721.247;-105.202;-76.741;-41.537;-272.319;16.131;-23.022;-26.748;-9.388
5786721.212;-79.162;-45.374;-14.380;-242.069;34.310;-26.301;-28.536;-13.299
5786721.220;-48.466;-9.388;18.068;-209.622;53.681;-27.530;-31.032;-20.415
5786721.228;-3.651;41.835;58.077;-165.030;69.998;-12.666;-19.930;-16.354
5786721.236;45.523;95.256;105.090;-113.659;104.681;15.534;5.178;10.915
5786721.244;80.019;128.672;140.965;-82.441;134.818;28.089;16.205;25.965
5786721.252;111.572;163.317;177.138;-49.733;154.153;35.092;23.209;31.404
5786721.260;136.308;193.045;198.074;-20.862;163.615;49.621;38.035;42.878
5786721.268;146.627;208.914;208.095;-4.284;168.383;52.378;42.617;37.365
5786721.276;150.241;215.359;205.226;7.004;165.440;55.023;46.566;38.370
5786721.284;145.212;210.591;194.758;11.139;147.782;43.958;40.010;26.003
5786721.292;137.463;201.724;185.855;11.064;137.351;41.611;39.041;28.424
5786721.300;117.011;188.984;162.683;-2.086;117.645;36.508;32.522;28.387
5786721.308;86.501;160.262;127.815;-24.252;84.788;23.842;18.254;14.715
5786721.316;57.518;131.726;94.585;-49.733;49.770;8.270;1.974;-3.912
5786721.324;36.210;111.647;72.233;-65.789;30.771;7.115;2.235;-1.714
5786721.332;19.222;90.264;53.868;-77.002;17.248;13.262;8.270;14.380
5786721.340;-0.559;66.347;24.885;-94.920;-3.651;10.207;-0.559;15.981
5786721.348;-13.746;54.464;14.007;-101.924;-19.632;21.793;5.886;19.297
5786721.356;-18.515;47.497;11.846;-103.749;-25.816;34.384;17.695;28.051
5786721.364;-32.596;34.273;-8.419;-114.515;-42.617;29.169;12.927;24.363
5786721.372;-45.598;21.085;-22.277;-125.729;-46.380;19.893;4.582;19.670
5786721.380;-52.378;16.503;-27.977;-128.709;-48.801;8.307;-2.943;9.574
5786721.388;-57.295;12.778;-30.547;-130.907;-56.997;1.341;-4.061;-2.682
5786721.396;-66.608;0.484;-43.586;-136.681;-68.992;-2.533;-5.104;-12.666
5786721.407;-71.675;-2.943;-52.415;-140.332;-72.531;2.347;1.639;-10.841
5786721.415;-80.802;-11.772;-58.487;-147.261;-79.460;8.233;9.090;-4.880
5786721.423;-81.174;-8.270;-63.255;-142.679;-78.566;16.317;16.168;-1.676
5786721.431;-82.515;-9.388;-60.573;-140.369;-79.013;32.187;26.487;14.901
5786721.439;-91.977;-18.813;-69.514;-152.439;-85.048;39.823;26.785;33.267
5786721.447;-104.345;-33.341;-81.807;-166.073;-92.946;34.235;18.999;31.739
5786721.455;-112.802;-45.747;-86.240;-175.349;-103.191;22.911;8.345;19.819
5786721.463;-110.604;-43.921;-84.527;-175.089;-105.426;20.973;9.201;20.675
5786721.471;-114.292;-48.243;-91.232;-180.043;-101.030;25.779;20.526;23.954
5786721.479;-119.321;-52.787;-93.989;-182.614;-103.861;25.295;24.214;17.062
5786721.487;-120.364;-54.166;-96.299;-176.020;-108.741;24.363;24.997;11.064
5786721.495;-120.103;-54.874;-92.909;-173.002;-106.916;29.877;30.436;16.540
5786721.503;-119.433;-46.566;-91.791;-171.550;-103.861;35.428;35.837;22.724
5786721.511;-118.949;-46.268;-89.258;-174.642;-105.761;28.908;26.859;10.431
5786721.519;-118.464;-50.217;-90.301;-173.822;-107.959;20.713;14.342;-0.745
5786721.527;-111.498;-42.953;-86.129;-166.334;-99.726;27.753;19.521;8.903
5786721.535;-108.853;-38.408;-82.552;-165.105;-99.689;35.986;24.922;19.036
5786721.543;-114.404;-44.517;-87.917;-170.767;-107.773;38.557;24.252;20.675
5786721.551;-116.788;-47.982;-90.115;-174.083;-102.781;43.176;27.791;30.845
5786721.559;-124.089;-55.805;-98.087;-181.086;-107.437;36.247;20.452;30.659
5786721.567;-123.233;-53.756;-92.424;-181.645;-107.326;34.124;18.813;34.273
5786721.575;-128.224;-57.742;-99.391;-188.351;-115.745;19.222;9.388;13.486
5786721.583;-136.979;-71.935;-112.839;-192.672;-125.654;7.823;1.192;-0.894
5786721.591;-133.254;-63.069;-109.524;-183.769;-116.117;11.325;6.370;3.353
5786721.558;-124.127;-53.234;-101.849;-174.232;-108.965;15.087;11.474;7.041
5786721.566;-118.315;-48.690;-94.175;-171.475;-107.288;13.709;8.978;1.937
5786721.574;-115.894;-47.348;-88.289;-172.295;-104.494;13.188;8.084;-1.416
5786721.582;-114.813;-47.795;-88.029;-172.593;-106.320;11.437;6.557;-6.407
5786721.590;-114.925;-47.497;-86.911;-171.810;-107.139;10.803;4.619;-5.737
5786721.598;-115.260;-47.199;-88.476;-172.220;-107.922;16.727;7.749;4.731
5786721.606;-119.060;-51.111;-90.897;-175.759;-108.294;25.220;16.764;19.409
5786721.614;-130.050;-60.797;-106.581;-183.731;-120.439;30.026;25.406;27.195
5786721.622;-127.926;-57.407;-101.216;-184.849;-113.435;21.979;19.558;21.122
5786721.630;-101.663;-37.737;-67.726;-169.128;-74.208;19.446;14.231;21.420
5786721.638;-96.597;-35.875;-56.326;-176.094;-65.491;10.617;2.459;9.164
5786721.646;-84.750;-26.450;-40.941;-178.330;-44.331;-1.043;-11.176;-4.247
5786721.654;-65.938;-8.680;-18.328;-173.077;-17.136;-3.986;-14.268;-9.015
5786721.662;-51.484;1.937;-1.602;-171.214;3.614;-7.786;-18.850;-9.090
5786721.670;-48.392;4.545;5.588;-176.542;12.144;-11.735;-23.544;-12.442
5786721.678;-48.913;-0.149;3.949;-178.032;16.838;-5.700;-16.540;-9.611
5786721.686;-52.899;-3.055;-1.863;-177.920;10.468;11.101;1.192;2.868
5786721.694;-61.691;-10.580;-9.164;-183.173;2.310;23.022;13.858;10.878
5786721.702;-72.271;-17.546;-24.885;-189.357;-6.109;23.767;12.629;15.236
5786721.710;-73.127;-18.142;-22.054;-189.282;-6.780;24.773;14.044;20.713
5786721.718;-87.805;-33.602;-32.708;-205.077;-24.997;14.380;5.960;8.903
5786721.726;-96.634;-46.901;-45.933;-206.828;-32.075;6.892;-1.118;1.118
5786721.734;-98.534;-48.131;-49.546;-207.573;-34.049;3.837;-6.594;-2.757
5786721.742;-97.603;-43.474;-49.360;-205.785;-33.043;8.978;-4.135;2.310
5786721.722;-98.236;-43.549;-52.527;-204.965;-35.502;6.258;-7.376;-4.880
5786721.730;-86.986;-33.639;-38.333;-197.589;-23.618;2.757;-6.594;-9.499
5786721.738;-86.240;-35.539;-35.726;-198.446;-18.179;-4.955;-10.058;-9.686
5786721.746;-90.450;-44.070;-40.196;-200.793;-24.028;-9.760;-12.070;-9.798
5786721.754;-92.387;-41.835;-45.821;-200.905;-34.422;-9.537;-11.548;-10.617
5786721.762;-93.915;-42.915;-46.603;-200.123;-36.955;-9.686;-11.437;-9.015
5786721.770;-93.989;-41.090;-50.329;-199.080;-32.596;-2.347;-3.949;4.545
5786721.778;-87.656;-33.714;-42.804;-191.852;-23.469;-2.198;-2.794;9.313
5786721.786;-88.960;-37.365;-39.935;-194.907;-25.816;-2.719;-1.378;-1.304
5786721.794;-87.097;-35.651;-42.208;-190.102;-26.301;-4.321;-7.376;-6.706
5786721.802;-89.593;-35.800;-43.288;-191.070;-29.206;-4.619;-11.958;-7.525
5786721.810;-94.064;-42.245;-42.021;-197.776;-27.381;-4.955;-15.348;-6.780
5786721.818;-100.173;-45.188;-47.013;-205.077;-33.416;-13.448;-24.736;-18.291
5786721.826;-96.671;-41.723;-46.678;-201.911;-33.416;-11.176;-20.415;-17.844
5786721.834;-93.021;-36.918;-48.354;-198.223;-32.634;-1.006;-8.047;-1.565
5786721.842;-99.465;-43.847;-53.160;-204.034;-42.208;-4.210;-11.809;-5.774
5786721.850;-103.228;-52.042;-55.023;-207.834;-36.471;-5.439;-17.434;-7.413
5786721.858;-97.081;-44.368;-50.627;-206.530;-26.599;6.557;-10.096;8.829
5786721.866;-93.579;-41.351;-47.944;-207.387;-27.195;11.362;-7.823;10.207
5786721.874;-95.107;-42.580;-50.552;-208.728;-32.596;16.838;-4.806;17.956
5786721.882;-103.526;-50.776;-58.897;-220.463;-38.035;13.821;-7.227;19.260
5786721.890;-103.340;-47.795;-60.052;-223.182;-39.935;4.768;-9.239;3.912
5786721.898;-100.955;-47.088;-59.865;-224.672;-37.663;-4.210;-10.021;-4.619
5786721.906;-90.897;-40.568;-51.484;-213.943;-22.240;-9.872;-10.170;-3.465
5786721.933;-82.813;-33.751;-41.947;-206.344;-15.460;-21.346;-16.540;-16.205
5786721.941;-80.317;-29.989;-45.151;-204.556;-14.044;-25.406;-18.366;-23.656
5786721.949;-81.472;-30.883;-43.623;-206.381;-12.554;-20.526;-14.566;-13.970
5786721.957;-91.009;-36.508;-50.962;-218.004;-22.911;-21.644;-20.303;-9.649
5786721.965;-101.253;-46.827;-62.808;-229.143;-32.522;-23.842;-29.020;-6.780
5786721.973;-107.884;-55.097;-67.502;-230.595;-35.390;-20.415;-26.859;-0.261
5786721.981;-107.847;-58.860;-62.101;-228.658;-33.341;-15.236;-21.979;1.416
5786721.989;-104.085;-54.613;-65.118;-222.661;-24.289;-10.729;-19.297;5.253
5786721.997;-101.514;-49.584;-61.207;-219.680;-24.065;-11.437;-19.073;1.155
5786722.005;-97.454;-44.927;-57.854;-213.794;-30.510;-16.093;-19.707;-8.009
5786722.013;-88.289;-36.731;-50.068;-201.799;-16.056;-14.007;-15.572;-7.600
5786722.021;-85.533;-33.453;-43.437;-201.575;-14.938;-13.299;-13.039;-8.680
5786722.029;-90.487;-40.866;-47.572;-208.505;-26.897;-22.091;-20.899;-20.899
5786722.037;-91.381;-45.821;-54.687;-205.413;-26.450;-20.564;-17.770;-20.042
5786722.045;-88.215;-40.196;-49.323;-197.329;-23.134;-20.154;-20.675;-18.217
5786722.053;-89.109;-36.135;-47.572;-197.105;-25.295;-18.105;-19.185;-19.781
5786722.061;-90.748;-36.918;-51.931;-199.266;-26.710;-15.609;-18.738;-12.778
5786722.069;-89.072;-37.029;-48.876;-201.203;-27.753;-12.927;-19.185;-1.267
5786722.077;-89.183;-36.731;-51.409;-200.197;-31.590;-13.784;-18.701;-0.969
5786722.085;-82.888;-33.639;-48.913;-188.462;-26.077;-6.706;-10.729;5.029
5786722.093;-79.386;-28.647;-42.357;-186.786;-19.372;-0.596;-5.849;12.740
5786722.101;-84.676;-36.582;-45.076;-193.119;-17.658;0.335;-2.272;12.703
5786722.109;-82.739;-35.539;-39.116;-185.221;-21.495;-5.588;-9.649;-0.410
5786722.117;-76.443;-24.512;-33.788;-174.381;-20.787;-7.823;-11.660;-6.519
5786722.068;-74.543;-22.911;-35.577;-172.630;-17.881;-15.423;-16.615;-10.543
5786722.076;-77.747;-29.802;-40.829;-170.618;-22.054;-26.785;-25.928;-21.495
5786722.084;-74.692;-21.867;-37.216;-165.142;-26.077;-27.940;-29.914;-15.236
5786722.092;-74.692;-17.732;-37.961;-167.713;-27.157;-23.805;-24.699;-18.924
5786722.100;-74.580;-20.117;-37.849;-168.681;-29.542;-8.866;-11.474;-9.425
5786722.108;-75.325;-24.810;-38.221;-167.787;-28.200;9.127;2.161;12.554
5786722.116;-76.965;-23.805;-41.202;-165.589;-28.349;13.001;8.047;15.683
5786722.124;-81.956;-28.722;-41.574;-165.924;-34.682;9.164;3.651;13.337
5786722.132;-84.192;-30.659;-43.549;-171.214;-33.863;5.141;-0.820;11.250
5786722.140;-82.441;-31.218;-43.847;-167.638;-30.957;4.210;-0.410;5.625
5786722.148;-78.455;-24.997;-40.866;-163.727;-29.057;0.857;-3.129;0.894
5786722.156;-76.592;-22.948;-39.414;-159.442;-27.232;-4.470;-7.339;-2.719
5786722.164;-75.027;-21.607;-37.439;-156.350;-31.777;-13.970;-16.168;-13.374
5786722.172;-68.918;-16.242;-32.298;-154.600;-29.877;-17.807;-22.538;-10.282
5786722.180;-73.053;-19.521;-37.551;-156.611;-25.332;-23.507;-32.261;-6.445
5786722.188;-84.527;-34.496;-45.858;-162.050;-33.118;-31.255;-41.835;-14.640
5786722.196;-87.321;-38.743;-46.231;-165.775;-37.290;-32.447;-46.231;-17.211
5786722.204;-87.842;-34.906;-52.750;-165.664;-41.761;-27.306;-39.563;-13.225
5786722.212;-82.925;-29.840;-45.747;-160.560;-34.012;-16.205;-26.375;-0.931
5786722.220;-81.472;-30.771;-43.660;-160.448;-31.516;-12.256;-20.266;-3.092
5786722.228;-77.300;-26.114;-43.511;-155.568;-34.720;-13.597;-21.458;-14.491
5786722.236;-72.420;-23.209;-37.886;-148.453;-34.794;-12.144;-18.552;-18.813
5786722.244;-70.110;-21.532;-35.092;-145.324;-26.114;-7.600;-11.995;-14.417
5786722.252;-71.824;-25.481;-42.282;-145.920;-23.432;-7.153;-8.643;-12.144
5786722.263;-76.927;-29.467;-43.288;-149.235;-30.957;-13.299;-11.548;-13.746
5786722.271;-75.400;-28.387;-42.319;-147.894;-35.726;-21.011;-19.409;-14.901
5786722.279;-65.938;-19.409;-30.883;-143.759;-27.418;-18.589;-18.552;-5.290
5786722.287;-59.232;-15.385;-22.165;-137.240;-16.503;-16.391;-19.073;-2.831
5786722.295;-62.473;-13.076;-31.628;-135.675;-23.209;-18.440;-27.679;-8.680
5786722.303;-65.304;-14.417;-34.831;-138.171;-28.275;-13.709;-30.324;-1.900
5786722.311;-57.593;-9.239;-26.561;-131.503;-17.174;-4.284;-26.003;11.548
5786722.319;-53.793;-7.451;-21.048;-124.983;-15.832;-5.513;-25.444;3.092
5786722.327;-51.036;-2.533;-16.391;-121.593;-15.311;-5.849;-21.756;-4.582
5786722.335;-55.507;-6.296;-22.165;-128.970;-18.142;-1.118;-13.150;-1.565
5786722.343;-56.550;-5.662;-28.163;-127.479;-23.879;-0.969;-4.806;-4.247
5786722.351;-54.426;-6.780;-26.450;-122.562;-22.762;-3.092;-1.341;-7.227
5786722.359;-58.375;-10.915;-28.536;-128.299;-21.458;-8.196;-3.390;-8.158
5786722.367;-55.991;-10.990;-27.083;-123.195;-22.911;-14.789;-8.121;-14.268
5786722.375;-54.091;-8.717;-26.412;-123.233;-20.042;-9.052;-7.711;-6.966
5786722.383;-56.475;-8.494;-23.395;-123.046;-20.638;0.186;-4.284;0.186
5786722.391;-57.742;-8.531;-28.908;-119.992;-26.003;8.754;3.166;4.731
5786722.399;-59.791;-11.697;-34.645;-119.954;-29.281;12.331;4.880;13.299
5786722.407;-66.794;-21.979;-39.972;-129.007;-36.582;2.570;-6.706;2.384
5786722.415;-63.367;-17.546;-34.682;-122.860;-31.628;1.490;-9.537;-0.447
5786722.423;-55.730;-3.166;-24.550;-115.260;-24.475;9.760;-0.075;9.574
5786722.431;-54.874;-2.161;-29.355;-113.398;-22.464;10.878;2.272;10.319
5786722.439;-55.432;-3.800;-28.163;-114.813;-25.444;4.917;-5.290;4.917
5786722.447;-60.536;-14.231;-32.298;-118.874;-30.100;-7.302;-19.483;-8.345
5786722.455;-51.595;-6.221;-23.656;-111.684;-21.644;-7.711;-16.950;-12.293
5786722.463;-50.291;-5.625;-16.540;-113.286;-20.191;-9.723;-15.609;-9.909
5786722.471;-53.048;-6.035;-22.426;-111.386;-24.028;-16.019;-16.652;-18.626
5786722.479;-50.627;-5.513;-24.438;-106.543;-20.266;-13.821;-13.486;-20.154
5786722.488;-47.013;-1.267;-20.936;-103.526;-16.913;1.080;-1.900;-0.782
5786722.496;-52.117;-5.253;-24.363;-109.412;-24.773;3.465;-6.221;0.782
5786722.504;-56.550;-9.984;-25.146;-111.610;-32.932;6.370;-11.325;3.017
5786722.512;-59.120;-14.901;-30.771;-112.876;-25.295;11.101;-14.268;12.852
5786722.520;-64.299;-22.016;-36.769;-119.433;-25.406;4.470;-19.893;6.258
5786722.528;-63.106;-17.546;-33.155;-113.957;-29.467;-1.267;-19.595;-3.539
5786722.536;-58.562;-8.643;-29.057;-110.678;-35.688;0.484;-17.062;-0.596
5786722.544;-53.644;-7.637;-23.320;-108.443;-23.954;7.711;-13.188;9.909
5786722.552;-55.619;-10.021;-25.295;-109.412;-15.274;3.092;-17.099;8.158
5786722.560;-61.430;-17.881;-32.932;-112.206;-20.638;-9.686;-22.464;-3.725
5786722.568;-56.177;-7.860;-29.355;-98.683;-28.722;-24.140;-24.252;-20.936
5786722.576;-58.487;-5.588;-37.141;-93.579;-44.666;-28.238;-20.452;-32.410
5786722.584;-56.215;-4.135;-33.304;-88.252;-42.319;-13.709;-3.166;-22.873
5786722.592;-55.246;-3.390;-26.524;-83.037;-35.986;8.643;15.944;-7.711
5786722.600;-50.776;1.267;-26.189;-79.088;-28.796;29.244;29.728;9.201
5786722.608;-53.681;-7.935;-33.714;-86.240;-31.888;25.406;19.968;7.376
5786722.616;-56.662;-6.445;-34.273;-88.848;-40.494;16.913;7.898;7.562
5786722.624;-58.264;-3.800;-34.124;-89.668;-43.437;14.342;-1.602;16.615
5786722.632;-62.101;-11.846;-36.135;-91.866;-42.804;9.835;-8.456;14.342
5786722.640;-58.301;-8.680;-29.318;-87.358;-34.384;14.193;-3.539;20.750
5786722.648;-54.687;-5.029;-32.000;-84.043;-30.547;14.231;-2.049;17.621
5786722.656;-58.338;-7.823;-38.743;-86.315;-35.912;6.631;-6.855;6.072
5786722.664;-64.932;-14.976;-39.786;-91.158;-41.761;-6.035;-12.554;-13.262
5786722.672;-58.562;-9.574;-33.788;-83.745;-38.259;-0.261;0.000;-12.219
5786722.654;-54.762;-8.680;-27.157;-81.323;-36.694;11.697;16.131;5.625
5786722.662;-59.716;-12.033;-32.671;-84.564;-36.843;10.766;13.895;8.643
5786722.670;-60.983;-14.603;-34.794;-88.327;-35.986;7.115;5.774;3.129
5786722.678;-61.914;-16.876;-36.582;-91.903;-37.961;10.692;5.178;8.307
5786722.686;-67.614;-20.601;-43.325;-99.204;-43.288;12.815;1.453;13.709
5786722.694;-63.479;-20.750;-37.365;-95.963;-39.637;14.529;-0.112;13.858
5786722.702;-62.436;-21.160;-34.347;-99.465;-33.677;14.789;-0.931;14.938
5786722.710;-58.711;-17.285;-33.267;-101.887;-26.636;19.483;6.258;22.762
5786722.718;-60.089;-15.274;-34.496;-102.222;-27.753;14.305;5.439;16.466
5786722.726;-59.828;-11.921;-37.104;-101.402;-35.167;4.321;-0.298;0.298
5786722.734;-56.773;-10.990;-35.837;-102.371;-34.161;2.421;0.000;-1.639
5786722.742;-55.991;-11.995;-31.777;-104.047;-25.705;-1.118;-0.261;0.522
5786722.750;-53.197;-10.729;-27.120;-97.863;-18.589;-4.470;-0.373;-0.484
5786722.758;-54.203;-11.064;-32.447;-99.912;-19.819;0.149;3.204;2.831
5786722.766;-53.272;-9.239;-36.545;-97.789;-22.836;9.276;8.009;10.543
5786722.774;-55.544;-15.274;-34.720;-98.720;-30.398;12.890;10.617;8.047
5786722.782;-59.046;-24.438;-38.296;-105.575;-31.851;18.999;17.285;5.513
5786722.790;-35.949;0.112;-17.062;-78.194;-13.635;25.854;21.979;15.572
5786722.798;-25.742;16.131;-11.735;-64.000;-9.947;28.238;22.836;25.257
5786722.806;-14.901;30.585;-8.494;-48.988;-19.521;22.538;20.266;20.787
5786722.814;5.513;52.899;8.978;-22.501;-14.193;35.316;35.875;34.906
5786722.822;15.907;62.473;16.280;-7.004;-12.442;36.992;39.637;36.173
5786722.830;15.609;63.777;18.291;2.719;-24.997;21.644;27.083;15.125
5786722.838;11.511;61.765;13.262;4.396;-20.601;12.703;18.962;14.231
5786722.878;5.178;54.315;8.829;-3.278;-22.762;11.511;17.472;18.477
5786722.886;6.333;54.240;8.643;-4.247;-19.819;19.446;23.544;22.650
5786722.894;6.557;49.099;11.437;0.820;-23.134;26.599;28.871;26.561
5786722.902;6.109;52.303;12.033;-1.490;-28.685;24.736;24.587;22.724
5786722.910;7.600;54.091;12.591;-1.267;-19.111;32.447;29.728;29.691
5786722.918;1.229;44.368;8.196;-6.780;-20.713;42.319;33.863;39.674
5786722.926;-3.278;39.712;1.565;-9.686;-27.046;55.023;37.290;47.795
5786722.934;-10.431;34.608;-8.643;-11.697;-43.511;60.163;40.270;46.007
5786722.942;-10.245;34.794;-8.121;-6.668;-45.970;59.940;46.864;43.213
5786722.950;0.596;47.199;3.502;7.339;-28.387;66.385;61.989;51.521
5786722.958;6.482;53.495;10.394;13.001;-18.105;59.977;64.299;50.589
5786722.966;0.037;47.274;1.639;6.929;-31.441;32.745;48.913;22.464
5786722.974;-0.857;40.084;-0.373;7.078;-35.912;16.280;37.402;5.066
5786722.982;-5.290;34.682;-2.906;4.172;-40.494;14.193;32.671;9.201
5786722.990;-9.127;31.702;-7.711;3.129;-39.488;22.911;33.416;23.283
5786722.998;-12.033;29.989;-8.754;2.347;-36.918;24.326;28.014;26.487
5786723.006;-10.692;30.845;-3.949;2.161;-35.837;31.404;31.553;29.504
5786723.014;-5.327;34.869;-0.298;7.823;-37.998;44.927;42.915;38.557
5786723.022;-7.339;38.370;-3.725;7.488;-35.241;48.578;45.039;43.362
5786723.030;-6.184;34.384;2.086;8.047;-27.195;58.077;51.595;54.948
5786723.038;-8.009;29.206;0.782;6.668;-33.453;53.942;50.180;46.045
5786723.046;-2.123;41.388;0.484;11.288;-36.061;50.887;48.876;33.043
5786723.054;17.881;57.854;22.501;32.261;-16.950;47.907;48.541;30.883
5786723.062;25.183;65.155;29.691;37.849;-6.072;47.497;51.372;38.445
5786723.028;13.635;52.154;15.646;28.014;-17.025;36.024;43.511;24.885
5786723.036;0.745;38.333;9.872;15.348;-32.820;27.418;34.980;9.499
5786723.044;2.496;45.523;5.923;17.732;-27.865;33.006;36.918;11.586
5786723.052;4.023;44.405;8.829;16.615;-27.567;40.755;40.606;24.512
5786723.060;1.304;36.657;6.072;14.119;-29.542;46.603;42.580;39.153
5786723.068;-1.639;37.812;1.341;15.758;-27.455;49.025;45.449;42.208
5786723.076;-1.080;39.078;4.135;16.242;-29.653;47.013;42.692;40.084
5786723.084;1.378;41.425;8.531;18.813;-23.544;44.815;34.645;41.798
5786723.092;0.894;41.649;8.866;15.609;-25.034;39.786;27.716;36.992
5786723.100;6.631;45.113;13.709;22.277;-18.589;40.866;29.206;36.918
5786723.108;3.278;42.245;7.860;21.905;-29.616;32.932;26.561;21.867
5786723.116;3.092;43.139;2.384;23.581;-39.265;29.095;27.940;16.056
5786723.124;10.617;50.813;6.929;32.485;-33.677;30.324;33.863;21.681
5786723.132;10.133;49.025;12.554;33.155;-28.908;24.550;31.181;19.111
5786723.140;12.517;48.839;16.317;34.310;-25.183;30.808;37.216;27.493
5786723.148;11.325;51.409;15.758;31.628;-23.656;42.208;42.878;38.780
5786723.156;10.356;50.254;13.188;32.485;-27.120;49.621;47.833;45.374
5786723.164;5.364;45.188;6.296;35.688;-27.977;48.727;47.348;40.717
5786723.172;0.037;40.419;6.743;33.528;-27.679;48.503;46.901;38.594
5786723.180;14.454;52.527;26.599;39.637;-5.513;31.367;29.057;23.395
5786723.188;33.900;67.204;49.621;48.093;25.146;24.810;24.699;19.409
5786723.196;57.258;87.321;78.753;52.340;56.699;18.328;20.526;15.795
5786723.204;89.370;116.825;119.954;66.869;101.402;17.174;21.271;15.162
5786723.212;120.960;149.906;156.164;82.105;132.360;17.881;22.277;15.236
5786723.221;149.868;180.900;186.823;95.628;161.566;11.660;15.460;11.586
5786723.229;173.375;197.366;222.251;101.589;192.113;13.448;14.640;17.211
5786723.237;193.343;205.971;248.104;117.011;220.276;28.796;26.189;36.620
5786723.245;205.413;219.904;256.114;129.864;238.903;40.904;35.502;42.580
5786723.253;195.429;221.618;241.101;122.599;225.231;36.471;32.336;31.739
5786723.261;173.226;194.013;217.631;101.738;196.509;27.902;26.710;19.968
5786723.269;151.061;167.154;194.348;83.037;173.338;20.303;20.228;8.531
5786723.277;128.858;143.945;172.444;69.030;153.147;21.458;20.564;11.027
5786723.285;111.237;123.195;151.284;57.854;138.246;24.326;19.670;21.905
5786723.293;82.739;94.846;120.923;34.831;112.057;21.011;14.342;25.816
5786723.301;66.943;81.174;100.061;21.122;93.505;15.721;10.394;31.106
5786723.309;53.197;67.130;81.770;8.903;77.598;7.823;-0.149;28.536
5786723.317;44.182;57.667;73.723;6.668;73.723;10.282;2.533;27.344
5786723.325;39.004;57.518;65.640;10.505;71.153;19.968;12.070;31.143
5786723.333;33.528;53.495;56.103;6.519;55.507;29.616;22.314;33.788
5786723.341;33.341;49.435;52.340;4.917;52.936;40.196;32.149;38.259
5786723.349;25.518;42.766;41.761;1.565;48.019;40.159;25.295;34.682
5786723.357;20.862;39.972;40.531;-3.166;44.033;34.086;14.491;25.705
5786723.365;17.770;36.880;34.571;-4.694;39.674;29.579;11.474;18.477
5786723.373;15.572;31.181;31.143;-2.608;37.290;26.710;18.030;15.534
5786723.381;18.701;35.278;36.322;1.006;34.049;25.593;25.295;21.160
5786723.389;13.076;31.963;26.226;-0.857;27.493;18.217;19.856;18.589
5786723.397;4.061;21.532;14.715;-7.711;20.266;9.835;9.313;12.182
5786723.405;-4.433;14.231;9.872;-17.546;7.674;2.719;1.788;3.576
5786723.479;-4.321;16.466;11.027;-11.511;10.915;4.694;5.439;4.098
5786723.487;5.290;23.916;18.962;2.161;18.701;8.941;10.803;7.413
5786723.495;8.605;28.089;19.185;8.494;15.609;9.499;10.654;6.035
5786723.503;3.800;25.406;18.217;1.118;16.056;8.121;6.221;2.682
5786723.511;0.931;18.924;16.131;-1.118;15.087;13.188;10.654;4.917
5786723.519;-2.086;16.466;14.193;-5.849;9.164;10.692;11.884;0.335
5786723.527;-5.402;16.727;8.419;-15.385;2.533;9.127;10.431;2.943
5786723.535;-5.439;11.586;4.321;-10.021;1.080;17.360;17.732;10.356
5786723.543;-2.347;16.093;7.264;0.335;3.688;25.518;25.630;14.566
5786723.551;-6.072;12.778;2.012;-3.874;5.923;23.395;21.644;14.864
5786723.559;-6.817;10.282;5.215;-4.023;3.688;24.065;20.824;17.881
5786723.567;-6.407;12.740;7.749;-6.929;0.484;25.705;21.085;21.234
5786723.575;-11.213;7.190;1.565;-12.778;0.894;23.618;17.323;22.054
5786723.583;-10.841;7.600;-0.112;-6.668;6.035;23.171;17.770;23.544
5786723.591;-7.376;14.082;0.261;-1.565;7.600;22.724;18.924;21.569
5786723.599;-5.662;14.342;-0.335;0.447;8.345;25.071;22.836;22.650
5786723.607;-1.974;13.821;3.912;-0.857;9.574;33.528;30.287;30.473
5786723.615;-9.052;2.161;0.335;-12.480;3.129;31.330;26.375;28.722
5786723.623;-14.938;2.533;-3.017;-21.309;-0.633;26.897;22.203;24.550
5786723.631;-17.583;-0.373;-6.407;-26.897;3.055;24.103;20.377;26.189
5786723.639;-20.936;-2.757;-13.597;-27.791;-0.298;15.832;14.193;20.862
5786723.647;-21.383;-3.725;-12.368;-27.567;-2.272;4.098;4.955;9.276
5786723.655;-19.819;-2.384;-11.139;-32.522;1.490;-1.714;0.857;-0.224
5786723.663;-12.480;3.166;-8.047;-26.897;3.241;3.204;5.215;1.304
5786723.746;-2.645;8.568;3.129;-17.434;12.033;17.472;18.850;13.225
5786723.754;7.637;20.303;12.778;-2.831;29.616;24.475;26.897;22.165
5786723.762;3.800;19.372;8.829;-6.184;26.971;23.358;25.108;27.493
5786723.770;-5.960;10.021;2.384;-16.652;18.068;15.274;14.193;19.893
5786723.778;-10.170;3.204;1.527;-21.830;17.248;7.302;5.551;10.915
5786723.786;-11.958;-2.645;-4.321;-23.171;13.001;4.694;-0.298;6.668
5786723.794;-11.921;1.192;-6.557;-23.507;9.760;4.768;-2.310;4.023
5786723.802;-11.623;-1.416;-8.307;-21.942;6.407;7.935;1.602;8.419
5786723.810;-9.537;3.912;-4.135;-12.815;11.139;10.356;7.413;11.139
5786723.818;-12.480;0.596;-3.092;-12.629;6.370;5.066;4.619;3.502
5786723.826;-12.182;3.763;-3.502;-9.239;4.247;7.376;7.190;5.029
5786723.834;-11.809;2.682;-3.949;-10.282;8.084;9.574;10.505;7.711
5786723.842;-10.133;1.863;-5.737;-9.090;10.021;7.302;9.909;13.150
5786723.850;-13.486;-0.149;-9.537;-9.388;5.178;4.880;11.772;11.660
5786723.858;-12.293;2.421;-11.064;-4.508;11.362;5.998;15.683;9.462
5786723.866;-7.488;10.207;-5.402;4.768;13.225;7.078;14.044;9.164
5786723.874;-2.310;12.852;2.272;9.462;12.591;7.898;12.219;10.990
5786723.882;-6.780;7.227;-0.745;4.582;4.321;0.708;3.427;5.327
5786723.890;-6.147;4.806;-3.800;7.115;5.774;1.155;4.396;7.488
5786723.898;-7.823;4.247;-4.843;8.754;9.499;-0.969;7.153;2.533
5786723.906;-11.325;3.241;-5.811;2.086;6.966;1.043;12.517;0.373
5786723.914;-18.328;-4.768;-13.523;-1.304;-3.837;-1.155;10.654;-1.565
5786723.922;-18.105;-8.643;-9.425;-0.410;-5.290;0.969;11.139;2.943
5786723.930;-23.507;-13.672;-15.236;-5.662;-8.903;-5.662;3.055;-1.863
5786723.942;-22.352;-9.909;-18.328;0.224;-12.033;-6.855;1.676;-0.224
5786723.950;-16.131;-2.980;-14.715;6.743;-8.196;-5.625;2.235;3.725
5786723.958;-11.362;2.459;-10.133;13.672;-2.421;-1.751;1.192;8.345
5786723.966;-8.792;3.912;-3.874;18.366;2.272;1.900;0.708;14.901
5786723.974;-7.302;2.272;-1.341;17.062;7.376;4.396;1.341;19.111
5786723.982;-5.290;2.943;-2.719;21.420;9.872;4.210;4.061;17.770
5786723.990;-7.078;1.602;-1.825;19.297;2.719;2.719;8.084;13.411
5786723.998;-10.543;1.378;-6.929;15.125;-4.992;-1.863;9.388;2.049
5786724.006;-9.574;4.955;-7.078;15.721;-3.017;-5.439;7.935;-2.906
5786724.014;-5.886;5.290;-2.161;18.999;2.682;-6.072;7.711;-2.459
5786724.022;-3.092;6.780;2.310;22.650;5.886;-3.241;8.605;0.894
5786724.030;-2.421;5.998;1.602;24.885;4.582;-0.149;12.182;2.757
5786724.038;-3.502;2.161;-0.820;27.530;2.161;-0.596;7.227;6.482
5786724.046;-5.960;-1.043;-3.614;25.369;5.662;0.410;2.943;9.984
5786724.054;-4.806;0.931;-2.682;23.060;10.617;0.894;-0.373;15.274
5786724.062;-3.800;3.912;-0.671;24.438;11.660;-4.508;-7.339;3.800
5786724.070;-10.207;-2.645;-7.041;14.305;3.390;-8.680;-10.617;-7.488
5786724.078;-12.964;-8.158;-7.749;12.442;2.459;-3.986;-3.986;-5.029
5786724.086;-12.293;-7.413;-8.345;18.440;-0.037;-2.049;3.874;-2.645
5786724.094;-16.689;-8.345;-18.030;21.867;-8.531;-6.817;4.433;-7.376
5786724.102;-16.242;-4.396;-14.715;25.369;-11.548;-4.470;9.798;-4.582
5786724.110;-17.583;-5.886;-18.366;23.134;-13.262;-4.694;10.394;-4.247
5786724.118;-10.207;0.447;-8.047;30.063;-5.066;-2.719;13.448;-4.098
5786724.126;-3.986;5.290;-3.278;33.341;-2.421;0.894;16.838;-3.241
5786724.137;2.682;6.258;2.086;38.855;3.725;5.662;16.801;2.980
5786724.145;11.548;17.993;10.990;44.778;15.087;7.376;12.442;10.356
5786724.153;9.164;14.715;9.872;40.457;13.858;-2.161;0.298;0.224
5786724.161;2.980;9.611;4.396;35.800;11.772;-9.388;-10.952;-4.433
5786724.169;2.608;9.723;7.078;33.565;14.529;-1.453;-8.456;11.660
5786724.177;3.204;8.196;5.886;34.720;19.073;13.001;4.843;29.691
5786724.185;-0.224;1.192;4.731;32.000;14.305;14.976;6.668;30.622
5786724.193;0.745;4.135;4.359;34.347;12.927;18.440;11.511;33.863
5786724.201;1.006;4.023;1.118;35.726;10.319;19.334;18.477;28.908
5786724.209;7.972;12.927;4.396;44.554;14.007;17.807;20.936;20.377
5786724.217;16.429;22.799;11.921;54.389;18.030;15.795;22.203;17.285
5786724.225;8.494;14.640;8.158;47.609;5.327;4.694;12.517;4.657
5786724.233;8.941;13.523;5.029;50.962;11.325;8.121;17.546;1.453
5786724.241;9.537;13.858;6.296;49.286;14.491;12.256;20.713;1.751
5786724.249;3.986;7.413;2.980;44.741;5.849;7.935;15.087;-2.347
5786724.257;-1.676;7.115;-1.602;37.216;-5.811;2.496;7.451;-5.625
5786724.265;-5.662;0.298;-2.757;32.708;-12.368;1.676;1.043;-0.708
5786724.273;-2.123;-0.298;-1.229;34.980;-1.751;13.486;10.729;18.254
5786724.281;-4.508;-1.453;-4.321;32.783;-1.229;16.354;13.746;22.314
5786724.289;-3.502;0.410;-2.719;34.682;0.745;14.640;14.342;18.477
5786724.297;2.906;11.474;2.049;42.208;1.825;13.374;14.231;12.442
5786724.305;3.129;12.927;2.831;46.119;-4.359;2.049;3.763;-4.359
5786724.313;8.233;14.156;6.780;51.409;-0.745;3.763;7.600;-2.719
5786724.321;5.737;13.933;5.364;49.695;3.874;6.072;10.803;2.198
5786724.318;7.004;13.709;5.625;52.005;8.754;10.096;12.405;12.666
5786724.326;11.213;19.707;10.058;54.240;16.354;11.437;12.554;18.738
5786724.334;10.319;17.993;7.451;53.607;14.119;11.176;13.933;18.515
5786724.342;11.623;16.466;9.611;58.748;13.262;14.156;19.446;20.266
5786724.350;15.721;17.136;17.025;63.516;11.437;17.546;28.424;18.328
5786724.358;6.743;12.666;1.602;54.091;-2.682;7.972;23.022;4.247
5786724.366;4.880;14.268;-0.671;50.105;0.522;9.201;22.948;3.204
5786724.374;4.433;11.064;4.061;48.205;0.931;6.668;16.280;3.949
5786724.382;3.614;12.927;2.086;45.784;-5.327;7.115;10.803;10.692
5786724.390;1.267;11.064;-1.155;46.156;-4.582;4.061;5.141;8.829
5786724.398;3.204;8.494;2.272;52.564;-0.782;2.794;4.880;6.333
5786724.406;6.370;12.629;6.668;56.699;-0.596;9.537;15.311;12.554
5786724.414;7.227;13.486;6.892;54.576;0.969;14.864;23.060;17.881
5786724.422;-4.545;-0.037;-5.364;40.606;-3.353;10.468;17.472;14.752
5786724.430;-8.494;-2.310;-12.182;34.496;-8.531;5.178;11.921;5.662
5786724.438;-1.267;3.614;-3.986;39.153;-7.749;11.362;16.578;8.605
5786724.446;3.055;9.574;-0.745;49.658;-4.172;25.369;26.822;25.220
5786724.454;10.915;18.291;5.700;61.095;1.788;37.961;37.439;39.898
5786724.462;11.958;18.403;12.405;58.524;4.843;31.739;32.187;28.051
5786724.470;4.508;10.580;5.066;47.758;-0.745;19.260;18.999;11.362
5786724.478;5.253;12.070;3.204;48.801;-1.751;20.824;22.352;14.082
5786724.486;9.909;18.999;7.860;56.326;5.402;30.696;35.055;26.859
5786724.494;15.721;23.991;12.517;59.456;8.643;33.714;39.414;30.473
5786724.502;16.242;25.108;11.511;60.201;5.029;28.573;36.806;21.495
5786724.631;16.280;22.724;10.766;57.295;6.072;23.618;32.894;11.027
5786724.639;20.787;28.163;15.721;58.860;9.201;25.667;32.112;8.717
5786724.647;9.611;17.025;3.800;47.907;-3.874;19.521;22.687;4.172
5786724.655;5.215;11.437;-4.582;39.078;-3.055;23.469;26.263;15.460
5786724.663;10.878;17.844;6.706;38.743;15.385;32.894;37.663;30.436
5786724.671;10.468;14.901;3.166;37.551;14.901;37.290;41.425;42.319
5786724.679;8.158;15.013;0.671;39.451;10.729;35.316;39.861;37.700
5786724.687;1.118;7.674;-1.863;33.751;5.327;24.624;29.281;19.111
5786724.695;2.906;8.792;-1.527;31.255;6.892;21.383;23.805;16.801
5786724.703;2.906;7.302;-3.874;32.037;10.356;22.799;23.991;21.160
5786724.711;4.545;7.898;-3.688;32.261;14.082;24.885;26.152;23.656
5786724.719;11.213;14.678;3.278;36.620;20.415;29.653;30.287;28.796
5786724.727;14.976;18.552;9.872;43.400;25.406;28.014;29.095;27.195
5786724.735;21.681;25.481;20.526;52.191;38.370;24.438;27.455;23.544
5786724.743;16.764;19.521;13.374;47.237;33.155;17.174;19.781;15.162
5786724.751;15.944;18.850;14.678;45.858;26.114;13.895;16.838;10.841
5786724.759;17.025;24.065;14.193;47.088;22.016;14.529;19.111;7.898
5786724.767;12.740;18.626;8.605;46.454;12.256;20.489;24.587;12.405
5786724.775;14.044;18.813;7.004;54.203;16.205;23.283;26.226;18.589
5786724.783;25.071;29.728;15.646;63.702;29.653;20.154;24.475;14.976
5786724.791;30.100;31.926;22.985;68.545;34.608;21.048;27.753;14.268
5786724.799;32.596;35.539;28.238;70.520;37.216;22.985;29.430;18.924
5786724.807;22.128;26.710;15.981;59.083;29.579;19.558;23.134;16.615
5786724.815;21.867;18.030;17.919;62.585;31.665;21.458;21.569;24.773
5786724.796;21.718;23.395;18.999;61.393;35.055;22.389;22.091;29.765
5786724.804;9.798;17.211;3.763;50.701;19.781;13.262;15.572;18.664
5786724.812;7.674;7.264;3.539;48.093;10.841;15.609;17.472;16.838
5786724.820;12.890;11.325;11.697;56.177;20.228;26.450;27.120;25.220
5786724.828;14.193;16.913;9.313;59.567;19.521;30.622;31.069;30.659
5786724.836;15.944;17.360;11.548;64.820;23.022;28.796;29.840;31.181
5786724.844;15.534;18.142;10.505;67.167;20.750;20.377;23.916;23.022
5786724.852;17.770;22.575;9.947;70.557;15.348;17.621;24.438;18.366
5786724.860;16.950;20.638;4.619;75.400;14.566;16.615;26.710;14.715
5786724.868;14.752;21.346;3.651;76.517;8.680;13.784;25.444;7.115
5786724.876;16.093;22.687;6.035;76.815;3.949;15.832;26.785;4.284
5786724.884;13.486;21.234;-0.261;75.027;-2.682;24.289;31.814;16.056
5786724.892;12.591;16.466;-1.937;76.033;0.745;33.081;37.514;35.390
5786724.900;15.832;16.689;6.147;77.784;13.113;40.978;42.170;52.527
5786724.908;16.838;18.179;9.462;76.257;16.391;38.780;37.625;53.011
5786724.916;14.007;14.119;2.906;75.661;10.617;31.888;33.379;41.164
5786724.924;14.454;15.758;2.868;76.443;6.296;30.100;34.571;30.249
5786724.932;17.993;21.830;7.413;82.888;6.966;29.467;36.545;25.034
5786724.940;23.656;31.702;12.629;91.344;13.895;26.710;37.104;19.856
5786724.948;21.309;27.455;9.462;90.189;12.107;17.174;32.410;7.749
5786724.956;20.005;25.369;9.760;88.327;9.574;10.021;27.865;0.745
5786724.964;19.036;26.748;10.021;85.682;8.270;5.476;21.644;-0.335
5786724.972;19.521;28.014;11.884;86.240;10.803;11.213;23.991;7.451
5786724.980;11.846;18.440;2.086;82.552;6.817;18.999;25.481;17.546
5786724.961;5.625;11.809;-2.272;78.604;3.465;26.971;27.902;30.994
5786724.969;2.570;8.754;-5.811;71.377;4.433;31.441;31.181;38.184
5786724.977;5.662;8.866;-1.416;73.425;12.256;25.295;28.312;28.424
5786724.985;10.133;12.033;5.551;77.076;13.150;18.738;23.469;23.395
5786724.993;12.293;16.317;6.445;79.460;7.264;13.895;18.664;15.497
5786725.001;13.560;19.781;2.235;83.819;5.513;12.331;20.266;6.147
5786725.009;6.072;16.876;-6.668;77.784;-1.565;2.533;13.597;-2.123
5786725.017;14.380;19.409;1.900;80.466;10.021;2.459;11.101;1.378
5786725.025;20.191;24.028;10.319;82.254;20.638;6.668;10.133;11.697
5786725.033;21.234;24.177;16.913;84.303;21.979;11.288;13.150;19.111
5786725.041;16.242;20.526;10.505;85.868;14.417;10.729;14.082;15.646
5786725.049;17.323;22.911;11.250;89.258;16.727;14.268;17.323;15.087
5786725.057;16.056;24.699;11.064;89.109;17.695;14.417;16.093;12.927
5786725.065;15.013;19.744;8.456;84.303;15.609;13.039;13.560;15.795
5786725.073;20.415;22.314;12.964;89.183;18.254;19.297;20.564;23.954
5786725.081;22.240;25.071;15.087;94.958;14.827;21.867;22.724;25.518
5786725.089;23.693;32.857;15.534;95.442;11.623;18.626;23.209;16.876
5786725.097;20.936;27.418;8.382;86.650;10.580;9.090;17.174;1.229
5786725.105;25.406;28.647;12.368;91.419;16.205;8.047;15.050;3.204
5786725.113;31.404;32.522;20.042;99.540;21.011;14.454;19.819;17.509
5786725.121;31.218;32.522;20.005;97.677;17.881;18.440;21.383;20.191
5786725.129;26.710;29.430;18.775;92.238;11.437;21.420;22.762;20.526
5786725.137;25.034;25.332;15.236;92.797;8.233;20.191;21.867;14.678
5786725.145;32.037;34.720;15.534;103.191;15.423;27.157;30.063;22.054
5786725.142;32.745;37.998;15.795;103.749;20.340;26.934;29.653;22.762
5786725.150;31.404;35.316;15.236;101.961;15.832;19.893;23.022;13.709
5786725.158;33.714;35.986;16.242;103.712;12.293;25.295;26.636;18.142
5786725.166;39.674;45.784;24.177;107.661;22.762;32.820;34.459;31.628
5786725.174;36.955;43.586;26.189;109.635;20.713;21.867;28.126;19.521
5786725.182;38.482;46.790;25.705;113.845;16.689;11.697;21.756;6.743
5786725.190;42.394;48.093;25.108;112.690;20.899;13.486;22.240;11.437
5786725.198;40.680;46.864;21.495;110.082;24.252;20.862;26.114;24.289
5786725.206;37.625;44.554;20.489;109.375;24.401;22.464;25.257;25.071
5786725.214;28.573;37.551;11.213;102.036;13.821;17.695;22.277;14.044
5786725.222;23.693;31.441;7.339;99.391;5.774;14.454;19.968;5.327
5786725.230;28.349;35.763;13.560;104.606;4.284;18.701;22.464;9.052
5786725.238;24.140;30.808;5.402;98.310;-0.373;19.446;22.426;13.150
5786725.246;26.636;33.118;9.201;100.136;11.586;24.587;26.263;23.730
5786725.254;29.244;33.826;12.666;101.477;16.764;23.730;25.183;27.493
5786725.262;31.888;36.247;14.529;104.420;15.162;17.583;21.420;19.297
5786725.270;30.622;41.574;12.703;101.514;10.207;8.456;14.231;12.666
5786725.278;30.287;35.129;16.503;101.812;11.511;3.129;9.239;9.909
5786725.286;28.200;35.167;9.835;100.434;10.990;2.980;8.754;9.872
5786725.294;27.381;35.092;7.972;100.210;9.052;7.190;12.480;11.586
5786725.302;31.181;36.992;13.858;103.824;14.715;9.984;13.411;10.915
5786725.310;34.571;40.494;22.762;107.661;11.735;10.431;13.411;3.576
5786725.318;32.410;39.898;21.160;104.643;12.219;16.391;16.727;7.562
5786725.326;28.722;34.198;19.856;102.744;9.686;17.025;14.119;7.749
5786725.368;30.808;35.726;17.658;106.245;7.972;13.113;8.792;2.719
5786725.376;34.384;40.270;18.701;106.543;10.021;10.841;8.009;2.533
5786725.384;46.641;50.850;32.447;119.619;21.607;18.142;20.228;17.583
5786725.392;42.096;48.429;28.610;117.347;19.893;8.792;13.635;8.270
5786725.400;34.161;42.841;22.426;108.480;13.635;-0.410;2.831;-4.359
5786725.408;42.059;45.933;26.822;111.908;19.930;9.909;11.064;2.943
5786725.416;39.488;42.729;26.897;108.741;16.876;10.990;10.021;1.602
5786725.424;32.745;41.053;20.713;97.901;13.486;8.717;4.545;1.900
5786725.432;32.112;40.047;16.391;94.436;12.740;18.775;10.319;15.870
5786725.440;28.685;34.124;12.256;88.140;12.033;27.642;18.589;25.220
5786725.448;24.363;31.218;8.754;84.266;15.125;30.659;23.060;28.647
5786725.456;30.845;38.818;14.454;87.731;20.973;41.872;36.471;39.265
5786725.464;31.516;37.923;12.815;86.501;18.217;39.935;36.471;38.370
5786725.472;30.696;35.800;10.282;82.478;17.509;32.708;31.628;28.983
5786725.480;29.132;33.751;7.115;77.747;19.707;26.412;26.487;20.862
5786725.488;30.920;33.304;8.531;77.859;21.048;24.326;24.922;18.664
5786725.496;32.708;34.794;19.670;81.696;23.358;23.171;24.065;19.372
5786725.504;34.310;37.402;22.575;81.919;29.840;27.418;28.387;22.426
5786725.512;34.161;35.614;20.899;83.260;31.292;35.949;35.167;32.485
5786725.520;30.361;32.820;14.566;81.882;27.940;45.151;40.643;45.933
5786725.528;23.209;27.344;4.843;74.692;22.464;45.672;40.941;49.025
5786725.536;18.068;23.395;2.123;71.935;19.260;36.433;32.410;34.869
5786725.544;19.856;24.736;5.700;74.618;21.718;29.057;27.008;24.922
5786725.552;30.138;34.831;15.981;86.389;28.387;31.069;31.814;29.616
5786725.592;32.187;35.688;17.025;90.487;26.152;20.973;25.295;23.805
5786725.600;31.590;36.657;13.523;91.307;18.403;13.933;19.558;16.838
5786725.608;35.129;41.425;17.695;90.860;21.197;14.789;19.968;14.938
5786725.616;34.235;36.284;15.162;90.599;22.091;16.429;22.426;14.789
5786725.624;31.963;32.261;15.050;91.530;23.395;23.581;30.249;24.363
5786725.632;28.238;30.696;10.878;92.685;20.415;26.524;32.894;30.845
5786725.640;24.512;26.748;9.052;88.811;14.380;21.309;25.034;26.003
5786725.648;24.289;27.902;4.545;89.668;11.325;20.228;20.862;21.234
5786725.656;29.281;34.757;5.290;95.703;14.082;25.183;24.624;25.555
5786725.664;28.238;29.206;6.594;94.697;20.787;28.685;27.791;34.384
5786725.672;27.157;28.946;10.692;95.256;23.209;28.051;29.579;37.104
5786725.680;27.418;30.659;10.207;96.448;21.346;22.016;26.599;29.951
5786725.688;23.618;26.077;6.631;92.424;14.007;5.476;13.560;13.113
5786725.696;25.705;26.114;11.176;93.728;10.729;-4.396;7.041;-0.857
5786725.704;30.957;32.187;12.554;102.967;14.938;1.937;8.531;5.811
5786725.712;27.902;30.138;7.860;103.228;19.707;9.611;9.649;19.334
5786725.720;22.016;20.005;1.043;97.081;17.062;18.477;13.970;29.244
5786725.728;19.707;19.073;2.161;95.032;14.417;26.487;19.893;31.963
5786725.736;18.515;17.881;3.949;96.560;11.623;30.473;25.332;32.447
5786725.744;19.595;19.372;6.817;97.901;11.101;31.702;29.132;31.553
5786725.752;15.162;15.125;3.912;97.342;4.582;22.501;22.911;20.079
5786725.760;17.695;18.217;4.098;99.614;4.470;22.165;25.220;18.515
5786725.768;18.291;18.179;0.000;100.248;5.104;21.346;23.916;19.185
5786725.776;26.450;27.418;5.513;111.610;12.890;22.538;23.805;22.873
5786725.728;26.040;31.143;5.662;113.733;10.543;20.303;21.942;23.581
5786725.736;12.144;14.193;-6.221;102.147;3.986;12.778;14.901;21.979
5786725.744;22.724;19.595;8.345;108.704;24.848;23.991;21.346;35.502
5786725.752;41.947;40.233;33.192;124.462;50.925;30.771;24.475;41.910
5786725.760;63.740;60.871;62.622;133.179;77.114;35.726;26.040;42.953
5786725.768;101.514;103.265;100.955;170.730;110.194;46.380;39.786;51.074
5786725.776;149.310;155.345;149.272;217.445;141.077;50.552;47.944;54.277
5786725.784;196.509;205.413;196.323;263.713;174.642;63.889;62.212;65.789
5786725.792;235.699;249.557;229.143;303.052;198.409;66.869;66.832;67.838
5786725.800;256.710;272.207;248.700;324.249;205.562;55.693;58.562;56.140
5786725.808;265.762;280.663;259.504;334.904;208.355;38.818;45.486;33.602
5786725.816;273.399;291.243;266.768;351.891;213.198;42.133;51.260;34.980
5786725.824;269.450;294.559;259.578;352.263;201.091;51.558;59.754;42.506
5786725.832;260.249;280.105;250.787;343.956;192.672;60.014;63.628;48.578
5786725.840;247.806;264.160;231.490;336.654;181.831;69.663;65.900;63.479
5786725.848;222.884;243.969;200.979;315.011;154.823;64.634;58.450;60.834
5786725.856;201.985;223.108;176.206;296.347;126.176;62.659;56.140;59.456
5786725.864;184.588;203.922;156.686;283.793;112.504;66.198;62.808;63.777
5786725.872;173.524;190.623;149.868;276.677;109.561;69.216;71.004;65.826
5786725.880;157.356;174.902;128.299;264.794;97.118;58.673;63.106;52.601
5786725.888;149.682;165.701;121.370;255.480;92.499;57.369;58.673;55.879
5786725.896;144.392;160.784;115.745;252.724;85.235;53.719;50.142;53.905
5786725.904;130.832;143.833;100.993;240.766;67.651;43.921;38.780;40.233
5786725.912;120.550;131.577;88.699;228.956;52.787;44.368;36.657;40.494
5786725.861;115.931;125.729;85.682;227.131;53.123;60.238;50.999;49.472
5786725.869;118.054;134.148;87.731;234.842;59.642;79.907;70.184;62.138
5786725.877;119.694;134.408;87.433;234.954;60.834;91.344;78.790;66.981
5786725.885;113.994;126.138;80.019;230.260;55.581;90.636;77.561;68.694
5786725.893;105.314;116.266;71.302;222.884;50.403;80.653;70.445;66.161
5786725.901;104.383;117.607;70.594;221.580;45.598;71.190;65.342;63.032
5786725.909;97.677;110.120;62.063;217.222;31.292;60.946;59.642;54.017
5786725.917;92.201;103.042;57.407;213.869;23.507;55.730;56.885;47.274
5786725.925;97.118;111.833;56.848;218.973;36.843;65.267;64.708;62.287
5786725.933;93.803;107.363;55.432;219.941;38.296;65.826;63.628;66.012
5786725.941;92.126;101.402;55.693;220.798;35.465;63.740;63.702;55.991
5786725.949;94.846;105.463;57.183;218.898;38.855;66.198;64.485;56.438
5786725.957;98.757;110.194;65.342;223.145;43.735;72.941;67.428;61.169
5786725.965;98.050;115.931;64.448;224.039;38.669;77.114;70.669;62.101
5786725.973;90.562;103.787;54.315;217.520;31.404;66.124;61.989;48.615
5786725.981;91.977;101.961;55.768;218.153;33.341;61.877;58.636;44.107
5786725.989;97.193;107.959;59.605;219.531;36.098;67.800;63.181;53.942
5786725.997;92.685;99.167;52.936;217.445;34.943;75.214;68.396;64.671
5786726.005;86.688;93.877;54.054;210.293;31.553;72.308;65.006;58.413
5786726.013;76.778;90.301;43.474;202.209;21.867;63.218;54.501;47.274
5786726.021;75.027;87.246;43.735;199.638;21.122;60.163;51.484;39.786
5786726.029;78.268;86.576;44.219;203.066;25.071;64.448;58.897;41.574
5786726.037;80.951;90.972;45.002;207.238;25.034;64.336;59.642;43.288
5786726.045;88.029;97.528;53.607;213.720;32.149;66.534;61.914;51.595
5786726.053;85.719;92.499;52.862;206.418;36.582;59.865;55.954;49.360
5786726.061;85.719;86.688;51.633;204.332;37.625;48.354;44.405;32.820
5786726.069;92.909;95.814;60.089;211.261;38.855;45.635;42.655;30.845
5786726.077;100.918;108.033;67.502;218.041;45.486;48.354;45.747;36.955
5786726.057;108.331;114.292;70.445;228.584;54.576;59.456;56.811;51.334
5786726.065;97.752;103.787;60.126;219.159;45.858;57.109;51.707;51.670
5786726.073;87.544;95.330;52.489;206.046;33.937;48.913;40.643;46.231
5786726.081;90.450;93.654;57.034;206.269;35.465;52.042;43.660;48.839
5786726.089;92.648;98.310;63.889;208.914;42.804;57.779;49.621;49.360
5786726.097;88.662;98.422;62.063;205.189;40.531;49.360;42.543;37.588
5786726.105;92.089;102.818;62.957;209.212;43.064;45.002;38.482;28.089
5786726.113;101.253;109.971;77.896;215.359;54.017;37.327;32.783;20.526
5786726.121;115.260;124.350;93.728;224.374;66.608;26.561;29.542;14.566
5786726.129;147.521;156.723;127.703;245.534;96.001;19.819;27.567;10.245
5786726.137;176.094;188.462;158.437;264.905;123.046;21.532;28.275;14.007
5786726.145;208.654;225.194;191.443;292.249;150.241;27.642;29.393;22.464
5786726.153;237.115;250.489;225.380;309.646;174.008;34.794;33.677;31.441
5786726.161;264.160;280.254;255.257;328.384;197.589;43.511;42.506;40.792
5786726.169;272.878;294.223;260.100;332.892;200.309;40.233;41.537;34.384
5786726.177;292.435;313.297;281.446;344.962;214.577;47.386;49.844;40.382
5786726.185;299.588;317.059;288.561;345.819;225.157;49.286;52.191;42.617
5786726.193;293.106;312.962;279.658;342.131;222.065;41.835;41.313;36.210
5786726.201;291.355;311.062;278.279;339.299;231.080;43.102;37.923;39.823
5786726.209;286.587;303.648;273.548;332.855;231.527;34.422;27.381;41.202
5786726.217;280.328;295.080;268.817;327.751;224.411;22.501;18.440;39.153
5786726.225;255.890;266.731;243.075;301.674;201.948;7.711;12.517;26.226
5786726.233;231.043;246.391;218.377;277.944;182.688;-2.421;12.405;12.368
5786726.241;207.014;216.216;189.655;254.512;163.019;0.037;20.936;1.974
5786726.313;193.156;199.415;175.573;243.746;151.247;17.099;34.831;14.156
5786726.321;182.055;184.700;167.675;234.842;143.610;35.055;47.646;32.596
5786726.329;155.084;157.021;140.257;209.622;120.066;41.574;49.435;35.204
5786726.337;144.430;143.945;127.815;197.180;117.756;50.925;51.633;47.572
5786726.345;128.150;126.101;107.661;188.649;101.216;45.486;40.792;42.617
5786726.353;119.843;123.791;97.044;185.929;90.562;43.996;33.714;44.629
5786726.361;105.985;105.686;80.727;168.495;76.815;33.304;20.973;45.225
5786726.369;102.818;99.465;74.245;168.160;68.992;22.911;17.919;37.290
5786726.377;93.654;92.015;67.018;164.360;59.828;0.782;6.147;11.772
5786726.385;87.209;85.905;65.491;158.288;56.215;-11.809;-0.224;-2.123
5786726.393;77.561;77.561;50.813;154.749;46.045;-17.397;-3.465;-8.568
5786726.401;65.118;62.808;36.769;144.355;34.124;-17.807;-2.123;-16.242
5786726.409;60.983;56.028;34.608;137.053;34.310;-14.529;2.943;-18.068
5786726.417;57.071;54.874;33.192;133.961;31.888;-6.221;8.196;-6.072
5786726.425;41.202;33.304;22.314;119.694;24.810;0.484;8.792;5.141
5786726.433;31.926;25.891;9.835;113.659;13.523;9.909;10.803;9.388
5786726.441;40.457;34.235;14.827;126.138;20.973;32.447;29.542;30.547
5786726.449;38.929;34.012;14.529;126.362;23.544;37.886;33.043;35.390
5786726.457;38.780;32.187;18.179;127.107;23.544;30.510;26.077;28.424
5786726.465;41.425;32.671;18.701;128.783;16.205;21.160;16.391;21.942
5786726.473;37.402;24.140;16.280;120.588;2.459;10.580;3.241;14.678
5786726.481;36.620;35.949;10.692;128.262;-2.272;5.923;1.900;10.356
5786726.489;32.596;26.412;0.559;129.342;0.559;-1.751;2.459;4.135
5786726.497;34.086;30.883;10.245;130.795;2.533;-9.350;4.731;-4.806
5786726.523;41.276;29.318;21.681;134.073;8.196;5.849;24.550;9.015
5786726.531;41.835;35.577;16.876;137.575;17.174;25.555;40.568;27.791
5786726.539;35.986;36.731;12.107;133.067;20.750;38.706;46.529;32.932
5786726.547;36.657;34.161;19.632;131.056;16.652;51.148;52.825;35.800
5786726.555;36.135;27.791;18.217;135.005;12.629;50.329;47.423;36.769
5786726.563;23.022;14.938;1.118;114.515;-6.631;34.459;28.461;26.077
5786726.571;14.417;-2.645;-6.370;104.271;-6.519;20.079;11.884;19.595
5786726.579;22.165;8.531;-1.006;114.292;2.310;18.328;12.815;23.544
5786726.587;26.487;26.636;-1.527;133.440;-4.098;17.732;22.352;19.111
5786726.595;30.808;31.404;3.465;137.538;0.522;15.311;28.946;10.990
5786726.603;33.379;24.401;3.502;135.005;-0.745;17.062;32.969;8.941
5786726.611;32.820;20.787;2.235;129.417;1.043;15.609;29.840;1.825
5786726.619;32.932;22.277;1.192;131.316;5.066;18.626;32.894;10.803
5786726.627;12.182;4.992;-20.526;110.827;-16.354;8.307;22.426;5.774
5786726.635;7.115;-4.396;-24.438;101.700;-22.314;12.144;22.724;15.944
5786726.643;11.474;-3.725;-21.756;106.953;-17.472;23.432;28.647;26.263
5786726.651;16.950;-1.118;-10.617;115.782;-8.903;28.983;25.630;26.487
5786726.659;21.383;2.980;-6.072;118.427;-6.966;32.522;24.438;25.928
5786726.667;12.927;3.278;-20.899;112.318;-20.266;21.979;14.305;12.890
5786726.675;8.233;0.112;-28.349;110.604;-21.569;10.431;5.364;4.359
5786726.683;11.399;0.782;-19.670;111.386;-14.864;5.811;5.402;4.843
5786726.691;5.998;-8.196;-22.724;104.941;-20.303;-12.703;-2.719;-14.119
5786726.699;7.153;-2.682;-24.438;108.592;-24.401;-22.352;0.037;-26.263
5786726.707;3.166;-5.923;-26.897;107.810;-26.524;-24.624;-0.373;-33.602
5786726.732;11.958;2.719;-15.311;115.223;-16.354;-5.960;12.405;-15.981
5786726.740;24.736;16.354;-6.557;125.170;0.298;20.638;30.696;16.503
5786726.748;22.016;13.635;-10.915;119.582;0.782;29.802;29.951;28.275
5786726.756;26.599;10.766;-3.651;122.748;5.178;38.855;32.708;42.617
5786726.764;23.171;7.488;-8.419;119.135;-2.757;29.728;20.303;37.439
5786726.772;22.091;13.672;-10.133;117.384;-9.462;16.876;3.576;23.991
5786726.780;29.653;19.297;-0.782;119.396;0.745;15.050;-1.974;23.171
5786726.788;35.092;22.054;4.992;125.729;7.972;9.984;-3.651;16.913
5786726.796;38.035;26.971;6.519;129.603;8.941;5.700;0.782;9.350
5786726.804;34.198;21.495;2.310;126.697;4.061;-2.049;2.757;-5.551
5786726.812;20.526;6.519;-10.617;112.392;-13.448;-15.423;1.602;-24.252
5786726.820;29.318;16.056;-3.912;118.949;-5.625;-9.947;13.486;-19.930
5786726.828;44.256;30.473;13.895;135.899;10.580;10.319;35.278;-0.373
5786726.836;46.566;31.702;18.030;138.767;15.534;31.441;50.887;22.464
5786726.844;36.173;22.314;9.798;123.531;10.282;36.173;44.964;31.479
5786726.852;29.244;19.446;4.061;110.343;7.413;35.502;32.708;34.831
5786726.860;33.118;15.013;2.645;114.478;12.964;34.645;22.165;38.035
5786726.868;37.700;22.836;5.774;119.619;5.215;30.845;13.262;36.322
5786726.876;49.956;36.545;20.638;130.497;15.199;28.983;14.491;30.361
5786726.884;56.438;41.984;30.175;133.589;26.375;22.426;13.858;23.544
5786726.892;50.701;33.565;25.854;128.075;15.460;5.923;1.676;5.849
5786726.900;46.268;33.714;19.297;122.562;6.929;-2.719;-4.061;-0.782
5786726.908;46.603;31.926;17.285;125.170;11.660;0.745;2.831;3.017
5786726.916;43.176;25.667;12.703;123.531;7.153;12.778;19.073;9.425
5786726.855;44.256;27.642;15.013;122.972;11.846;36.471;45.151;27.567
5786726.863;41.202;24.550;12.815;121.631;6.966;51.931;57.183;40.941
5786726.871;30.957;18.701;5.066;113.212;-3.353;57.481;60.610;47.050
5786726.879;27.195;14.789;4.582;108.741;-12.107;56.401;59.642;44.741
5786726.887;30.808;17.658;2.459;110.157;-7.600;54.166;54.613;44.294
5786726.895;42.021;31.516;12.740;121.370;1.639;54.352;53.421;45.858
5786726.903;42.319;27.120;14.231;118.464;0.149;43.847;36.135;40.568
5786726.911;39.041;21.197;8.903;112.206;-5.104;29.281;20.862;25.369
5786726.919;35.167;23.544;6.668;108.443;-5.439;15.311;13.635;12.033
5786726.927;31.479;22.240;5.104;107.363;-10.245;16.280;19.483;14.566
5786726.935;27.493;15.870;-2.682;100.024;-6.221;21.234;27.344;18.813
5786726.943;27.008;12.442;-3.949;93.468;0.000;28.796;34.720;29.206
5786726.951;14.119;-0.075;-13.113;80.243;-12.368;32.932;37.625;33.900
5786726.959;8.047;-5.364;-16.578;71.712;-12.144;39.786;39.488;42.617
5786726.967;3.763;-9.499;-21.197;62.101;-14.193;46.790;43.847;51.223
5786726.975;-7.898;-19.222;-31.255;47.125;-25.332;40.419;35.390;37.998
5786726.983;-10.617;-23.991;-31.702;41.425;-24.587;33.639;27.418;28.946
5786726.991;-18.626;-30.734;-47.609;39.302;-39.227;21.011;17.025;15.609
5786726.999;-14.417;-23.209;-41.835;44.182;-35.539;12.405;11.176;10.245
5786727.007;-15.199;-26.301;-37.551;38.296;-35.502;3.874;8.233;3.539
5786727.015;-20.489;-33.453;-41.947;31.441;-40.047;-5.402;4.284;-8.456
5786727.023;-8.829;-20.154;-29.281;45.262;-26.338;-2.012;11.995;-7.413
5786727.031;-12.182;-21.011;-32.149;44.182;-28.871;-6.333;7.711;-10.021
5786727.039;-22.165;-33.900;-43.176;36.359;-36.173;-6.296;6.147;-9.127
5786727.033;-18.664;-28.908;-45.449;42.245;-29.244;7.860;17.546;5.960
5786727.041;-24.103;-31.479;-50.813;33.043;-34.943;11.101;11.437;10.878
5786727.049;-21.644;-29.579;-47.088;36.992;-37.029;11.027;3.129;11.697
5786727.057;-20.452;-28.722;-43.213;37.439;-36.396;6.482;-2.310;8.084
5786727.065;-18.328;-29.467;-38.855;38.818;-38.557;0.112;-4.433;4.098
5786727.073;-6.519;-15.236;-27.306;51.148;-26.114;4.470;6.221;9.201
5786727.081;-3.390;-12.629;-26.561;58.189;-18.738;4.806;12.740;4.247
5786727.089;-7.637;-19.185;-32.261;54.836;-18.217;0.224;11.958;-2.906
5786727.097;-4.843;-18.254;-25.034;54.017;-11.437;4.545;15.907;1.714
5786727.105;-0.224;-10.617;-19.968;59.977;-8.345;11.921;21.905;4.210
5786727.113;-3.651;-13.672;-24.810;58.338;-17.472;9.313;17.434;0.522
5786727.121;1.118;-7.972;-19.409;62.697;-15.497;1.267;8.158;-5.215
5786727.129;-2.906;-14.007;-30.994;57.481;-19.222;-11.846;-8.680;-11.474
5786727.137;4.582;-7.004;-20.601;67.800;-13.597;-6.817;-6.668;1.974
5786727.145;9.984;-2.533;-9.835;75.847;-3.725;1.900;2.384;12.517
5786727.153;10.207;-3.092;-12.480;76.406;-8.494;6.706;10.245;8.494
5786727.161;5.029;-8.382;-16.801;73.798;-12.927;5.998;13.411;-0.447
5786727.169;4.433;-8.419;-15.870;74.096;-15.721;8.978;15.795;2.459
5786727.177;0.484;-11.623;-25.965;72.606;-16.429;13.113;20.042;13.448
5786727.185;-8.382;-19.595;-35.018;70.296;-25.369;9.872;19.185;12.591
5786727.193;-10.990;-21.607;-33.006;67.428;-25.257;9.350;20.489;13.188
5786727.201;-3.837;-14.342;-26.636;75.996;-20.079;13.113;23.469;18.664
5786727.209;-1.565;-12.815;-22.724;75.363;-18.924;6.892;16.131;10.170
5786727.217;2.049;-13.262;-18.738;78.157;-16.205;1.714;7.302;3.837
5786727.226;0.410;-13.411;-17.360;79.721;-21.122;-4.061;-4.321;3.278
5786727.234;-1.639;-16.056;-23.767;77.263;-25.742;-8.158;-9.760;1.006
5786727.242;-3.837;-16.913;-24.848;71.861;-23.134;-16.019;-15.832;-7.823
5786727.250;11.101;-5.588;-8.047;83.111;-6.221;-11.884;-7.898;-5.551
5786727.258;25.332;7.674;9.015;99.093;11.809;5.364;13.374;7.935
5786727.266;32.224;16.652;13.299;103.675;17.397;15.981;25.444;12.331
5786727.274;35.129;17.248;12.927;106.841;16.317;26.003;37.402;20.228
5786727.282;22.165;11.362;-2.794;100.099;1.937;17.621;30.212;8.531
5786727.290;16.764;9.537;-4.731;96.560;-4.061;4.582;17.658;-2.682
5786727.298;16.093;1.974;-2.831;96.075;-2.645;-1.527;11.288;-0.298
5786727.306;7.562;-4.433;-13.784;87.507;-10.766;-4.694;6.221;2.459
5786727.314;10.692;-1.416;-12.964;88.215;-10.654;5.178;13.523;11.623
5786727.322;9.127;-2.943;-14.976;84.676;-13.262;6.557;13.858;5.960
5786727.330;15.013;4.247;-11.474;92.015;-11.250;12.331;18.403;5.364
5786727.338;18.589;4.992;-6.855;94.287;-6.333;13.560;18.068;3.055
5786727.346;23.767;7.264;1.155;100.397;0.298;18.328;19.856;10.058
5786727.354;23.469;6.109;1.974;99.503;3.800;23.805;22.948;23.879
5786727.362;17.360;1.825;-4.470;94.846;-3.092;19.632;21.271;23.209
5786727.370;18.626;5.998;-6.333;95.218;-10.207;17.993;23.395;11.958
5786727.378;21.495;9.798;-1.490;90.599;-7.525;19.483;24.885;10.096
5786727.386;31.590;16.466;5.327;96.299;5.625;32.410;37.625;22.016
5786727.394;27.306;12.182;-0.261;92.313;3.017;30.100;34.235;23.656
5786727.402;22.613;5.066;-1.676;87.805;3.427;22.762;23.097;19.409
5786727.410;18.664;0.186;-5.476;87.321;-1.639;15.311;14.231;14.752
5786727.482;24.028;7.935;1.267;91.083;1.341;13.001;10.617;14.007
5786727.490;31.963;18.068;14.305;97.863;9.201;11.660;10.617;13.970
5786727.498;31.963;19.148;8.866;97.491;6.743;5.662;8.047;8.345
5786727.506;31.218;17.434;7.898;94.175;4.694;3.912;9.313;-2.347
5786727.514;29.057;14.640;4.098;88.625;-0.596;7.562;13.560;0.671
5786727.522;18.515;0.075;-5.811;82.590;-8.009;5.737;10.654;0.149
5786727.530;12.293;-0.037;-12.517;79.051;-12.033;3.986;9.239;2.570
5786727.538;19.856;9.015;-6.296;84.415;-3.614;12.517;19.856;10.505
5786727.546;16.615;2.608;-6.035;78.641;-2.123;12.182;19.930;8.158
5786727.554;5.886;-4.768;-15.534;72.941;-19.260;0.671;8.494;-7.637
5786727.562;3.874;-8.494;-14.678;66.906;-15.125;4.023;10.319;-1.788
5786727.570;4.023;-8.978;-17.956;61.244;-9.462;15.236;19.073;15.162
5786727.578;1.825;-13.076;-21.830;60.499;-18.850;13.858;16.801;10.617
5786727.586;-0.671;-13.746;-22.613;59.903;-20.675;4.806;9.798;2.235
5786727.594;8.494;-4.396;-13.262;69.588;-13.337;7.823;12.442;4.880
5786727.602;2.868;-10.356;-21.011;58.785;-21.458;2.347;3.688;0.447
5786727.610;-13.821;-27.567;-39.451;42.915;-39.153;-14.491;-14.454;-20.266
5786727.618;-15.907;-29.653;-39.823;45.821;-37.439;-17.509;-15.721;-23.134
5786727.626;-12.033;-26.077;-32.485;49.099;-27.865;-11.623;-6.817;-17.323
5786727.634;-10.803;-22.985;-27.791;44.666;-27.381;-9.276;-4.545;-13.560
5786727.642;-10.356;-20.452;-30.920;44.890;-29.318;-10.058;-5.923;-15.348
5786727.650;-17.546;-25.071;-35.018;40.494;-38.072;-19.073;-12.927;-30.100
5786727.658;-9.164;-22.128;-21.756;44.182;-23.954;-18.515;-12.964;-28.312
5786727.666;-3.800;-19.856;-14.119;44.964;-12.517;-23.879;-19.036;-32.149
5786727.686;10.841;-4.135;2.794;54.277;-0.037;-28.051;-22.501;-38.818
5786727.694;55.507;40.159;48.429;89.481;40.196;-10.319;-4.619;-20.936
5786727.702;96.895;85.235;92.052;125.580;76.890;1.229;5.998;-6.668
5786727.710;133.142;127.181;126.958;154.860;103.600;-3.986;0.373;-13.448
5786727.718;168.309;165.515;162.721;183.731;132.956;-4.098;0.075;-16.242
5786727.726;200.383;194.758;200.570;204.891;166.148;5.923;9.835;-0.335
5786727.734;227.578;223.555;234.619;226.051;193.343;13.374;17.472;12.405
5786727.742;252.984;249.110;255.927;249.371;213.906;25.257;30.436;25.146
5786727.750;262.670;264.719;267.178;262.819;217.333;30.100;37.774;25.257
5786727.758;253.245;256.710;255.927;253.394;207.163;21.309;29.020;13.933
5786727.766;244.789;248.961;246.055;247.248;194.684;13.821;18.142;5.215
5786727.774;244.565;248.551;246.726;247.620;194.572;16.466;18.850;3.651
5786727.782;236.854;240.952;239.275;242.926;190.400;19.558;25.555;2.235
5786727.790;228.360;231.080;229.590;232.421;186.004;23.730;29.281;12.629
5786727.798;202.395;203.773;200.532;206.791;160.374;16.093;21.458;14.566
5786727.806;187.680;192.225;185.929;194.050;143.833;11.474;17.956;5.700
5786727.814;166.446;167.601;165.142;174.865;126.138;14.342;18.254;6.035
5786727.822;143.871;140.779;137.091;152.476;105.500;12.144;13.448;8.307
5786727.830;126.585;124.201;116.527;135.973;94.697;16.689;17.732;15.311
5786727.838;115.260;111.349;104.718;125.542;90.636;18.179;23.544;14.342
5786727.846;84.229;79.088;74.022;93.356;63.702;2.012;10.431;-3.763
5786727.854;48.578;44.182;38.221;58.897;32.522;-15.758;-8.531;-21.569
5786727.862;31.032;25.071;16.987;39.935;18.589;-20.191;-17.695;-23.097
5786727.870;26.263;20.601;9.872;35.353;16.056;-12.182;-11.362;-8.009
5786727.842;16.727;12.033;0.447;30.138;10.356;-7.302;-4.731;-0.149
5786727.850;14.044;7.041;-3.986;27.567;4.917;-0.633;4.619;7.898
5786727.858;-0.037;-12.144;-21.458;10.729;-7.786;-4.396;5.439;-3.986
5786727.866;-14.678;-21.271;-33.714;3.017;-14.417;-8.456;5.886;-14.938
5786727.874;-17.583;-22.762;-34.273;6.258;-18.813;-6.072;8.568;-17.136
5786727.882;-27.083;-31.739;-44.033;0.335;-28.051;-7.041;3.949;-17.099
5786727.890;-37.216;-42.655;-52.080;-7.302;-34.869;-11.437;-6.706;-16.876
5786727.898;-43.735;-48.690;-62.399;-10.841;-42.692;-12.740;-10.766;-16.578
5786727.906;-32.596;-36.694;-52.229;1.788;-28.089;0.261;1.490;-2.310
5786727.914;-32.596;-38.296;-52.452;4.768;-28.610;6.333;10.058;3.614
5786727.922;-45.262;-47.125;-67.130;-5.700;-40.904;-6.072;2.570;-12.517
5786727.930;-49.882;-51.856;-68.620;-10.580;-43.474;-8.941;7.711;-14.007
