Timestamp,AFz,AF3,AF4,AF7,AF8,Pz,P3,P4,2024-04-10 13:37:12.773,fs=125
2341349.132;-35.465;-33.341;-48.205;-48.466;-40.643;-10.580;-11.623;-15.087
2341349.140;-31.441;-27.381;-44.368;-43.139;-39.935;-9.499;-10.468;-13.299
2341349.148;-29.579;-25.742;-41.686;-41.574;-37.514;-8.531;-8.978;-9.723
2341349.156;-40.121;-38.333;-51.595;-54.799;-43.511;-5.104;-5.141;-4.992
2341349.164;-29.467;-29.728;-36.433;-47.795;-25.630;-3.912;-4.880;-3.278
2341349.172;-16.950;-16.801;-22.389;-39.563;-14.119;-5.886;-9.499;-5.066
2341349.180;-4.023;-6.184;-4.843;-34.161;0.186;-0.857;-4.359;-0.224
2341349.188;5.513;0.708;9.798;-31.106;14.976;1.304;-2.794;1.453
2341349.196;9.798;2.086;16.764;-36.247;26.003;0.708;-5.104;3.241
2341349.204;5.700;-2.272;14.007;-46.007;26.152;-6.184;-11.809;-0.633
2341349.212;-1.900;-8.903;5.849;-53.197;18.552;-9.127;-14.082;-3.688
2341349.220;-4.843;-10.990;1.825;-54.687;15.758;-12.256;-16.615;-7.674
2341349.228;1.602;-3.837;6.296;-47.795;22.165;-6.296;-9.723;-4.210
2341349.236;7.190;2.123;10.878;-40.270;25.555;-1.676;-3.949;-1.416
2341349.244;5.104;1.043;8.382;-40.233;24.103;0.112;-1.006;-1.229
2341349.252;1.453;-2.012;2.384;-42.282;17.919;0.075;-2.049;-0.522
2341349.260;1.751;-1.453;2.347;-41.425;17.062;2.272;-2.049;4.880
2341349.268;-3.166;-5.886;-3.278;-45.039;11.548;0.857;-5.551;5.215
2341349.276;-0.708;-2.831;0.000;-40.866;13.113;7.898;0.149;12.293
2341349.284;0.186;-1.453;1.453;-39.451;14.082;12.107;5.849;15.236
2341349.292;-0.186;-0.931;0.522;-38.445;11.325;13.225;9.611;13.970
2341349.300;-1.043;-1.229;-2.272;-38.557;9.574;14.231;13.672;13.113
2341349.308;-2.086;-2.123;-3.688;-39.302;7.637;12.331;13.076;12.554
2341349.316;-3.614;-4.135;-3.353;-41.537;8.009;10.319;10.058;11.250
2341349.328;-5.960;-6.743;-3.986;-43.884;6.966;7.004;6.147;9.499
2341349.336;-6.706;-7.823;-5.029;-42.506;8.345;3.502;2.906;6.743
2341349.344;-7.823;-8.307;-6.557;-40.568;9.052;2.459;2.719;5.849
2341349.352;-10.356;-11.362;-9.798;-40.606;5.364;1.863;1.192;3.986
2341349.360;-4.545;-7.004;-4.172;-34.869;10.580;6.855;5.886;3.651
2341349.368;6.370;3.129;7.637;-24.289;21.607;16.354;14.827;9.462
2341349.376;5.737;3.465;6.296;-21.122;20.266;17.658;13.784;12.480
2341349.384;-3.465;-5.290;-2.496;-26.822;11.995;9.686;5.588;7.674
2341349.392;-8.382;-11.288;-8.084;-31.367;5.737;0.373;-2.831;2.123
2341349.400;-11.846;-16.689;-11.958;-35.428;1.341;-1.080;-5.923;1.416
2341349.408;-14.454;-19.334;-13.225;-38.557;-0.224;-3.055;-8.345;0.373
2341349.416;-14.417;-20.675;-11.101;-40.643;2.533;-2.980;-9.947;0.373
2341349.424;-19.744;-27.008;-15.534;-49.844;-0.969;2.347;-4.321;3.800
2341349.432;-17.472;-20.787;-15.832;-40.047;-2.608;5.513;-0.596;5.662
2341349.440;-4.023;-4.694;-7.078;-16.764;-1.080;5.178;-0.298;4.694
2341349.448;-5.402;-5.178;-12.256;-11.921;-10.170;0.000;-5.141;-0.596
2341349.456;-10.021;-7.264;-20.303;-10.356;-19.893;1.751;-3.204;0.671
2341349.464;-15.423;-13.188;-28.461;-13.039;-27.344;2.906;-0.857;0.298
2341349.472;-22.203;-21.718;-33.304;-21.793;-31.367;-6.109;-8.792;-8.941
2341349.480;-20.042;-18.664;-31.926;-19.372;-30.510;-4.768;-6.780;-7.674
2341349.488;-16.652;-15.758;-28.498;-16.503;-28.275;-0.931;-3.390;-2.272
2341349.496;-17.658;-17.323;-29.504;-18.515;-28.647;-3.949;-6.445;-2.943
2341349.504;-18.217;-17.993;-29.393;-17.956;-29.057;-0.931;-4.023;-1.527
2341349.512;-20.526;-21.197;-31.367;-19.595;-31.069;-2.533;-4.582;-5.364
2341349.508;-24.289;-25.108;-34.869;-24.065;-34.273;-3.092;-6.817;-6.370
2341349.516;-28.536;-29.281;-37.327;-29.020;-37.327;-1.602;-8.121;-3.166
2341349.524;-29.169;-29.951;-38.482;-29.616;-38.929;1.676;-7.488;2.384
2341349.532;-32.783;-33.788;-42.915;-32.820;-43.400;1.378;-7.786;2.421
2341349.540;-31.665;-31.926;-41.425;-31.255;-42.804;0.857;-6.706;0.782
2341349.548;-29.840;-29.951;-39.600;-29.244;-41.202;2.608;-4.470;0.261
2341349.556;-31.590;-31.702;-41.537;-31.441;-41.910;-1.304;-8.605;-3.539
2341349.564;-33.379;-34.645;-41.462;-34.720;-40.829;-7.935;-14.566;-6.184
2341349.572;-34.012;-34.980;-40.904;-35.092;-40.755;-9.537;-15.125;-5.178
2341349.580;-40.308;-40.457;-49.397;-39.861;-49.323;-14.082;-18.403;-9.127
2341349.588;-35.353;-35.278;-47.348;-35.353;-48.839;-10.990;-14.529;-7.525
2341349.596;-29.989;-29.616;-42.655;-29.132;-44.182;-7.115;-9.350;-4.992
2341349.604;-25.928;-25.332;-38.035;-24.475;-39.190;-0.112;-2.123;0.857
2341349.612;-20.154;-19.111;-31.516;-17.472;-34.273;4.098;1.900;3.614
2341349.620;-8.605;-6.706;-19.558;-5.327;-23.842;11.511;9.872;8.941
2341349.628;-5.364;-3.278;-16.950;-2.310;-20.564;11.846;11.288;8.270
2341349.636;-6.557;-4.470;-19.148;-3.316;-21.644;8.866;8.754;5.886
2341349.644;-7.451;-5.551;-19.968;-4.098;-22.650;7.600;8.494;2.719
2341349.652;-9.462;-7.153;-20.862;-4.806;-21.867;7.562;7.600;1.341
2341349.660;-12.554;-9.723;-23.916;-7.115;-25.406;3.092;2.980;-1.565
2341349.668;-9.909;-7.935;-20.601;-5.960;-22.650;3.465;3.017;-1.229
2341349.676;-12.331;-10.170;-22.464;-9.090;-25.481;-0.671;-1.043;-4.694
2341349.684;-8.419;-6.557;-19.148;-5.141;-21.420;1.676;2.012;-1.974
2341349.692;-1.304;-0.484;-11.511;0.745;-12.852;7.339;7.041;2.682
2341349.689;0.261;-0.522;-10.133;-0.447;-13.486;4.433;5.029;0.037
2341349.697;-1.565;-1.565;-12.293;-1.080;-16.429;3.949;3.800;0.037
2341349.705;2.123;3.241;-8.754;4.023;-12.815;8.792;8.084;5.029
2341349.713;3.092;4.657;-8.345;4.061;-11.586;7.190;6.482;4.023
2341349.721;1.676;3.763;-9.835;3.129;-13.933;7.078;6.631;4.172
2341349.729;7.637;10.319;-3.465;10.431;-7.227;12.368;13.560;8.233
2341349.737;5.998;10.468;-5.662;11.325;-6.706;11.772;14.342;6.929
2341349.745;7.302;12.778;-5.923;13.933;-9.947;10.878;14.380;4.545
2341349.753;9.723;15.758;-2.868;16.093;-8.382;12.256;15.311;5.104
2341349.761;12.666;18.440;1.527;18.366;-3.465;14.491;18.217;9.350
2341349.769;12.368;17.583;2.235;17.546;-3.688;15.199;18.515;11.064
2341349.777;11.697;14.901;3.129;13.076;-2.235;15.311;17.695;10.170
2341349.785;13.001;14.864;3.800;11.548;-1.118;16.168;17.136;12.293
2341349.793;13.709;15.050;2.421;12.666;-1.676;15.274;15.646;11.660
2341349.801;6.594;7.935;-6.258;6.147;-9.313;8.345;8.903;5.849
2341349.809;9.350;10.766;-3.465;7.525;-6.072;10.580;9.425;7.264
2341349.817;15.050;15.125;0.820;9.313;-2.906;14.640;11.809;8.605
2341349.825;14.231;14.119;1.416;7.227;-2.347;11.437;9.127;6.706
2341349.833;8.494;9.201;-3.800;3.129;-7.153;7.302;4.582;5.290
2341349.841;6.370;9.835;-7.264;5.811;-9.499;10.133;6.407;8.903
2341349.849;4.061;9.239;-9.239;5.998;-10.468;10.096;6.631;9.201
2341349.857;7.451;12.740;-5.141;9.350;-6.557;9.909;7.786;10.841
2341349.865;4.470;8.792;-7.600;6.631;-7.972;6.072;5.737;6.221
2341349.873;-0.037;4.657;-12.256;2.384;-14.752;2.421;3.092;-1.378
2341349.884;-0.112;4.768;-12.442;1.863;-15.497;3.278;5.737;-2.794
2341349.892;3.725;9.425;-8.494;4.396;-12.517;7.339;11.846;1.155
2341349.900;1.453;6.743;-11.660;0.298;-17.099;8.233;13.113;2.459
2341349.908;-4.508;0.335;-18.142;-5.402;-23.656;1.900;7.264;-1.900
2341349.916;-5.476;-1.006;-19.893;-6.482;-24.736;-6.035;-1.602;-6.519
2341349.924;-4.508;-0.447;-18.291;-6.482;-24.065;-10.766;-8.568;-9.723
2341349.932;-1.453;0.969;-15.236;-5.476;-22.426;-10.952;-11.139;-9.425
2341349.940;0.149;2.570;-14.082;-5.588;-21.718;-7.786;-7.637;-6.370
2341349.948;-1.006;2.012;-15.274;-6.594;-22.203;-4.061;-4.470;-3.129
2341349.956;0.782;3.539;-13.039;-5.998;-19.446;2.384;0.969;3.465
2341349.964;0.931;3.874;-12.964;-6.072;-18.217;4.545;3.316;5.104
2341349.972;-4.843;-1.006;-19.334;-10.878;-24.177;-3.465;-1.565;-3.837
2341349.980;-0.708;3.204;-15.162;-7.115;-19.707;-6.072;-0.596;-8.084
2341349.988;2.496;6.258;-10.952;-3.092;-16.354;-6.668;0.782;-10.356
2341349.996;5.402;9.201;-7.004;-0.261;-9.350;-0.186;5.811;-5.625
2341350.004;4.396;8.903;-8.829;-1.192;-9.574;2.794;6.966;-4.247
2341350.012;4.247;7.860;-10.356;-1.714;-12.927;1.565;6.221;-5.402
2341350.020;11.884;15.609;-2.906;7.488;-7.711;7.376;12.703;-1.118
2341350.028;16.168;20.154;1.080;12.666;-5.364;7.935;13.784;1.043
2341350.036;18.924;21.160;5.551;12.666;0.037;5.811;8.978;1.825
2341350.044;18.440;18.179;6.855;9.425;2.272;6.407;7.786;3.129
2341350.052;18.664;19.148;6.892;10.319;3.427;12.331;13.672;8.009
2341350.060;16.056;17.397;3.129;9.201;-0.894;15.050;17.136;11.064
2341350.068;18.552;19.483;6.668;9.798;0.969;11.250;14.380;9.462
2341350.079;18.999;19.893;6.407;7.562;-1.714;3.278;6.296;2.831
2341350.087;19.334;20.340;7.376;7.302;-1.565;0.857;2.347;-0.820
2341350.095;20.117;21.011;7.860;9.201;-0.410;2.459;1.974;0.335
2341350.103;17.248;18.738;5.029;8.643;-1.900;1.676;-0.149;1.118
2341350.111;17.211;19.334;5.215;10.952;-1.751;1.378;-0.149;-0.373
2341350.119;22.650;26.971;11.772;19.632;4.172;1.825;1.900;0.224
2341350.127;25.332;29.877;15.460;23.171;6.706;-0.782;-1.378;-0.633
2341350.135;28.722;34.086;19.819;26.859;7.339;-5.141;-6.333;-4.247
2341350.143;45.300;51.633;38.818;46.715;23.618;3.688;4.508;3.763
2341350.151;64.559;72.271;60.238;72.345;42.245;10.319;13.858;8.233
2341350.159;78.008;88.699;73.537;91.828;49.733;13.933;19.297;10.505
2341350.167;94.958;107.326;91.419;116.415;58.562;12.554;19.744;9.462
2341350.175;108.331;122.748;109.263;138.134;66.347;0.931;9.090;-3.241
2341350.183;128.038;145.286;131.354;165.664;80.168;-1.416;5.886;-7.376
2341350.191;146.329;164.025;151.210;187.680;95.107;9.127;14.268;1.937
2341350.199;152.737;169.799;159.033;195.876;97.938;11.623;14.156;3.912
2341350.207;151.396;166.148;159.182;192.523;97.938;13.001;13.709;7.004
2341350.215;152.104;164.881;159.852;189.506;100.434;10.803;9.201;6.668
2341350.223;141.785;151.619;148.378;173.673;95.591;5.253;4.545;1.229
2341350.231;133.812;142.939;136.644;162.385;91.158;3.204;5.104;-1.676
2341350.239;121.891;130.162;122.599;146.776;83.297;0.484;3.949;-3.763
2341350.247;100.844;106.394;100.322;120.886;67.949;-6.482;-2.347;-10.133
2341350.255;81.994;85.793;80.727;98.348;55.134;-10.207;-5.402;-12.815
2341350.263;74.357;77.337;73.612;87.321;51.595;-6.743;-2.868;-10.282
2341350.303;66.832;70.073;63.591;78.417;43.586;-5.476;-3.092;-9.686
2341350.311;57.295;60.573;53.421;67.018;35.428;-3.092;-1.192;-7.488
2341350.319;49.062;52.452;46.492;57.630;31.404;-2.235;-0.261;-5.215
2341350.327;38.296;42.282;34.906;47.907;23.358;-3.986;-4.396;-4.023
2341350.335;30.138;34.124;25.854;40.345;17.248;-5.849;-7.525;-4.023
2341350.343;23.916;28.871;20.899;35.800;14.789;-8.345;-8.978;-5.215
2341350.351;21.495;26.710;18.515;33.677;13.299;-8.196;-7.711;-7.637
2341350.359;17.360;23.358;13.448;29.057;12.591;-6.519;-5.998;-10.058
2341350.367;9.611;15.162;5.290;20.079;6.482;-6.407;-7.302;-10.654
2341350.375;4.545;8.903;-1.341;14.603;1.080;-5.588;-8.978;-8.121
2341350.383;5.998;11.176;-0.633;16.652;1.043;-2.161;-4.806;-2.198
2341350.391;2.496;7.898;-2.459;11.735;-0.596;-1.639;-1.602;-2.682
2341350.399;-3.204;2.161;-6.855;5.811;-4.657;-1.229;0.633;-3.912
2341350.407;-4.023;1.341;-9.537;6.296;-9.276;-1.118;1.378;-5.700
2341350.415;1.676;6.482;-5.811;10.841;-3.614;4.992;6.631;-0.857
2341350.423;0.112;4.508;-7.562;8.419;-4.247;4.284;5.774;-0.559
2341350.431;-2.012;2.459;-9.127;5.662;-6.333;1.490;2.533;-2.943
2341350.439;1.751;5.960;-3.800;9.611;-1.602;4.768;8.307;1.639
2341350.447;-0.857;2.570;-5.886;6.594;-2.608;0.820;7.004;-0.484
2341350.455;-2.421;0.671;-7.153;4.582;-3.576;-2.012;5.327;-2.496
2341350.463;-3.912;0.224;-7.637;4.992;-3.912;-2.943;2.570;-2.123
2341350.471;-1.825;2.943;-6.147;6.966;-2.421;-2.570;0.671;-1.304
2341350.479;-3.055;2.161;-7.711;4.955;-3.092;1.900;3.055;2.608
2341350.487;-8.456;-3.576;-13.672;-1.416;-11.027;-2.384;-1.229;-1.639
2341350.468;-8.158;-4.210;-15.274;-1.602;-12.666;-4.061;-2.868;-3.502
2341350.476;-5.327;-0.894;-13.001;2.868;-12.144;-1.639;1.006;-0.112
2341350.484;-0.224;5.215;-7.525;9.760;-7.339;1.192;5.290;2.645
2341350.492;3.651;9.611;-4.284;14.044;-3.688;0.410;5.402;1.788
2341350.500;6.445;12.964;-1.825;16.652;-1.714;-1.341;4.731;-0.969
2341350.508;8.345;14.491;0.484;16.615;0.484;-2.496;3.576;-2.980
2341350.516;14.640;19.595;6.147;20.713;6.333;0.037;7.041;-3.129
2341350.524;21.011;26.412;12.964;26.710;13.374;2.980;11.474;0.969
2341350.532;19.409;24.177;12.666;24.624;13.486;1.341;9.388;2.123
2341350.540;17.472;21.495;10.580;21.160;10.170;0.149;5.178;3.278
2341350.548;15.274;18.515;10.654;17.323;9.201;-2.012;0.186;3.427
2341350.556;18.626;20.973;16.615;18.552;16.131;0.522;1.863;5.923
2341350.564;15.125;17.472;14.864;14.119;15.907;-2.347;-1.900;3.576
2341350.572;14.417;16.838;15.348;13.784;17.807;-1.714;-2.272;3.651
2341350.580;19.185;21.458;20.750;18.552;23.134;4.396;4.247;7.488
2341350.588;18.477;21.830;17.695;18.738;16.540;3.576;3.427;4.433
2341350.596;17.211;20.787;14.976;19.334;10.282;0.000;-0.708;1.788
2341350.604;17.285;21.420;14.938;19.483;7.637;-1.080;-1.043;1.937
2341350.612;17.732;22.538;16.280;18.030;7.153;3.465;1.863;5.290
2341350.620;15.721;21.756;14.491;16.764;3.651;6.296;3.204;7.041
2341350.628;17.397;24.065;16.093;19.148;4.172;12.778;10.394;11.325
2341350.636;13.411;19.707;13.448;15.907;2.198;11.735;10.356;9.313
2341350.644;17.695;21.905;17.583;18.887;7.451;12.703;11.697;10.654
2341350.652;26.897;29.691;26.822;24.922;15.981;20.675;19.521;16.242
2341350.663;22.613;24.140;22.240;18.291;12.033;18.217;16.093;13.374
2341350.671;18.068;19.781;18.179;13.933;9.984;15.050;11.548;10.952
2341350.679;18.254;21.532;17.770;15.274;8.270;15.795;11.660;11.027
2341350.687;22.277;24.475;20.973;16.913;10.394;20.601;16.764;16.280
2341350.695;19.483;20.601;18.589;11.250;9.090;18.515;14.827;14.454
2341350.703;10.319;10.505;8.568;1.304;0.894;9.462;8.345;6.594
2341350.711;9.649;10.319;8.345;1.751;0.000;9.574;9.835;8.196
2341350.719;11.325;11.995;10.096;3.837;3.204;12.666;11.437;11.213
2341350.727;12.964;12.331;12.033;4.694;6.780;15.013;12.703;14.156
2341350.735;13.113;13.001;12.964;5.402;8.047;13.597;10.990;13.597
2341350.743;13.560;14.752;12.890;7.041;6.743;7.339;4.582;8.680
2341350.751;11.884;13.411;9.164;5.215;2.421;4.433;1.527;4.917
2341350.759;9.276;10.133;5.998;0.969;-2.012;4.731;1.304;2.645
2341350.767;11.623;11.101;7.227;2.086;-0.447;7.637;4.321;3.874
2341350.775;9.127;8.382;4.694;0.335;-3.129;6.929;5.066;2.496
2341350.783;5.849;6.519;1.639;-0.708;-6.370;5.551;4.917;0.522
2341350.791;6.966;7.860;3.129;1.304;-4.284;6.519;4.582;0.857
2341350.799;7.451;9.201;3.017;2.496;-2.831;10.803;8.419;5.141
2341350.807;10.319;11.809;4.545;4.955;-1.602;18.142;15.385;13.560
2341350.815;4.657;6.557;-2.012;1.453;-8.829;15.758;14.044;11.548
2341350.823;4.321;5.700;-2.943;0.894;-10.058;12.256;12.703;7.525
2341350.831;6.668;6.966;-2.496;2.608;-9.872;11.176;12.405;5.588
2341350.839;9.798;11.064;-0.447;5.402;-8.009;17.285;18.552;9.984
2341350.847;8.009;11.101;-3.539;4.917;-13.076;16.317;19.632;9.164
2341350.859;2.719;6.221;-9.276;0.522;-19.744;12.517;17.658;4.768
2341350.867;3.576;6.557;-8.270;0.969;-17.136;10.058;14.640;2.347
2341350.875;6.109;9.537;-6.407;4.023;-15.274;12.256;16.354;3.837
2341350.883;9.872;13.858;-3.539;7.972;-11.437;14.231;17.956;6.929
2341350.891;15.311;20.489;1.043;13.486;-9.276;16.242;17.397;10.170
2341350.899;17.434;22.836;4.470;14.938;-5.178;16.242;17.062;11.064
2341350.907;11.437;15.013;-1.490;6.631;-11.064;9.388;10.468;5.029
2341350.915;13.635;17.360;-0.335;10.245;-9.462;10.617;12.219;7.004
2341350.923;13.188;17.956;-1.341;13.299;-10.990;10.654;12.964;9.425
2341350.931;13.337;18.887;-0.894;15.013;-12.144;7.451;11.213;6.296
2341350.939;14.752;21.309;0.149;16.838;-11.548;8.494;13.448;4.545
2341350.947;18.887;24.214;3.353;18.403;-8.978;12.107;17.397;7.674
2341350.955;25.108;29.244;10.878;21.495;-1.304;17.658;22.352;13.672
2341350.963;19.185;23.320;5.960;16.578;-5.066;14.529;19.111;10.729
2341350.971;12.070;16.578;0.037;9.574;-8.680;8.605;12.778;5.104
2341350.979;16.801;21.830;4.023;14.082;-4.917;6.780;10.431;4.284
2341350.987;16.876;21.160;4.210;13.523;-7.078;-1.118;2.310;-2.459
2341350.995;20.117;24.103;7.972;18.105;-3.651;-0.820;2.831;-3.390
2341351.003;15.348;19.632;3.017;15.721;-7.711;-3.353;1.341;-7.376
2341351.011;14.491;18.626;1.229;16.764;-8.792;-2.533;2.645;-5.253
2341351.019;16.391;21.197;3.390;20.973;-3.874;1.639;6.929;-0.447
2341351.027;12.219;16.391;-0.596;18.701;-6.445;-1.155;3.874;-2.906
2341351.035;18.664;21.458;5.774;25.146;-2.272;1.267;6.072;0.186
2341351.043;18.813;20.638;4.880;24.512;-3.055;0.410;3.390;-0.298
2341351.037;13.113;14.007;-0.112;19.073;-7.041;-2.719;-0.820;-4.806
2341351.045;15.609;15.758;2.198;23.246;-4.210;-2.347;0.373;-5.327
2341351.053;20.228;21.346;5.923;30.361;-2.682;2.198;4.731;-2.570
2341351.061;20.489;22.762;5.811;32.112;-2.421;2.049;5.886;-3.465
2341351.069;28.908;30.361;15.907;39.712;9.760;8.829;13.039;2.533
2341351.077;25.742;26.375;13.039;34.161;6.482;3.763;6.892;-2.272
2341351.085;29.206;28.946;16.354;36.322;9.350;6.445;9.350;0.671
2341351.093;25.965;25.257;12.964;32.075;6.258;4.657;4.657;0.261
2341351.101;25.369;26.599;13.337;33.230;7.898;4.284;2.682;0.820
2341351.109;28.461;30.920;18.179;37.774;12.666;2.831;2.496;0.782
2341351.117;31.143;33.751;22.203;41.388;15.907;1.155;1.118;0.522
2341351.125;26.450;30.212;18.142;38.818;11.660;-2.049;-1.974;-2.198
2341351.133;23.283;26.524;14.491;34.608;8.829;-3.166;-3.502;-2.012
2341351.141;20.750;22.240;11.437;29.914;8.643;-6.594;-8.456;-3.949
2341351.149;20.191;21.979;12.666;29.318;10.394;-4.470;-6.817;-2.757
2341351.157;18.105;19.558;11.474;25.928;10.580;-4.657;-5.737;-4.768
2341351.165;18.962;21.942;12.219;27.418;12.033;-3.092;-4.023;-3.055
2341351.173;20.564;25.257;12.927;30.585;12.182;-3.166;-3.017;-5.290
2341351.181;23.767;28.647;15.534;33.751;13.672;-2.868;-1.229;-5.849
2341351.189;25.816;30.510;19.036;34.571;17.136;2.272;3.614;-1.453
2341351.197;20.340;24.624;15.534;27.604;13.970;-0.261;0.522;-4.247
2341351.205;20.154;23.246;14.864;26.450;14.231;-3.241;-0.931;-6.258
2341351.213;23.432;26.710;17.732;30.585;17.285;-4.396;-0.112;-7.153
2341351.221;27.157;30.249;22.352;33.155;20.564;-2.272;1.304;-4.582
2341351.233;32.634;33.081;28.387;34.347;26.599;0.633;2.794;-1.341
2341351.241;31.665;32.224;26.226;33.602;25.295;-0.596;-0.075;-2.570
2341351.249;30.547;30.883;25.034;33.975;24.922;-0.969;-1.676;-2.310
2341351.257;31.777;32.112;26.152;36.024;27.306;-0.522;0.484;-3.204
2341351.265;33.863;34.645;28.349;38.147;28.685;0.969;2.459;-2.496
2341351.273;35.353;37.476;29.504;39.823;29.951;0.969;2.198;-2.719
2341351.281;32.522;35.763;26.077;38.929;25.444;-3.837;-3.092;-8.531
2341351.289;30.063;32.783;22.873;36.173;23.395;-6.817;-6.594;-9.686
2341351.297;29.542;31.851;22.613;35.241;24.810;-6.780;-5.439;-8.233
2341351.305;28.349;31.590;21.346;35.018;24.475;-7.451;-4.582;-8.047
2341351.313;30.883;33.826;24.736;37.812;28.312;-5.960;-2.943;-6.407
2341351.321;32.075;34.794;26.748;39.488;28.647;-4.545;-1.714;-4.955
2341351.329;32.522;35.353;27.008;40.531;26.263;-2.459;1.229;-3.353
2341351.337;30.473;33.006;24.214;38.445;22.277;-1.416;4.508;-5.141
2341351.345;33.453;35.278;26.636;39.525;25.444;3.427;9.909;-2.123
2341351.353;29.318;32.820;22.650;36.396;22.091;4.619;9.015;-0.484
2341351.361;28.871;33.379;22.240;36.880;21.234;6.221;9.574;3.092
2341351.369;24.959;29.728;18.254;32.634;17.732;3.390;5.178;1.192
2341351.377;26.077;28.908;20.154;30.771;19.670;4.284;4.545;0.522
2341351.385;29.206;32.224;23.171;35.726;22.762;4.433;3.763;-0.596
2341351.393;31.814;34.980;26.077;37.327;25.816;3.092;3.390;-2.161
2341351.401;32.708;36.135;27.008;37.625;26.412;2.310;4.545;-3.278
2341351.409;35.539;39.376;29.095;39.600;27.753;3.837;6.370;-1.006
2341351.417;37.216;40.904;31.702;40.270;30.361;4.508;7.376;1.416
2341351.429;31.702;34.533;27.455;32.783;25.146;1.416;3.614;-1.155
2341351.437;26.450;27.530;23.320;24.736;21.458;-1.155;-0.037;-4.210
2341351.445;23.246;23.507;19.670;21.346;17.658;-4.247;-1.937;-6.519
2341351.453;23.991;23.879;19.521;22.352;17.397;-3.316;-1.378;-3.539
2341351.461;22.352;21.607;18.291;19.819;15.050;-4.917;-3.390;-4.433
2341351.469;23.022;21.607;18.105;20.452;13.672;-2.123;-0.708;-3.055
2341351.477;28.275;27.679;22.724;26.450;16.503;3.949;5.066;2.012
2341351.485;29.951;30.398;24.065;27.977;19.222;6.743;8.084;3.949
2341351.493;25.705;26.710;19.744;23.469;14.976;2.980;4.172;-0.969
2341351.501;20.228;21.756;14.901;17.621;10.580;-2.347;-0.782;-5.886
2341351.509;25.630;26.971;20.787;23.022;17.099;1.751;3.800;-0.186
2341351.517;25.108;26.561;20.005;22.389;16.503;-2.272;0.261;-2.310
2341351.525;17.099;19.036;11.884;14.752;8.345;-10.692;-9.164;-9.723
2341351.533;21.085;21.495;15.944;17.583;12.629;-8.419;-6.929;-6.258
2341351.541;21.569;21.011;17.472;17.695;13.486;-9.686;-7.190;-6.482
2341351.549;22.575;22.389;18.254;18.477;14.231;-8.829;-6.109;-5.178
2341351.557;25.295;25.593;21.011;21.942;16.615;-2.980;-1.416;0.559
2341351.565;27.940;29.802;22.650;26.226;21.346;3.502;3.800;5.998
2341351.573;24.848;27.008;19.968;22.128;20.266;3.353;3.017;6.296
2341351.581;22.724;24.214;18.030;18.626;16.168;-1.527;-2.831;2.831
2341351.589;25.295;26.487;19.372;20.303;17.509;2.049;-0.335;5.290
2341351.597;28.387;29.691;21.234;23.693;17.434;2.980;1.974;4.359
2341351.605;33.304;35.614;25.667;30.436;19.856;0.782;1.863;1.043
2341351.613;36.359;40.196;28.387;34.533;21.160;2.496;4.135;1.639
2341351.608;37.886;43.213;29.393;37.178;20.415;8.829;10.021;6.035
2341351.616;35.241;39.302;27.269;32.224;20.675;10.803;11.176;7.451
2341351.624;32.485;34.869;24.810;27.418;19.185;7.339;8.456;5.141
2341351.632;40.382;42.245;32.485;34.086;24.587;6.817;8.978;7.562
2341351.640;43.251;45.523;35.241;37.476;23.693;8.643;10.990;9.462
2341351.648;38.743;41.686;31.553;33.155;18.179;3.427;4.843;4.582
2341351.656;36.210;38.072;28.647;29.579;17.397;4.582;4.545;5.215
2341351.664;32.783;33.453;25.705;23.991;16.280;4.508;5.104;3.837
2341351.672;35.688;36.769;28.610;28.126;17.770;4.955;5.849;3.763
2341351.680;36.694;38.445;28.647;31.367;16.131;-1.192;2.198;-1.155
2341351.688;34.273;35.577;26.710;27.604;12.927;-6.482;-1.527;-5.066
2341351.696;31.516;32.298;25.295;23.283;11.362;-2.682;0.149;-1.080
2341351.704;26.301;27.046;19.893;18.477;8.084;-0.745;1.229;-0.857
2341351.712;28.387;30.100;21.420;20.862;7.972;1.080;3.539;-0.782
2341351.720;32.745;34.682;26.152;25.369;13.970;2.496;4.731;0.484
2341351.728;33.453;35.875;27.642;26.710;15.534;2.868;5.588;0.671
2341351.736;34.161;36.061;27.679;27.269;15.870;2.682;5.513;0.894
2341351.744;29.095;30.398;22.128;22.128;10.766;-2.012;0.186;-3.651
2341351.752;24.885;26.785;17.583;18.515;4.359;-7.004;-4.731;-6.296
2341351.760;26.748;28.275;19.930;19.707;6.370;-7.153;-5.476;-5.513
2341351.768;30.845;31.851;23.246;22.836;11.176;-7.190;-5.029;-3.949
2341351.776;32.410;33.230;24.065;23.209;14.715;-6.594;-4.135;-2.831
2341351.784;32.224;32.745;25.034;22.538;16.503;-3.204;-1.900;-0.931
2341351.792;31.330;31.851;24.401;22.054;14.529;0.261;0.075;1.602
2341351.803;24.810;24.624;18.515;16.429;8.643;-1.304;-0.447;-2.570
2341351.811;24.922;23.805;18.328;16.578;9.164;0.969;3.204;-2.421
2341351.819;26.859;26.561;18.887;20.266;11.697;2.272;5.178;0.335
2341351.827;26.561;27.940;18.850;22.128;13.411;2.757;4.247;0.484
2341351.835;25.295;25.406;17.174;21.979;11.437;4.098;5.290;0.037
2341351.843;29.467;28.089;22.128;26.226;15.944;5.476;7.413;1.043
2341351.851;25.854;23.954;20.564;24.140;14.491;3.427;6.445;-0.969
2341351.859;19.781;17.993;15.981;19.893;11.511;-0.708;2.831;-4.582
2341351.867;23.469;22.203;20.675;25.146;17.099;5.886;9.425;1.341
2341351.875;17.509;16.838;15.534;20.377;10.692;0.708;2.757;-3.614
2341351.883;19.372;19.185;18.068;23.209;13.299;3.465;4.545;-0.112
2341351.891;26.152;24.997;25.295;29.057;20.973;7.674;8.829;5.066
2341351.899;27.567;25.481;26.971;28.312;22.314;6.929;7.302;5.327
2341351.907;28.275;26.450;25.854;30.026;21.867;5.513;5.476;4.135
2341351.915;29.020;29.206;24.922;34.198;19.670;3.427;4.880;2.123
2341351.923;26.301;27.791;20.154;35.167;14.678;4.172;6.482;-0.112
2341351.931;23.320;25.220;17.472;31.628;11.697;5.811;5.700;-1.639
2341351.939;23.395;25.481;17.248;29.467;11.437;6.482;4.768;-2.570
2341351.947;26.934;30.771;22.575;33.788;16.354;10.617;9.090;1.378
2341351.955;25.295;30.212;21.122;34.161;15.013;9.872;10.207;1.378
2341351.963;17.025;21.458;12.293;24.810;7.227;4.135;3.986;-1.974
2341351.971;13.672;19.148;10.543;22.650;6.333;3.055;2.198;-1.416
2341351.979;14.193;18.068;12.927;21.011;7.637;2.123;1.229;-1.378
2341351.987;18.887;20.452;19.334;23.060;14.529;5.625;4.210;2.161
2341351.997;24.997;25.071;26.859;27.642;22.650;8.643;6.109;6.258
2341352.005;26.301;26.375;29.206;28.983;25.071;8.866;4.768;7.451
2341352.013;28.498;27.865;31.814;31.739;26.375;9.984;3.614;8.531
2341352.021;34.794;32.745;36.620;35.651;31.404;8.568;1.453;8.419
2341352.029;39.451;38.967;40.233;40.717;34.496;5.960;-0.671;6.184
2341352.037;45.337;46.492;47.572;48.466;38.296;2.980;-2.980;3.055
2341352.045;56.364;58.375;58.673;60.350;44.331;3.092;-1.304;1.863
2341352.053;59.865;63.404;61.989;67.316;44.815;3.800;1.527;0.186
2341352.061;61.765;68.098;64.597;73.053;46.268;6.668;6.370;2.347
2341352.069;73.053;79.684;77.076;86.762;53.942;9.872;11.064;4.470
2341352.077;78.976;85.682;83.707;93.393;56.475;9.127;11.101;3.651
2341352.085;92.685;101.589;98.050;110.753;67.987;6.966;10.133;1.676
2341352.093;97.156;104.606;105.575;113.137;71.526;2.570;4.768;-2.161
2341352.101;111.051;117.905;121.221;126.660;81.658;5.662;5.439;2.198
2341352.109;119.992;125.393;132.211;136.308;88.662;10.431;9.462;6.445
2341352.117;127.703;130.832;143.610;141.300;97.826;10.170;9.425;7.562
2341352.125;136.904;138.506;154.302;149.012;106.022;12.740;11.772;8.829
2341352.133;140.667;140.220;161.044;150.241;111.572;13.672;12.480;9.984
2341352.141;148.341;147.894;169.650;157.729;114.851;16.540;15.125;13.225
2341352.149;156.760;155.866;177.287;164.844;120.848;19.744;17.546;16.615
2341352.157;149.906;150.055;170.097;158.623;114.404;17.099;14.268;13.933
2341352.165;149.421;148.080;170.879;155.494;116.862;20.154;17.621;16.205
2341352.173;141.971;140.704;163.056;145.882;114.180;15.758;14.454;14.342
2341352.181;131.913;130.571;151.992;134.334;106.692;9.611;8.494;10.505
2341352.223;121.295;119.992;138.693;122.041;97.640;4.768;3.986;5.513
2341352.231;115.931;115.037;131.316;115.335;94.809;4.470;5.513;4.992
2341352.239;99.577;99.503;113.845;99.838;81.584;0.075;0.373;1.118
2341352.247;87.023;86.091;100.061;85.831;69.514;0.075;-0.857;0.596
2341352.255;78.008;74.692;90.227;73.574;62.585;0.969;-0.373;1.602
2341352.263;72.569;70.557;82.143;68.508;58.711;6.147;4.508;6.109
2341352.271;58.450;58.934;67.391;55.544;47.162;6.184;3.912;6.370
2341352.279;53.458;53.979;62.138;50.403;43.139;5.476;2.682;6.072
2341352.287;53.160;54.352;60.238;49.323;43.400;5.625;3.017;5.886
2341352.295;44.666;46.566;49.397;41.761;34.608;5.625;4.023;5.215
2341352.303;35.316;37.253;40.457;33.118;27.567;7.413;4.098;7.525
2341352.311;27.604;28.349;34.235;23.656;22.091;5.625;-0.224;7.264
2341352.319;29.579;29.802;37.141;23.581;25.854;8.717;1.900;11.586
2341352.327;33.230;31.926;40.717;25.444;30.249;6.929;0.298;9.611
2341352.335;32.447;31.441;38.259;24.587;27.269;5.402;-1.527;6.296
2341352.343;29.579;29.281;33.639;22.538;23.544;5.700;-0.484;6.892
2341352.351;32.485;32.485;35.875;26.226;25.705;7.115;3.017;7.115
2341352.359;34.086;34.571;36.657;27.493;25.965;7.190;5.588;6.147
2341352.367;35.539;35.614;36.471;27.642;23.805;6.631;7.413;6.109
2341352.375;34.869;35.875;35.241;27.679;21.383;8.568;9.388;8.531
2341352.383;33.155;34.980;33.528;26.189;19.222;6.631;8.903;8.084
2341352.391;34.235;34.273;34.980;26.189;21.309;4.917;7.711;7.935
2341352.399;33.155;31.441;33.453;23.805;21.271;7.190;9.090;9.611
2341352.407;26.748;25.891;27.269;17.397;15.423;4.992;7.600;6.445
2341352.388;25.630;24.848;26.263;15.050;14.789;3.502;5.029;5.439
2341352.396;24.736;24.401;24.624;14.566;13.076;1.751;2.719;3.427
2341352.404;22.054;21.905;21.681;13.188;11.474;-0.857;-0.149;2.012
2341352.412;17.472;17.285;17.136;8.345;7.637;-1.863;-2.719;2.161
2341352.420;11.213;11.995;10.841;1.863;2.272;-7.190;-8.866;-1.676
2341352.428;11.846;12.070;11.399;2.608;3.688;-9.350;-10.207;-2.943
2341352.436;14.715;14.901;13.523;5.066;5.513;-9.425;-9.462;-4.619
2341352.444;18.403;18.775;16.168;9.462;7.711;-3.651;-5.029;-0.037
2341352.452;19.483;18.291;17.136;9.499;9.686;-0.671;-1.602;2.496
2341352.460;16.689;15.572;13.821;7.488;9.462;-1.490;-1.676;1.118
2341352.468;13.486;14.715;9.052;7.935;3.800;-5.290;-5.215;-2.347
2341352.476;16.093;18.664;10.878;12.554;6.072;-0.857;-1.602;0.857
2341352.484;17.695;20.005;11.623;14.268;7.562;4.955;4.470;4.843
2341352.492;22.687;25.593;17.919;19.781;13.933;12.442;12.070;10.096
2341352.500;20.638;22.091;18.179;14.938;12.703;10.915;10.133;7.711
2341352.508;21.234;21.495;17.956;14.603;11.511;10.021;10.021;7.898
2341352.516;18.515;19.111;13.597;12.219;7.711;8.084;9.686;6.519
2341352.524;17.360;17.434;12.778;9.350;7.749;7.041;9.313;6.258
2341352.532;18.664;17.285;13.597;8.531;9.649;8.270;10.058;7.972
2341352.540;23.730;20.936;19.856;10.878;16.913;12.591;14.417;13.374
2341352.548;21.495;17.285;17.695;7.041;15.311;7.562;9.090;10.431
2341352.556;22.240;19.260;17.807;9.276;13.113;8.605;8.047;11.511
2341352.564;22.911;21.569;17.993;10.617;10.841;9.239;8.531;12.368
2341352.572;22.799;20.973;17.583;8.494;10.245;7.749;7.078;12.033
2341352.568;20.452;18.589;16.689;6.035;11.027;6.706;6.557;11.958
2341352.576;20.266;18.440;16.578;7.041;14.342;9.760;9.201;14.640
2341352.584;17.658;16.727;13.001;6.407;11.548;9.723;7.302;14.305
2341352.592;16.801;16.466;10.729;7.264;8.531;8.084;4.321;12.890
2341352.600;18.924;18.179;12.256;11.176;9.537;10.505;7.525;12.591
2341352.608;18.440;17.695;12.070;13.635;10.319;10.468;9.611;10.468
2341352.616;14.193;12.703;8.009;11.288;6.557;9.239;8.233;10.431
2341352.624;9.276;8.084;3.912;8.680;4.098;7.898;6.035;9.835
2341352.632;8.307;8.009;2.384;9.499;3.278;4.992;4.396;6.296
2341352.640;12.368;13.337;5.476;15.721;7.153;6.929;7.302;8.382
2341352.648;9.313;9.947;2.943;13.076;4.768;3.166;3.316;6.109
2341352.656;9.909;8.792;5.625;11.921;6.557;3.725;2.161;6.370
2341352.664;13.076;10.170;10.282;12.666;11.735;7.711;5.253;8.754
2341352.672;14.156;8.754;12.703;12.852;14.454;10.170;8.084;11.213
2341352.680;10.096;5.849;8.643;10.505;9.239;10.096;9.015;10.878
2341352.688;7.078;3.092;5.141;7.711;6.407;8.270;6.184;9.090
2341352.696;4.284;-0.969;1.788;3.204;2.608;5.029;3.241;6.296
2341352.704;2.719;-2.012;0.298;1.714;1.527;5.253;4.806;4.806
2341352.712;5.290;0.373;2.906;3.278;5.141;9.090;8.456;6.817
2341352.720;7.711;3.390;5.625;5.402;8.717;7.786;7.525;7.413
2341352.728;8.121;5.066;5.513;6.482;9.015;5.402;4.880;6.743
2341352.736;12.629;10.580;10.654;11.660;14.156;6.743;5.886;8.531
2341352.744;13.113;11.846;11.288;12.778;14.380;7.413;6.296;8.009
2341352.752;12.554;12.666;9.425;14.901;12.778;5.513;4.508;5.253
2341352.763;11.399;12.256;8.158;14.491;12.480;4.284;3.725;5.215
2341352.771;11.027;10.952;8.307;12.740;14.044;3.316;2.719;6.109
2341352.779;6.780;5.849;3.576;7.115;8.307;-1.937;-2.347;2.459
2341352.787;8.158;7.451;4.917;9.239;7.078;0.820;0.484;4.470
2341352.795;9.798;10.692;6.035;13.188;7.749;1.788;1.527;4.396
2341352.803;15.013;16.093;11.027;17.732;14.715;0.075;0.261;2.235
2341352.811;17.956;18.030;14.938;18.403;18.999;-2.049;-1.900;1.267
2341352.819;18.552;17.062;17.248;18.068;21.160;0.186;0.075;4.731
2341352.827;18.515;16.019;18.887;17.248;22.128;3.241;3.874;9.313
2341352.835;16.391;14.491;15.683;15.944;19.111;2.831;2.272;7.376
2341352.843;15.981;15.236;14.231;18.328;18.217;5.960;4.023;8.196
2341352.851;19.707;18.403;18.217;20.899;22.873;10.096;8.643;12.368
2341352.859;18.962;16.652;17.323;18.291;19.521;7.190;5.737;9.313
2341352.867;15.795;12.182;14.380;13.113;17.025;5.290;2.757;7.004
2341352.875;14.082;10.468;13.821;12.256;16.727;7.749;3.725;9.611
2341352.883;12.405;9.425;12.219;12.405;15.385;10.356;6.631;11.064
2341352.891;8.307;6.557;7.078;11.362;10.170;7.451;5.439;8.084
2341352.899;8.196;8.121;5.662;12.740;9.015;10.468;9.499;9.835
2341352.907;6.072;6.817;4.433;10.766;6.482;10.878;10.133;7.935
2341352.915;9.127;8.643;8.047;12.368;9.462;11.586;9.052;8.196
2341352.923;12.107;10.058;10.803;12.740;10.766;8.419;5.960;6.147
2341352.931;10.245;7.190;9.909;9.574;9.015;5.625;4.135;3.949
2341352.939;14.417;12.256;15.721;13.560;15.050;9.164;8.978;7.376
2341352.947;11.474;11.213;12.107;12.144;11.809;8.382;8.903;5.700
2341352.958;16.280;17.472;15.423;18.291;13.858;13.262;12.890;10.580
2341352.966;18.068;19.707;17.285;20.415;15.087;12.815;12.219;11.437
2341352.974;11.064;12.256;12.331;13.337;9.201;8.121;5.662;8.531
2341352.982;10.245;11.101;12.293;12.070;8.978;9.649;5.588;10.654
2341352.990;11.437;12.629;12.442;13.225;9.201;13.262;9.164;14.193
2341352.998;12.480;13.858;12.703;14.044;9.127;15.795;12.368;15.572
2341353.006;19.148;20.638;18.962;20.266;16.987;23.022;21.085;20.862
2341353.014;21.160;22.389;21.197;21.458;18.738;21.122;19.521;18.328
2341353.022;18.999;20.154;18.999;19.856;15.274;18.626;17.732;16.429
2341353.030;15.236;15.609;16.727;14.715;11.809;18.775;16.838;16.391
2341353.038;10.580;9.798;12.554;8.456;8.419;13.970;10.282;13.039
2341353.046;13.821;13.188;14.156;11.399;10.245;15.087;9.760;15.348
2341353.054;20.005;19.558;19.558;18.328;16.056;20.154;13.299;21.085
2341353.062;17.881;17.732;18.291;16.615;15.087;16.578;11.437;19.297
2341353.070;14.342;14.454;16.056;12.964;12.629;12.591;9.947;15.981
2341353.078;18.887;17.993;20.303;16.205;16.801;9.276;8.680;12.442
2341353.086;21.234;19.036;21.756;16.727;19.148;5.141;5.402;7.376
2341353.094;25.928;23.581;27.008;20.750;23.656;3.204;5.588;5.737
2341353.102;26.859;25.146;28.498;22.240;24.512;1.565;4.917;4.992
2341353.110;22.389;21.234;24.624;17.881;20.750;0.000;1.043;2.608
2341353.118;23.283;21.420;25.146;17.248;21.644;2.719;2.310;4.433
2341353.126;24.624;21.346;25.705;16.391;23.507;5.849;4.619;7.264
2341353.134;22.799;20.079;24.363;14.305;20.862;2.496;1.080;5.625
2341353.142;21.681;19.856;23.991;13.448;19.446;-4.284;-4.917;-0.112
2341353.154;23.134;21.644;25.369;15.758;21.085;-6.594;-6.184;-4.433
2341353.162;24.773;23.693;26.003;19.073;22.128;-4.657;-4.545;-4.508
2341353.170;26.599;26.636;27.753;22.016;24.177;1.900;1.937;1.527
2341353.178;27.381;27.977;29.430;22.687;26.152;7.711;6.780;7.115
2341353.186;27.381;27.902;28.498;22.948;23.879;10.170;9.499;9.052
2341353.194;22.799;23.097;23.395;19.670;19.893;6.855;8.903;5.476
2341353.202;17.844;18.217;17.956;14.715;15.050;1.676;5.141;1.080
2341353.210;16.727;17.658;16.838;12.144;15.497;0.782;4.582;1.006
2341353.218;15.758;16.838;14.976;9.947;13.262;0.671;4.694;0.484
2341353.226;18.850;19.260;17.323;13.150;15.683;3.241;5.774;2.533
2341353.234;23.283;23.581;22.426;18.105;20.340;9.798;11.213;9.537
2341353.242;20.713;20.564;19.968;14.305;18.366;7.153;7.860;8.009
2341353.250;15.832;16.503;14.789;11.735;12.293;3.353;2.608;4.917
2341353.258;14.715;14.715;13.374;10.431;9.574;2.198;1.639;3.912
2341353.266;11.735;10.952;10.282;5.998;5.290;4.359;3.614;6.258
2341353.274;9.015;7.339;8.903;1.453;4.210;5.029;3.204;7.302
2341353.282;4.917;2.757;5.849;-4.247;3.390;0.261;-1.080;2.943
2341353.290;1.714;0.522;2.570;-6.929;0.298;0.820;0.261;2.459
2341353.298;4.806;4.582;5.141;-3.204;3.465;4.210;4.731;4.284
2341353.306;4.545;4.619;2.794;-2.272;2.496;1.490;4.210;1.490
2341353.314;8.456;8.158;5.551;1.825;4.955;4.657;8.084;4.582
2341353.322;8.941;9.350;6.333;2.794;4.731;6.147;8.866;6.072
2341353.330;5.513;6.109;2.645;0.298;0.261;3.390;6.035;2.719
2341353.338;10.431;10.505;5.811;5.364;4.210;6.668;9.462;3.912
2341353.349;9.052;9.388;3.241;6.109;4.098;8.568;11.995;5.178
2341353.357;11.586;12.256;5.625;11.362;5.662;13.150;18.589;9.313
2341353.365;7.898;7.898;2.570;8.643;3.800;11.325;17.956;8.605
2341353.373;5.178;4.433;1.490;7.227;2.012;8.941;14.193;6.631
2341353.381;1.267;0.559;-1.825;4.508;-2.496;1.527;5.849;-0.037
2341353.389;-0.037;-0.186;-3.763;4.917;-4.172;0.335;4.396;0.447
2341353.397;1.714;1.639;-2.645;7.376;-2.831;2.831;7.413;3.353
2341353.405;2.161;2.384;-0.857;7.153;0.559;7.972;11.474;8.196
2341353.413;-3.092;-2.272;-4.768;3.874;-3.502;5.625;8.531;5.104
2341353.421;-4.768;-4.694;-6.221;2.794;-3.837;3.688;6.147;3.576
2341353.429;-4.917;-4.470;-5.551;3.874;-2.496;5.737;6.929;5.439
2341353.437;-8.792;-8.270;-7.153;-0.969;-3.017;5.737;5.402;5.588
2341353.445;-7.451;-7.153;-6.706;-0.410;-5.700;3.912;3.427;5.327
2341353.453;-2.235;-1.229;-1.639;5.811;-2.161;3.614;2.757;3.986
2341353.461;0.335;1.378;3.465;7.674;3.353;-0.186;0.522;0.820
2341353.469;0.522;1.378;4.880;7.339;5.364;-0.075;1.788;-0.261
2341353.477;-5.811;-4.135;-1.080;2.757;1.080;-2.459;0.112;-2.496
2341353.485;-9.537;-7.376;-5.886;1.267;-1.714;-3.278;-0.261;-2.645
2341353.493;-8.717;-7.600;-4.992;0.671;-0.671;0.298;2.384;1.565
2341353.501;-9.388;-9.015;-5.625;-1.416;-2.645;2.608;2.645;4.023
2341353.509;-6.333;-5.290;-3.800;1.416;-2.906;3.725;2.980;2.906
2341353.517;-0.596;-0.335;1.788;6.072;1.788;8.084;7.823;7.115
2341353.525;1.006;1.565;3.614;7.935;3.576;10.207;8.866;10.021
2341353.533;3.055;2.906;5.662;8.680;5.923;7.786;6.557;6.780
2341353.543;4.731;5.364;6.333;9.835;8.121;2.235;3.353;2.645
2341353.551;8.419;9.947;9.947;12.890;13.933;3.949;4.508;4.619
2341353.559;9.015;9.686;10.952;13.001;15.013;2.459;3.949;3.576
2341353.567;2.608;1.863;5.588;4.992;7.674;-3.912;-0.857;-2.421
2341353.575;8.009;6.221;11.399;9.201;11.921;2.012;3.725;4.247
2341353.583;10.245;9.164;13.113;12.480;12.517;2.161;2.421;4.992
2341353.591;7.562;5.625;10.356;9.239;10.282;-0.633;-1.714;2.719
2341353.599;7.860;5.811;11.064;8.978;10.543;2.049;1.043;5.141
2341353.607;1.825;0.857;4.061;4.582;2.906;-2.421;-1.453;0.894
2341353.615;1.453;0.782;2.570;4.359;1.974;-3.241;-1.118;1.714
2341353.623;5.141;5.774;6.221;9.015;5.513;1.192;1.937;5.737
2341353.631;3.651;3.986;5.029;5.513;3.800;1.192;2.235;3.837
2341353.639;0.484;1.676;2.459;3.353;0.745;2.123;4.694;3.427
2341353.647;-1.602;-1.118;1.341;2.235;0.186;2.235;4.545;2.533
2341353.655;0.857;0.857;3.316;4.321;0.186;1.229;3.278;2.719
2341353.663;-5.327;-4.731;-2.235;-2.123;-7.004;-5.364;-2.235;-2.608
2341353.671;-7.115;-6.445;-3.465;-4.284;-8.084;-5.290;-2.384;-2.310
2341353.679;-0.037;0.484;2.719;1.937;-2.123;-0.522;1.900;2.533
2341353.687;7.413;8.680;9.574;11.027;2.310;2.012;3.651;5.923
2341353.695;5.104;7.227;6.296;9.798;-2.086;-1.080;-0.112;4.172
2341353.703;1.825;3.651;1.043;6.445;-8.680;-5.551;-4.508;-0.447
2341353.711;0.112;0.820;0.112;3.502;-10.617;-5.141;-4.061;-1.378
2341353.719;2.682;3.688;3.353;5.290;-7.525;-4.619;-2.533;0.075
2341353.727;2.421;3.949;3.465;4.545;-7.190;-6.929;-4.806;-1.714
2341353.723;6.407;7.153;7.637;7.674;-2.310;-0.186;0.857;2.608
2341353.731;8.531;8.717;10.058;9.723;1.267;4.545;6.557;5.402
2341353.739;11.921;13.150;14.082;13.560;3.129;8.903;12.256;9.201
2341353.747;12.591;14.491;14.417;15.758;1.937;11.511;15.460;11.735
2341353.755;4.061;5.290;5.774;7.488;-3.055;4.731;6.519;7.041
2341353.763;2.421;2.608;4.247;5.141;-3.763;-0.037;-0.596;2.831
2341353.771;2.608;2.421;5.364;3.874;-2.682;-5.960;-5.774;-1.341
2341353.779;4.917;5.439;8.494;5.364;-2.235;-5.402;-3.353;-0.931
2341353.787;7.004;7.674;10.878;7.711;0.261;-3.427;0.335;0.410
2341353.795;9.499;10.319;13.001;11.437;4.359;-2.086;2.831;0.931
2341353.803;11.325;11.884;12.554;14.231;5.327;1.229;5.960;2.645
2341353.811;11.548;13.001;12.591;15.646;4.508;5.998;10.021;4.880
2341353.819;9.686;11.586;11.958;15.050;1.714;11.586;14.268;9.537
2341353.827;2.906;3.949;4.508;5.849;-4.619;9.611;12.107;7.860
2341353.835;0.298;0.559;1.714;1.714;-7.488;6.631;10.543;4.843
2341353.843;1.788;0.224;3.427;1.565;-6.407;6.631;11.027;4.023
2341353.851;1.974;0.261;3.688;1.043;-5.588;7.786;11.586;4.992
2341353.859;3.316;2.012;5.290;3.390;-2.980;10.654;11.399;9.350
2341353.867;4.061;2.757;5.364;4.619;-3.241;7.786;7.376;7.413
2341353.875;4.731;2.794;7.339;3.092;-2.012;6.296;6.109;5.774
2341353.883;8.792;6.221;11.586;4.433;2.570;9.201;8.978;9.350
2341353.891;0.745;-1.527;3.912;-4.470;-3.614;3.576;4.582;3.465
2341353.899;-2.533;-3.316;-1.267;-5.066;-8.903;4.433;4.917;3.129
2341353.907;2.980;2.868;3.874;2.868;-2.868;12.442;11.735;11.660
2341353.933;6.407;5.998;6.892;6.482;1.416;13.299;11.697;14.901
2341353.941;9.611;8.382;8.605;9.649;1.565;10.282;9.574;12.964
2341353.949;6.631;5.178;6.109;6.184;-1.341;2.868;3.651;5.253
2341353.957;6.706;5.290;7.004;5.290;-1.267;-4.880;-3.427;-1.900
2341353.965;7.190;6.370;8.456;5.923;0.000;-4.880;-2.310;-3.166
2341353.973;8.419;8.307;9.798;7.078;0.969;-0.969;2.347;1.304
2341353.981;7.451;6.557;7.637;5.253;-1.080;2.123;3.949;6.035
2341353.989;5.327;5.811;3.316;4.470;-3.725;3.055;2.682;7.488
2341353.997;7.488;7.637;4.619;4.992;-1.341;7.711;4.023;12.033
2341354.005;4.880;4.582;2.533;2.123;-2.608;5.290;0.708;10.766
2341354.013;0.261;-1.602;-0.671;-2.831;-5.774;-0.373;-2.906;3.278
2341354.021;3.539;1.229;2.980;-0.037;-2.347;2.459;2.980;3.353
2341354.029;5.811;5.327;5.253;3.800;-0.224;6.035;8.829;4.806
2341354.037;10.133;9.611;9.425;8.307;3.874;12.219;13.821;9.462
2341354.045;15.199;13.635;14.901;13.299;7.600;14.529;14.417;13.001
2341354.053;8.866;5.029;7.637;3.763;0.112;10.766;7.376;12.033
2341354.061;8.456;5.178;6.296;4.731;-0.075;10.058;5.066;13.001
2341354.069;13.970;11.399;11.399;13.970;3.316;8.270;5.327;13.970
2341354.077;4.023;-0.298;1.639;3.763;-3.166;1.676;0.447;9.760
2341354.085;8.866;5.662;5.327;11.288;1.229;-0.186;-0.410;7.153
2341354.093;17.695;14.380;11.921;21.607;8.382;5.439;7.600;10.170
2341354.101;15.758;12.442;9.537;21.979;5.253;5.886;10.468;10.058
2341354.109;9.127;4.433;4.619;15.534;4.135;7.600;13.039;10.133
2341354.117;7.264;1.080;4.843;13.188;5.141;8.233;11.437;10.058
2341354.115;9.313;2.831;6.855;16.056;6.296;8.568;11.399;11.884
2341354.123;11.027;5.513;8.605;18.701;8.196;5.066;7.898;8.307
2341354.131;11.958;7.376;9.350;21.309;9.052;2.943;6.631;5.029
2341354.139;12.144;8.121;8.903;23.320;8.568;0.112;4.098;1.341
2341354.147;7.823;3.017;5.364;15.981;5.364;-1.863;0.224;0.075
2341354.155;2.310;-3.316;1.639;7.972;1.639;-3.390;-3.688;-0.335
2341354.163;5.551;-0.596;5.439;10.021;4.098;1.229;0.820;4.545
2341354.171;4.470;-1.825;3.614;8.531;2.570;4.545;4.396;7.302
2341354.179;1.639;-3.539;0.969;8.158;-0.447;6.147;9.015;8.345
2341354.187;4.284;0.931;3.465;12.778;2.012;5.104;9.537;9.313
2341354.195;0.410;-2.235;-0.782;10.021;-1.453;-1.229;1.751;4.619
2341354.203;1.714;-0.149;0.857;12.033;1.565;-1.267;0.261;4.359
2341354.211;4.768;2.496;3.800;15.981;4.806;4.135;4.210;7.488
2341354.219;1.788;-0.186;0.633;13.672;1.602;6.184;6.557;8.121
2341354.227;2.161;0.037;0.745;13.448;2.161;11.437;12.144;9.462
2341354.235;0.373;-2.496;-1.080;10.580;0.484;12.554;13.560;9.686
2341354.243;-0.894;-3.725;-1.602;9.090;-0.149;11.995;12.070;9.686
2341354.251;0.782;-1.192;-0.745;10.207;0.112;10.580;9.909;8.270
2341354.259;3.241;2.496;1.006;12.890;2.123;10.394;8.829;9.276
2341354.267;-1.602;-2.272;-4.247;7.190;-2.868;4.359;1.416;5.960
2341354.275;-4.768;-6.780;-5.215;0.894;-2.198;2.310;-0.857;5.178
2341354.283;-8.345;-12.480;-7.935;-5.402;-5.215;2.719;-0.149;5.364
2341354.291;-11.846;-16.503;-10.245;-7.525;-6.706;6.892;4.359;7.302
2341354.299;-14.156;-17.807;-11.586;-8.307;-9.015;4.172;4.061;3.017
2341354.309;-12.442;-16.727;-10.245;-7.637;-9.835;4.880;4.247;1.676
2341354.317;-10.692;-14.938;-8.568;-6.780;-8.047;5.364;2.719;2.049
2341354.325;-0.633;-5.774;0.745;1.229;1.043;7.227;3.949;6.594
2341354.333;4.247;-0.522;5.737;5.029;6.482;9.425;7.078;8.941
2341354.341;4.880;0.820;5.774;5.960;7.451;10.915;9.425;10.692
2341354.349;4.619;2.459;4.433;7.562;4.955;15.385;15.199;14.976
2341354.357;-1.006;-1.751;-1.229;4.023;0.335;18.887;18.775;16.950
2341354.365;-0.261;-0.857;-0.186;6.668;0.969;24.252;22.389;20.526
2341354.373;1.788;0.671;1.714;7.786;1.714;25.854;22.277;22.948
2341354.381;-2.533;-3.166;-0.894;3.614;-2.645;20.042;14.789;18.962
2341354.389;2.198;0.000;6.370;6.445;4.023;23.060;18.552;22.389
2341354.397;5.811;1.378;9.835;8.456;8.717;27.530;24.997;25.705
2341354.405;3.278;-0.745;7.451;6.221;6.557;25.220;24.103;21.420
2341354.413;-1.080;-3.800;2.682;2.645;-0.559;21.532;20.005;15.795
2341354.421;-4.545;-6.929;-0.931;-0.373;-5.215;15.609;14.454;10.394
2341354.429;5.923;2.906;9.201;8.270;3.725;16.987;16.391;11.027
2341354.437;9.909;5.402;14.678;9.909;9.052;13.672;14.864;5.998
2341354.445;7.302;2.086;14.156;5.327;9.313;13.635;14.715;4.657
2341354.453;5.886;2.459;13.337;6.594;9.239;19.781;21.458;11.101
2341354.461;1.267;0.484;8.494;7.376;4.321;16.503;19.260;9.760
2341354.469;-2.645;-2.049;5.774;5.923;-0.484;10.468;12.144;6.892
2341354.477;2.682;3.725;12.070;12.107;5.215;10.133;8.829;11.027
2341354.485;11.399;11.399;21.681;19.148;13.001;11.437;7.339;15.125
2341354.493;10.766;12.815;20.787;19.409;9.649;10.803;4.694;12.964
2341354.489;22.091;24.438;36.545;31.479;22.165;8.531;2.012;11.884
2341354.497;40.680;43.176;58.189;52.229;37.439;9.760;4.768;13.560
2341354.505;52.862;54.538;70.259;64.261;44.815;13.635;9.835;17.956
2341354.513;63.330;63.926;80.951;75.027;51.148;12.554;8.643;17.956
2341354.521;76.443;77.896;94.175;90.078;57.444;14.342;11.623;19.334
2341354.529;85.644;86.464;105.314;97.156;63.777;14.454;13.821;17.583
2341354.537;97.342;99.875;118.800;110.120;75.623;14.603;14.231;16.764
2341354.545;106.841;110.082;129.119;120.811;83.260;18.738;17.956;20.452
2341354.553;104.681;105.463;127.219;116.453;79.796;17.248;15.795;18.142
2341354.561;94.175;94.324;116.527;105.985;71.079;13.933;11.958;15.609
2341354.569;89.332;89.630;112.541;101.738;68.322;9.947;6.743;13.374
2341354.577;85.272;86.688;108.108;98.981;65.491;10.729;4.284;16.168
2341354.585;75.363;76.219;98.012;88.550;57.518;6.631;-0.969;12.480
2341354.593;65.230;64.187;87.395;73.873;49.397;0.857;-6.631;6.370
2341354.601;59.903;56.587;81.025;63.032;48.466;5.886;-1.043;11.735
2341354.609;51.633;45.709;73.425;51.223;45.225;6.855;4.396;11.772
2341354.617;39.004;31.926;60.275;35.577;37.588;2.794;4.396;6.370
2341354.625;37.290;31.702;54.836;34.496;34.161;4.321;9.239;5.700
2341354.633;34.943;30.287;49.025;32.000;30.734;6.631;12.815;5.625
2341354.641;33.826;28.908;46.492;29.355;30.510;7.302;9.909;7.600
2341354.649;34.347;27.716;47.311;26.822;33.826;10.394;8.978;12.815
2341354.657;36.061;28.759;50.738;26.226;39.488;17.956;12.815;22.724
2341354.665;31.292;23.656;46.752;19.260;37.961;22.538;14.044;28.349
2341354.673;19.111;10.356;33.528;6.035;26.487;15.423;6.035;21.160
2341354.683;15.870;7.153;29.430;4.098;22.016;12.442;3.912;16.242
2341354.691;16.987;9.201;28.983;8.307;19.111;11.921;5.215;15.385
2341354.699;14.529;7.302;25.816;6.407;18.552;10.170;6.072;13.448
2341354.707;14.305;6.594;25.332;5.737;18.850;13.784;12.517;16.503
2341354.715;10.431;4.023;19.819;3.986;12.815;12.405;13.448;15.050
2341354.723;3.912;-0.969;11.735;-0.782;6.594;7.413;11.213;8.531
2341354.731;-0.522;-5.625;5.700;-6.296;1.639;1.378;4.917;2.384
2341354.739;-3.129;-8.233;2.980;-9.574;-3.427;-3.539;-0.112;-0.447
2341354.747;-1.714;-7.078;4.731;-7.376;-2.235;-1.080;2.310;2.384
2341354.755;-3.017;-8.158;1.080;-6.743;-3.204;3.986;6.557;4.955
2341354.763;-7.935;-11.101;-3.129;-8.419;-5.551;9.499;12.219;10.841
2341354.771;-10.133;-12.182;-4.210;-7.413;-7.264;12.778;16.354;15.162
2341354.779;-14.342;-17.583;-7.451;-11.772;-8.419;13.597;15.646;14.678
2341354.787;-18.254;-21.644;-10.468;-14.529;-9.015;14.752;15.758;15.199
2341354.795;-22.240;-27.046;-12.442;-18.552;-9.462;13.597;13.672;13.709
2341354.803;-26.412;-32.671;-16.019;-22.314;-12.852;11.288;10.952;10.915
2341354.811;-20.787;-27.306;-11.176;-14.417;-9.984;13.933;14.491;11.139
2341354.819;-19.185;-25.257;-11.101;-10.915;-11.511;12.331;13.560;10.096
2341354.827;-20.675;-26.412;-13.039;-12.182;-11.921;6.929;7.749;5.737
2341354.835;-25.444;-31.665;-16.876;-17.472;-14.752;2.608;3.129;1.863
2341354.843;-27.381;-34.943;-19.893;-23.022;-17.993;0.373;-0.596;-0.075
2341354.851;-25.667;-32.112;-18.962;-21.607;-17.434;-0.298;-1.155;-0.671
2341354.859;-21.495;-25.965;-14.380;-14.044;-14.044;4.172;5.104;2.570
2341354.867;-15.050;-20.526;-8.456;-7.972;-9.686;8.270;10.580;5.551
2341354.893;-12.144;-18.217;-4.768;-6.147;-8.084;10.245;12.740;6.296
2341354.901;-9.835;-15.460;-2.012;-3.912;-5.811;12.219;14.007;8.717
2341354.909;-5.737;-10.133;2.496;0.782;-1.602;14.007;15.758;10.990
2341354.917;-4.917;-9.350;2.272;-0.037;-2.086;9.499;10.468;7.525
2341354.925;-0.708;-4.619;5.178;4.843;0.224;9.015;9.574;5.886
2341354.933;0.075;-3.949;6.072;6.929;-0.335;9.984;11.586;5.327
2341354.941;-0.559;-3.651;5.141;8.158;-1.416;14.827;16.727;9.462
2341354.949;-11.884;-14.566;-5.588;-3.278;-11.958;7.525;8.754;4.135
2341354.957;-20.862;-23.544;-15.274;-12.331;-21.979;2.198;2.831;0.075
2341354.965;-22.464;-23.991;-17.285;-11.548;-24.624;4.098;6.519;2.496
2341354.973;-25.891;-26.934;-20.303;-14.268;-26.748;3.390;6.407;2.459
2341354.981;-27.940;-28.759;-21.718;-16.242;-25.220;1.602;3.278;1.527
2341354.989;-29.691;-29.355;-23.134;-17.509;-28.536;-1.490;-0.186;-2.272
2341354.997;-30.287;-28.759;-24.587;-16.019;-31.143;-5.625;-2.868;-5.960
2341355.005;-29.653;-28.200;-24.736;-14.976;-29.840;-6.072;-2.421;-6.109
2341355.013;-29.244;-29.430;-24.028;-17.621;-29.281;-5.253;-2.608;-2.496
2341355.021;-32.820;-35.390;-26.710;-24.959;-31.814;-7.302;-5.439;-1.937
2341355.029;-30.063;-33.081;-22.575;-22.389;-27.828;-6.333;-3.725;0.075
2341355.037;-22.016;-26.375;-14.380;-15.981;-19.521;-6.966;-2.906;-0.410
2341355.045;-14.231;-19.334;-5.700;-8.531;-10.692;-6.147;-1.900;-1.155
2341355.053;-14.193;-19.297;-4.284;-8.419;-10.431;-9.276;-6.258;-5.141
2341355.061;-12.927;-17.509;-3.017;-7.190;-9.574;-7.823;-5.066;-4.321
2341355.069;-7.674;-10.431;0.112;-0.186;-6.631;-3.725;-1.192;0.820
2341355.077;-2.049;-3.986;3.166;5.960;-4.247;-2.198;-0.410;1.863
2341355.075;4.210;2.459;7.674;10.878;-0.149;0.969;2.384;3.390
2341355.083;2.496;0.596;5.700;8.903;-2.757;-1.900;1.825;0.447
2341355.091;2.272;-0.447;5.737;7.339;-3.017;-0.820;2.831;0.298
2341355.099;0.112;-4.433;4.359;1.453;-2.682;0.298;2.235;1.341
2341355.107;-2.198;-8.382;1.676;-2.496;-4.023;1.304;2.980;2.980
2341355.115;-7.860;-13.039;-3.614;-6.855;-9.276;2.086;4.470;3.502
2341355.123;-12.890;-16.727;-8.009;-10.207;-12.964;-0.894;2.831;1.155
2341355.131;-11.995;-15.460;-7.413;-9.425;-13.262;-2.347;1.974;-1.676
2341355.139;-11.325;-15.162;-6.743;-8.978;-14.007;-4.806;0.075;-5.104
2341355.147;-10.617;-14.193;-5.066;-9.425;-11.809;-5.662;-1.676;-5.029
2341355.155;-7.004;-8.345;-1.490;-3.912;-10.878;-3.204;-0.037;-1.937
2341355.163;-3.241;-3.465;1.229;1.378;-9.276;-1.080;2.868;0.633
2341355.171;0.075;0.522;4.135;4.321;-8.494;-1.863;2.272;2.272
2341355.179;6.631;8.531;9.686;11.474;-5.588;-0.745;2.533;4.061
2341355.187;12.256;14.193;15.460;16.391;-1.825;-1.751;1.416;3.427
2341355.195;16.652;17.546;20.377;20.489;3.465;-1.304;2.123;3.055
2341355.203;21.048;21.011;25.928;24.550;9.462;0.484;5.476;2.719
2341355.211;24.810;24.103;30.808;28.051;13.970;1.118;6.855;3.092
2341355.219;34.943;34.198;40.308;37.029;20.191;2.421;8.121;5.551
2341355.227;34.645;32.783;40.792;36.769;20.787;-5.066;-0.149;-1.080
2341355.235;34.720;32.261;41.574;37.774;20.079;-7.339;-2.421;-3.353
2341355.243;35.800;33.639;43.623;37.067;20.452;-5.141;-0.186;-1.676
2341355.251;36.359;33.267;43.251;36.024;16.317;-5.104;-0.633;-0.633
2341355.259;51.111;47.758;60.946;52.676;30.361;-6.892;-1.490;-1.043
2341355.286;62.771;59.605;76.815;65.342;43.213;-4.470;0.522;0.745
2341355.294;71.637;69.365;86.725;74.431;47.311;1.192;6.072;3.949
2341355.302;84.713;81.696;104.383;86.911;59.232;-2.608;2.719;1.080
2341355.310;96.038;91.828;118.650;96.001;70.669;-8.978;-4.359;-2.570
2341355.318;103.191;100.024;125.282;106.022;74.618;-11.325;-6.221;-3.912
2341355.326;111.312;106.767;135.452;111.945;83.782;-8.047;-2.943;-0.522
2341355.334;120.848;116.266;146.218;122.264;93.058;-7.376;-1.900;0.261
2341355.342;123.158;118.129;149.794;124.983;95.330;-9.388;-3.502;-2.645
2341355.350;118.278;113.919;144.504;119.694;92.238;-8.307;-3.055;-3.129
2341355.358;113.398;110.231;136.383;115.335;84.825;-4.917;1.863;-0.596
2341355.366;103.153;99.540;125.319;104.792;75.325;-4.508;1.863;1.192
2341355.374;99.950;96.038;121.146;102.073;73.202;-4.731;2.123;1.267
2341355.382;90.674;85.421;110.455;90.636;66.198;-10.952;-3.651;-3.278
2341355.390;85.607;78.715;103.489;82.701;65.118;-7.600;-0.559;0.857
2341355.398;74.953;66.832;91.121;69.849;58.264;-3.763;3.055;4.321
2341355.406;54.091;47.684;66.496;49.099;39.004;-9.574;-2.831;-1.751
2341355.414;36.582;30.100;46.194;31.106;22.948;-13.970;-7.674;-5.849
2341355.422;22.277;16.578;30.696;16.503;14.119;-18.030;-11.772;-8.233
2341355.430;11.846;6.035;17.583;6.855;5.178;-18.328;-11.772;-9.574
2341355.438;19.111;11.846;23.246;13.858;15.832;2.608;9.723;7.786
2341355.446;3.166;-5.066;7.153;-2.123;3.725;-4.657;1.825;0.596
2341355.454;-8.531;-17.621;-5.886;-14.901;-5.215;-9.909;-5.215;-4.172
2341355.462;-18.738;-28.126;-16.056;-25.034;-13.784;-15.050;-9.090;-9.239
2341355.470;-10.394;-18.738;-9.164;-14.417;-7.376;-9.201;-2.496;-2.831
2341355.448;-12.666;-19.185;-12.964;-13.672;-9.611;-7.339;-1.229;-0.857
2341355.456;-20.824;-26.301;-22.613;-18.440;-18.179;-14.007;-8.903;-6.855
2341355.464;-18.328;-23.842;-20.340;-14.231;-12.740;-8.829;-4.917;-1.229
2341355.472;-20.154;-26.748;-22.203;-15.311;-13.113;-8.196;-4.172;-1.937
2341355.480;-23.097;-30.473;-25.220;-16.876;-16.242;-10.468;-5.811;-4.843
2341355.488;-20.452;-26.897;-23.469;-10.431;-14.380;-7.115;-2.570;-1.080
2341355.496;-23.693;-30.324;-27.046;-11.735;-14.342;-7.898;-4.694;-3.017
2341355.504;-27.642;-35.800;-30.920;-15.646;-17.025;-6.296;-2.906;-3.800
2341355.512;-35.800;-44.219;-38.706;-24.326;-24.363;-10.096;-6.184;-8.382
2341355.520;-33.155;-40.941;-35.614;-20.862;-21.681;-8.866;-3.278;-6.929
2341355.528;-29.691;-36.433;-33.379;-16.466;-20.638;-7.972;-0.708;-7.749
2341355.536;-29.653;-36.657;-33.788;-17.509;-22.203;-8.270;-2.757;-9.462
2341355.544;-32.894;-41.127;-37.178;-20.079;-24.885;-4.582;0.075;-6.184
2341355.552;-39.414;-48.913;-42.319;-27.195;-30.026;-7.749;-3.353;-8.270
2341355.560;-43.921;-53.383;-45.486;-31.479;-34.533;-9.239;-4.545;-9.425
2341355.568;-45.262;-53.681;-46.603;-32.894;-35.614;-10.468;-6.706;-9.649
2341355.576;-51.111;-58.785;-53.346;-39.004;-42.506;-17.285;-14.417;-12.890
2341355.584;-44.405;-50.813;-47.386;-31.702;-36.992;-13.635;-10.431;-8.866
2341355.592;-43.809;-49.584;-46.268;-30.883;-36.471;-13.299;-9.872;-8.419
2341355.600;-43.847;-49.733;-48.019;-30.175;-39.227;-16.019;-13.299;-12.442
2341355.608;-46.417;-52.862;-51.334;-34.533;-41.798;-22.016;-20.154;-17.583
2341355.616;-52.303;-58.785;-56.848;-41.015;-48.168;-29.393;-26.897;-25.108
2341355.624;-50.366;-56.773;-55.395;-37.737;-48.280;-29.132;-24.103;-25.667
2341355.632;-49.099;-55.507;-53.644;-37.178;-48.317;-26.897;-21.644;-23.358
2341355.642;-47.535;-54.054;-52.415;-37.588;-50.738;-24.289;-20.377;-19.819
2341355.650;-48.503;-55.619;-53.048;-39.078;-51.148;-22.426;-18.589;-17.807
2341355.658;-45.076;-51.595;-49.137;-34.943;-47.646;-18.962;-14.901;-13.635
2341355.666;-39.004;-45.598;-42.170;-28.759;-40.606;-10.282;-7.190;-4.880
2341355.674;-42.133;-48.839;-46.007;-32.037;-45.188;-16.205;-12.778;-12.070
2341355.682;-37.998;-45.747;-44.070;-29.169;-43.847;-18.403;-14.752;-13.001
2341355.690;-31.516;-39.563;-37.998;-22.314;-36.322;-16.205;-12.219;-11.288
2341355.698;-30.994;-39.190;-38.110;-20.564;-36.173;-20.117;-15.534;-16.503
2341355.706;-28.238;-34.757;-36.247;-15.013;-34.273;-16.429;-11.250;-13.262
2341355.714;-23.507;-30.324;-30.585;-9.686;-28.796;-9.984;-3.576;-9.127
2341355.722;-14.901;-22.314;-21.346;-0.671;-20.787;-2.645;4.843;-2.310
2341355.730;-14.231;-22.538;-21.420;-0.373;-19.781;-2.831;3.353;-2.645
2341355.738;-26.375;-35.539;-32.745;-13.262;-29.951;-10.654;-7.190;-10.617
2341355.746;-28.461;-37.141;-34.086;-13.709;-31.777;-9.723;-6.370;-9.872
2341355.754;-30.175;-37.812;-34.831;-14.678;-32.224;-10.580;-6.296;-9.649
2341355.762;-29.281;-36.694;-34.012;-15.236;-32.373;-10.356;-7.451;-9.276
2341355.770;-26.077;-32.820;-31.590;-12.666;-31.441;-12.964;-9.388;-10.580
2341355.778;-23.469;-30.100;-30.212;-10.245;-31.181;-18.738;-13.970;-14.864
2341355.786;-21.756;-28.312;-27.940;-7.339;-27.232;-17.732;-13.225;-13.635
2341355.794;-18.068;-25.146;-24.065;-3.166;-22.836;-14.305;-9.462;-10.878
2341355.802;-19.595;-28.014;-25.146;-7.376;-24.512;-14.529;-9.276;-10.394
2341355.810;-19.334;-27.344;-23.618;-7.302;-24.475;-13.672;-6.706;-8.829
2341355.818;-17.621;-26.934;-22.836;-8.270;-23.209;-14.305;-7.860;-10.766
2341355.826;-20.340;-28.946;-26.114;-10.021;-25.965;-17.360;-10.356;-12.927
2341355.867;-19.260;-26.450;-26.450;-7.041;-26.934;-18.403;-10.729;-13.076
2341355.875;-20.675;-27.642;-26.561;-8.792;-27.940;-20.452;-12.293;-14.938
2341355.883;-23.693;-29.095;-28.498;-9.723;-30.063;-22.352;-11.958;-16.987
2341355.891;-22.873;-27.381;-27.940;-6.817;-30.100;-21.160;-12.666;-15.311
2341355.899;-28.610;-33.565;-34.384;-13.448;-34.422;-19.297;-11.139;-13.784
2341355.907;-27.157;-33.937;-31.851;-15.087;-30.696;-21.495;-14.007;-15.981
2341355.915;-17.546;-23.954;-22.054;-6.817;-18.626;-23.954;-18.626;-18.850
2341355.923;-21.718;-27.120;-29.020;-9.164;-24.997;-22.613;-16.093;-18.217
2341355.931;-26.226;-31.739;-34.310;-14.566;-30.436;-21.383;-15.162;-17.062
2341355.939;-32.857;-37.923;-39.525;-20.452;-33.453;-22.464;-17.248;-16.689
2341355.947;-38.408;-43.660;-44.256;-24.810;-37.812;-23.842;-20.601;-18.328
2341355.955;-36.061;-40.606;-43.176;-21.309;-38.892;-15.423;-13.076;-10.692
2341355.963;-37.104;-40.531;-47.050;-21.793;-43.288;-9.798;-6.258;-6.370
2341355.971;-36.806;-41.500;-47.721;-24.624;-46.119;-14.752;-9.723;-11.101
2341355.979;-27.642;-34.198;-38.184;-18.626;-38.035;-8.345;-3.502;-6.296
2341355.987;-24.512;-31.143;-34.235;-16.764;-36.247;-11.213;-7.488;-8.233
2341355.995;-21.532;-27.493;-31.106;-14.678;-34.273;-16.317;-15.162;-11.325
2341356.003;-22.911;-28.796;-32.447;-15.646;-33.937;-14.193;-11.995;-9.723
2341356.011;-22.314;-27.865;-32.373;-15.199;-33.602;-9.388;-7.153;-6.147
2341356.019;-24.512;-30.175;-34.496;-17.099;-34.720;-11.027;-7.711;-5.551
2341356.027;-26.934;-31.926;-36.880;-19.260;-36.731;-16.242;-12.740;-7.711
2341356.035;-20.601;-25.891;-31.814;-13.821;-31.069;-18.179;-13.374;-9.052
2341356.043;-12.144;-16.131;-24.214;-4.470;-25.220;-14.156;-9.090;-5.141
2341356.051;-7.153;-10.692;-19.595;-0.447;-21.905;-8.829;-4.582;-2.570
2341356.032;-3.874;-7.190;-16.242;1.863;-21.271;-12.182;-7.935;-6.668
2341356.040;-7.041;-11.511;-19.744;-4.061;-25.705;-11.176;-10.245;-5.960
2341356.048;-14.417;-18.217;-29.430;-11.958;-35.465;-9.499;-10.729;-6.519
2341356.056;-7.115;-9.798;-19.595;-3.017;-25.146;-18.887;-19.744;-16.317
2341356.064;-17.844;-19.595;-32.559;-10.766;-32.894;-15.125;-13.970;-11.474
2341356.072;-33.081;-34.086;-48.131;-23.842;-43.251;-17.136;-15.274;-12.927
2341356.080;-49.658;-50.589;-65.379;-39.227;-54.613;-23.954;-20.675;-18.366
2341356.088;-60.312;-62.361;-75.884;-49.733;-59.977;-25.034;-22.314;-19.148
2341356.096;-61.244;-64.485;-74.655;-50.962;-55.581;-26.263;-24.140;-18.105
2341356.104;-70.073;-72.867;-81.658;-61.542;-60.610;-29.951;-28.051;-22.538
2341356.112;-62.026;-65.342;-72.531;-54.799;-52.415;-14.454;-12.368;-11.027
2341356.120;-59.418;-63.702;-69.365;-50.925;-48.541;-20.377;-20.079;-13.970
2341356.128;-54.985;-59.903;-64.746;-45.374;-44.405;-17.993;-17.248;-12.703
2341356.136;-49.099;-54.650;-58.375;-40.047;-38.110;-12.591;-11.884;-9.090
2341356.144;-42.059;-48.690;-53.830;-32.745;-34.720;-6.445;-6.892;-3.427
2341356.152;-40.829;-47.572;-53.160;-28.908;-34.124;2.086;-0.559;5.849
2341356.160;-48.541;-55.656;-59.158;-35.651;-40.084;7.935;2.645;13.970
2341356.168;-36.843;-45.747;-46.752;-25.183;-28.349;15.497;5.960;23.730
2341356.176;-23.805;-34.273;-33.863;-12.517;-16.503;5.923;1.639;7.339
2341356.184;-18.552;-29.318;-30.845;-5.439;-14.789;3.427;3.278;2.310
2341356.192;-22.538;-33.826;-34.422;-7.115;-19.819;-1.714;-1.080;-3.651
2341356.200;-16.764;-28.163;-27.567;-0.745;-13.821;4.768;4.396;3.055
2341356.208;-15.236;-27.493;-27.269;-0.075;-14.044;5.774;4.843;6.147
2341356.216;-11.623;-24.028;-23.246;3.874;-10.543;5.662;5.178;9.499
2341356.227;-10.878;-22.091;-22.911;6.370;-11.995;7.562;5.998;13.523
2341356.235;-16.242;-26.561;-27.679;2.943;-18.813;11.884;10.170;21.420
2341356.243;-23.060;-34.124;-33.118;-3.166;-25.108;5.625;2.757;16.801
2341356.251;-19.260;-32.261;-28.759;-1.267;-21.122;-0.782;-2.310;7.078
2341356.259;-14.566;-27.604;-22.687;2.980;-16.466;-9.686;-10.431;-1.043
2341356.267;-16.280;-29.840;-25.332;2.272;-19.558;-7.227;-9.984;-0.782
2341356.275;-3.092;-16.354;-14.082;18.477;-7.525;11.325;7.823;15.013
2341356.283;-7.786;-20.899;-17.323;14.640;-8.270;11.586;8.419;14.044
2341356.291;-10.580;-26.003;-20.526;8.680;-10.245;10.915;6.370;14.976
2341356.299;-13.597;-29.020;-22.426;5.141;-13.076;16.727;14.007;18.887
2341356.307;-10.915;-25.630;-18.962;9.649;-11.697;12.256;10.841;14.715
2341356.315;-11.250;-26.338;-19.819;9.760;-11.586;-2.123;-7.153;6.482
2341356.323;-6.258;-19.632;-15.274;16.652;-8.158;-8.084;-12.033;-2.384
2341356.331;-2.719;-16.317;-12.293;20.191;-6.184;-7.451;-9.201;-7.153
2341356.339;-1.751;-16.317;-10.245;20.415;-3.539;-1.155;-3.688;0.224
2341356.347;0.931;-13.672;-7.227;23.842;-0.447;4.135;-0.112;6.929
2341356.355;8.345;-5.700;-0.224;33.379;7.004;13.337;8.605;16.540
2341356.363;7.264;-6.035;-2.198;35.502;5.104;21.756;18.030;24.810
2341356.371;5.178;-7.749;-3.390;35.390;3.241;27.567;22.575;29.616
2341356.379;0.708;-12.405;-6.929;30.920;-0.224;21.420;20.564;21.830
2341356.387;-10.394;-25.555;-17.844;18.403;-10.058;-6.855;-10.319;-1.788
2341356.395;-15.162;-29.989;-21.830;15.236;-14.007;-19.707;-25.444;-12.964
2341356.403;-6.407;-20.899;-14.119;25.518;-6.594;-8.754;-14.529;-4.098
2341356.411;1.490;-13.411;-7.711;33.788;-2.161;-0.149;-5.178;1.788
2341356.408;13.709;-3.465;5.215;43.623;11.809;14.044;10.692;14.342
2341356.416;13.374;-5.886;5.104;40.755;14.678;17.807;13.784;20.340
2341356.424;9.723;-10.058;2.086;38.557;11.921;29.281;24.810;30.659
2341356.432;17.881;-3.353;11.288;46.939;22.240;40.494;37.067;41.761
2341356.440;13.411;-9.090;7.413;41.872;20.973;17.993;7.041;25.369
2341356.448;10.468;-12.331;6.035;40.308;21.085;12.778;5.960;15.311
2341356.456;4.545;-19.073;1.155;34.571;16.950;4.955;-0.559;5.625
2341356.464;9.015;-15.572;4.284;38.780;20.936;10.952;2.906;11.958
2341356.472;17.621;-7.190;11.697;49.323;29.057;18.179;13.188;17.695
2341356.480;2.943;-22.948;-3.502;34.869;15.162;4.843;-0.037;4.247
2341356.488;-4.545;-30.510;-10.394;28.536;9.462;6.780;3.204;5.364
2341356.496;1.155;-26.450;-4.545;33.863;16.615;14.268;9.984;11.101
2341356.504;-3.316;-31.516;-7.190;30.398;13.597;3.465;-2.719;3.204
2341356.512;23.358;-3.651;19.297;60.424;39.414;17.099;14.789;16.913
2341356.520;36.247;9.798;31.292;76.704;52.042;23.320;23.060;22.799
2341356.528;12.591;-14.752;10.505;55.470;31.888;-0.186;0.522;1.192
2341356.536;-4.917;-31.553;-5.402;41.015;18.962;-18.217;-17.658;-15.125
2341356.544;3.092;-23.209;2.645;51.633;28.200;0.745;0.261;2.943
2341356.552;33.639;8.605;33.602;85.793;59.158;42.506;43.400;41.351
2341356.560;10.915;-14.789;12.182;66.124;38.743;28.275;29.057;30.138
2341356.568;1.229;-24.773;3.278;57.183;31.292;10.468;12.740;15.981
2341356.576;-4.992;-29.206;-4.619;53.793;24.810;14.491;17.621;20.154
2341356.584;-4.768;-27.828;-6.892;58.748;25.220;7.637;14.454;11.958
2341356.592;-9.276;-33.118;-11.697;55.805;25.481;-7.004;3.912;-3.166
2341356.616;-22.314;-47.311;-24.810;43.698;15.050;-14.417;-5.178;-7.600
2341356.624;-7.749;-32.857;-10.021;61.020;30.175;0.261;13.672;4.433
2341356.632;-15.162;-40.047;-18.775;56.215;23.469;0.484;13.299;4.247
2341356.640;-23.395;-48.317;-29.020;50.552;14.901;-1.900;11.474;1.825
2341356.648;-17.658;-41.910;-25.630;58.413;19.222;6.631;22.352;11.474
2341356.656;-20.601;-45.039;-27.977;56.215;21.011;4.135;18.813;9.947
2341356.664;-21.420;-46.790;-28.163;56.401;25.295;3.912;21.309;8.866
2341356.672;-16.354;-41.351;-22.277;63.516;31.926;1.676;17.583;10.505
2341356.680;-20.005;-43.847;-25.891;61.542;29.914;3.204;21.867;9.947
2341356.688;-24.252;-47.684;-28.275;59.567;29.057;0.484;21.234;8.754
2341356.696;-21.420;-45.225;-26.673;63.330;31.665;-0.633;19.409;7.860
2341356.704;-22.911;-46.678;-27.791;61.616;31.367;3.614;23.916;9.015
2341356.712;-40.010;-63.516;-44.778;44.592;16.764;-0.037;15.758;5.774
2341356.720;-53.272;-77.002;-58.301;31.367;7.115;-0.149;12.368;3.986
2341356.728;-54.389;-77.821;-58.524;30.212;10.394;8.717;20.303;10.915
2341356.736;-42.394;-66.459;-46.231;42.394;24.587;25.332;33.453;25.965
2341356.744;-38.221;-61.840;-42.133;45.747;31.404;29.057;35.763;29.542
2341356.752;-50.850;-74.208;-54.240;32.075;20.079;15.013;19.856;14.715
2341356.760;-67.614;-91.977;-71.414;13.039;4.396;1.863;2.906;2.980
2341356.768;-63.963;-88.736;-70.073;16.615;7.525;10.952;11.884;7.190
2341356.776;-57.220;-81.956;-62.846;23.767;17.323;32.075;28.349;28.014
2341356.784;-67.204;-92.760;-72.084;12.293;9.462;21.607;17.658;14.193
2341356.792;-75.959;-101.812;-80.429;2.943;1.527;18.440;12.554;9.947
2341356.800;-88.587;-113.696;-92.424;-9.239;-8.829;22.687;15.348;13.597
2341356.814;-92.387;-116.490;-95.889;-13.188;-12.666;19.297;10.356;12.517
2341356.822;-96.709;-122.450;-99.279;-18.850;-14.342;11.139;0.857;2.645
2341356.830;-92.983;-120.290;-94.846;-15.274;-8.494;20.415;9.499;9.798
2341356.838;-94.250;-119.954;-98.087;-15.721;-13.188;15.199;3.576;1.527
2341356.846;-99.204;-124.946;-103.563;-19.372;-18.701;17.993;4.731;3.986
2341356.854;-112.988;-139.549;-115.447;-32.894;-30.026;13.560;-2.533;2.608
2341356.862;-113.733;-140.034;-117.123;-32.224;-33.379;5.923;-12.442;-5.923
2341356.870;-105.985;-130.422;-110.082;-20.079;-24.810;18.403;2.794;3.576
2341356.878;-116.751;-138.618;-120.811;-28.238;-34.496;16.838;-0.112;3.539
2341356.886;-116.527;-138.097;-118.986;-26.412;-33.081;22.799;4.657;7.153
2341356.894;-119.917;-142.120;-119.954;-29.691;-35.390;9.611;-4.806;-10.282
2341356.902;-126.697;-148.043;-127.330;-37.774;-42.990;8.009;-12.331;-9.239
2341356.910;-117.421;-138.618;-117.049;-29.393;-32.112;22.575;-0.335;3.465
2341356.918;-127.293;-149.384;-125.058;-41.649;-39.600;12.778;-12.554;-5.960
2341356.926;-129.379;-151.880;-126.176;-43.586;-42.133;8.121;-20.042;-9.239
2341356.934;-137.351;-159.405;-132.956;-50.850;-47.423;3.912;-21.383;-13.933
2341356.942;-118.837;-141.412;-112.765;-34.347;-25.220;29.430;2.272;11.250
2341356.950;-119.060;-142.157;-111.237;-36.173;-25.071;28.983;1.751;14.901
2341356.958;-122.488;-144.541;-114.329;-38.706;-28.610;18.775;-3.353;0.149
2341356.966;-131.950;-152.513;-123.121;-47.497;-36.322;11.623;-12.890;-6.109
2341356.974;-138.879;-159.703;-128.224;-54.464;-38.594;1.341;-24.214;-14.938
2341356.982;-134.259;-155.121;-122.450;-49.695;-29.840;-0.820;-25.928;-18.254
2341356.990;-123.046;-143.312;-110.604;-37.923;-14.752;9.649;-15.311;-9.239
2341356.998;-131.428;-152.402;-119.470;-49.472;-22.799;8.233;-17.472;-10.654
2341356.992;-146.367;-168.756;-133.477;-66.012;-34.645;0.037;-27.269;-17.881
2341357.000;-136.830;-157.356;-123.195;-52.974;-20.452;6.147;-18.105;-15.646
2341357.008;-131.987;-151.806;-118.315;-47.460;-18.254;9.835;-16.391;-11.921
2341357.016;-142.567;-161.640;-125.542;-57.817;-25.183;-7.376;-33.975;-25.705
2341357.024;-156.611;-174.195;-136.010;-70.445;-34.459;-27.567;-55.358;-45.560
2341357.032;-138.916;-153.817;-118.986;-51.409;-17.956;-7.898;-36.806;-28.685
2341357.040;-113.025;-126.958;-93.617;-25.854;0.410;0.931;-26.859;-23.022
2341357.048;-92.983;-106.320;-70.147;-7.488;15.758;-4.768;-34.608;-27.455
2341357.056;-71.898;-83.856;-46.901;16.801;30.808;-6.855;-34.906;-30.287
2341357.064;-62.846;-73.276;-37.923;27.083;38.669;-16.838;-42.655;-42.245
2341357.072;-30.249;-36.992;-2.868;67.055;78.678;2.459;-23.730;-25.183
2341357.080;-27.530;-30.324;3.576;76.741;85.309;-0.559;-26.636;-26.301
2341357.088;-13.486;-16.615;22.240;90.525;100.359;2.161;-26.971;-22.911
2341357.096;-1.900;-3.800;34.161;103.489;110.082;-3.651;-32.298;-29.728
2341357.104;-8.009;-5.774;32.261;103.824;102.781;-19.521;-48.690;-46.901
2341357.112;-3.986;-1.565;40.196;106.692;106.618;-33.006;-62.212;-61.616
2341357.120;-6.743;-4.992;41.276;101.179;108.890;-37.476;-69.477;-60.946
2341357.128;0.782;2.198;52.974;110.716;120.513;-31.702;-63.591;-58.487
2341357.136;17.770;19.483;74.729;128.634;141.673;-15.907;-44.852;-44.778
2341357.144;13.486;17.807;69.067;122.227;136.457;-12.890;-43.251;-39.563
2341357.152;-7.451;-3.204;50.664;100.285;121.035;-27.791;-61.467;-51.409
2341357.160;-1.006;3.316;60.350;106.767;130.571;-25.071;-56.103;-49.286
2341357.168;-16.987;-11.697;46.045;88.774;113.472;-51.633;-82.254;-72.904
2341357.176;-45.076;-40.233;19.781;59.940;84.601;-91.642;-120.811;-109.263
2341357.189;-34.459;-27.828;30.100;72.792;93.691;-77.114;-102.036;-97.118
2341357.197;7.190;14.342;70.147;114.478;130.162;-33.788;-58.040;-55.842
2341357.205;14.491;20.079;78.492;118.129;137.649;-36.508;-60.163;-57.891
2341357.213;-11.362;-7.264;55.395;87.693;116.192;-65.118;-90.040;-84.788
2341357.221;-33.118;-29.169;34.645;63.702;96.224;-92.611;-116.043;-110.194
2341357.229;-49.435;-46.790;19.073;46.939;78.939;-109.561;-132.248;-126.474
2341357.237;-65.230;-63.516;5.960;28.610;64.895;-124.611;-151.768;-134.483
2341357.245;-0.186;1.788;70.669;92.983;129.119;-55.395;-78.827;-70.259
2341357.253;-8.568;-6.258;62.436;82.403;121.035;-71.935;-94.436;-87.470
2341357.261;-1.565;2.570;69.737;91.568;127.889;-61.803;-81.509;-80.913
2341357.269;-1.267;3.353;67.689;92.126;125.170;-48.690;-66.608;-69.253
2341357.277;-29.318;-27.977;39.227;56.513;96.373;-74.767;-92.871;-91.754
2341357.285;-40.941;-40.643;27.120;42.282;85.533;-83.111;-99.316;-99.204
2341357.293;-39.339;-38.445;25.630;42.580;82.627;-81.807;-96.746;-99.838
2341357.301;-50.962;-49.137;12.442;28.722;68.694;-83.782;-97.081;-103.638
2341357.309;-73.239;-71.749;-12.815;4.023;45.225;-95.107;-110.418;-112.019
2341357.317;-85.495;-84.862;-26.785;-11.809;30.473;-102.744;-121.519;-114.925
2341357.325;-97.603;-96.485;-41.537;-25.742;13.933;-103.228;-119.880;-113.994
2341357.333;-113.100;-111.386;-60.722;-42.953;-4.619;-107.810;-126.883;-117.458
2341357.341;-138.283;-136.644;-86.837;-70.147;-28.498;-119.768;-139.251;-127.703
2341357.349;-159.703;-157.766;-108.592;-93.244;-49.472;-120.066;-138.432;-128.187
2341357.357;-174.940;-171.885;-124.127;-108.816;-63.069;-116.080;-135.005;-123.940
2341357.365;-194.199;-191.182;-143.610;-129.603;-78.902;-114.739;-132.397;-121.370
2341357.373;-211.895;-208.803;-162.721;-150.092;-95.442;-118.017;-136.308;-123.642
2341357.368;-224.449;-219.867;-175.238;-162.572;-108.741;-123.605;-137.947;-128.187
2341357.376;-231.303;-226.386;-183.061;-170.656;-117.235;-123.344;-134.073;-128.411
2341357.384;-233.985;-227.801;-187.643;-175.573;-123.978;-114.255;-123.717;-120.588
2341357.392;-238.419;-231.564;-192.486;-182.018;-133.142;-113.286;-120.029;-118.911
2341357.400;-239.015;-230.484;-193.678;-183.806;-136.010;-106.581;-113.137;-113.584
2341357.408;-240.840;-233.203;-195.168;-189.431;-139.065;-106.692;-112.057;-112.467
2341357.416;-248.738;-241.958;-203.922;-200.942;-152.700;-112.168;-116.378;-117.049
2341357.424;-249.818;-242.405;-206.567;-203.326;-161.752;-111.833;-112.988;-117.831
2341357.432;-250.526;-243.708;-208.877;-206.120;-167.713;-109.449;-107.177;-115.074
2341357.440;-260.845;-254.512;-218.451;-219.904;-178.739;-120.662;-120.364;-122.599
2341357.448;-265.650;-259.429;-222.549;-227.541;-184.737;-129.007;-126.511;-126.734
2341357.456;-266.880;-261.664;-221.804;-234.954;-183.284;-130.758;-126.325;-125.803
2341357.464;-265.427;-261.180;-221.170;-237.487;-184.663;-127.852;-121.780;-121.780
2341357.472;-261.553;-258.200;-216.998;-236.332;-184.737;-133.254;-123.680;-123.978
2341357.480;-259.206;-254.996;-215.545;-236.444;-186.004;-137.351;-124.723;-123.642
2341357.488;-261.404;-257.939;-217.594;-242.032;-189.617;-143.088;-126.250;-125.840
2341357.496;-257.641;-258.535;-214.875;-243.783;-189.729;-142.232;-123.195;-122.972
2341357.504;-255.890;-261.441;-213.794;-246.949;-191.703;-143.796;-124.648;-121.966
2341357.512;-252.612;-259.988;-211.224;-245.161;-193.566;-143.275;-120.103;-120.327
2341357.520;-247.918;-255.853;-208.132;-242.554;-193.790;-141.859;-116.900;-118.986
2341357.528;-241.958;-249.781;-203.885;-237.636;-194.870;-140.406;-109.971;-116.006
2341357.536;-236.444;-245.050;-199.825;-233.985;-195.839;-141.263;-109.263;-114.143
2341357.544;-230.446;-240.318;-196.025;-231.266;-196.956;-142.343;-110.418;-112.280
2341357.552;-229.143;-238.605;-198.111;-231.452;-205.524;-143.535;-108.704;-111.423
2341357.563;-229.329;-238.903;-202.321;-234.842;-217.594;-144.839;-108.629;-111.759
2341357.571;-228.994;-239.685;-203.066;-239.164;-226.907;-148.788;-109.263;-111.647
2341357.579;-230.446;-242.330;-204.518;-244.565;-242.405;-151.359;-110.641;-110.529
2341357.587;-231.825;-244.379;-207.983;-249.557;-251.643;-150.166;-109.747;-109.188
2341357.595;-228.770;-240.766;-206.381;-248.589;-251.606;-149.980;-106.990;-106.134
2341357.603;-224.970;-237.860;-204.332;-248.626;-253.394;-147.820;-105.798;-102.334
2341357.611;-227.243;-243.895;-206.232;-256.374;-258.945;-152.253;-110.641;-104.569
2341357.619;-224.896;-243.187;-205.487;-256.374;-261.590;-152.923;-111.535;-105.500
2341357.627;-218.078;-234.991;-199.378;-248.477;-256.933;-149.608;-107.586;-103.898
2341357.635;-213.273;-229.776;-197.664;-242.032;-256.859;-148.565;-104.308;-103.377
2341357.643;-211.075;-228.733;-197.440;-239.946;-258.982;-143.871;-99.093;-99.316
2341357.651;-210.367;-228.696;-196.770;-239.871;-261.664;-143.126;-97.863;-98.906
2341357.659;-206.232;-226.162;-192.150;-238.270;-258.870;-140.965;-97.640;-97.081
2341357.667;-196.509;-218.302;-182.092;-231.452;-251.308;-132.322;-91.754;-90.078
2341357.675;-188.909;-211.932;-173.412;-224.896;-244.565;-124.983;-86.837;-84.192
2341357.683;-187.717;-211.187;-172.704;-224.225;-245.124;-119.805;-83.596;-81.696
2341357.691;-194.795;-219.047;-179.671;-232.458;-252.649;-126.548;-92.648;-88.103
2341357.699;-192.560;-217.110;-178.367;-231.564;-252.835;-126.176;-92.611;-87.135
2341357.707;-184.029;-207.946;-170.469;-222.847;-246.614;-119.507;-85.421;-80.876
2341357.715;-185.482;-208.244;-171.103;-223.666;-247.806;-123.903;-89.444;-84.490
2341357.723;-179.447;-202.656;-165.626;-218.563;-243.634;-114.813;-80.280;-76.406
2341357.731;-180.081;-204.630;-166.818;-222.027;-246.577;-117.123;-82.254;-77.672
2341357.739;-178.814;-204.816;-166.744;-223.294;-248.030;-116.043;-82.664;-76.704
2341357.747;-170.246;-196.919;-159.852;-215.173;-240.952;-104.979;-70.967;-67.838
2341357.759;-166.893;-192.709;-157.170;-212.602;-236.705;-101.328;-68.732;-64.448
2341357.767;-176.318;-202.209;-165.217;-223.704;-245.906;-120.401;-93.877;-80.615
2341357.775;-169.612;-194.013;-158.176;-216.141;-240.467;-108.592;-79.945;-70.259
2341357.783;-167.377;-190.474;-155.941;-213.310;-237.003;-102.259;-72.047;-63.330
2341357.791;-173.114;-198.260;-161.752;-221.953;-240.691;-108.778;-79.088;-67.838
2341357.799;-180.267;-206.009;-167.601;-230.074;-244.789;-115.409;-84.452;-74.133
2341357.807;-175.126;-199.117;-162.423;-224.821;-240.915;-109.710;-78.045;-71.190
2341357.815;-168.756;-192.598;-156.090;-218.041;-235.960;-104.830;-72.531;-65.826
2341357.823;-171.103;-196.062;-158.623;-222.214;-237.599;-105.873;-75.139;-64.373
2341357.831;-170.171;-195.988;-157.021;-222.735;-234.731;-107.065;-77.412;-65.565
2341357.839;-168.346;-194.274;-152.253;-222.884;-229.813;-108.406;-77.561;-66.087
2341357.847;-159.033;-183.769;-142.381;-213.757;-222.288;-108.667;-78.753;-67.391
2341357.855;-150.837;-173.524;-134.334;-202.470;-215.657;-104.420;-71.414;-65.900
2341357.863;-150.874;-173.114;-133.142;-203.066;-214.390;-109.524;-77.449;-69.737
2341357.871;-152.327;-169.948;-137.016;-200.085;-221.133;-107.884;-76.480;-67.651
2341357.879;-106.134;-122.525;-90.450;-151.396;-187.159;-98.385;-65.640;-57.146
2341357.887;-60.052;-77.076;-43.176;-108.257;-150.613;-87.172;-55.209;-45.747
2341357.895;-25.779;-39.823;-4.806;-67.018;-120.252;-84.378;-50.887;-43.251
2341357.903;7.376;-6.706;31.628;-34.012;-97.863;-81.062;-49.435;-41.798
2341357.911;43.958;31.590;72.271;5.029;-67.540;-71.488;-40.606;-33.639
2341357.919;68.881;57.518;101.216;31.479;-44.256;-67.838;-36.210;-32.485
2341357.927;82.403;71.041;117.421;41.388;-31.702;-66.273;-38.370;-31.069
2341357.935;87.433;74.655;123.642;44.294;-25.816;-64.112;-36.806;-28.796
2341357.943;83.745;66.422;121.407;31.851;-25.593;-63.926;-38.855;-28.610
2341357.953;74.171;54.315;111.163;14.119;-29.765;-65.975;-44.219;-29.132
2341357.961;66.459;44.480;101.589;0.224;-35.465;-65.230;-44.964;-27.232
2341357.969;55.619;31.702;86.576;-17.025;-46.603;-57.667;-39.451;-22.985
2341357.977;41.425;17.285;70.073;-35.688;-57.183;-56.177;-38.780;-21.756
2341357.985;28.536;5.029;52.601;-50.962;-69.849;-55.619;-40.196;-21.048
2341357.993;19.483;-3.465;39.116;-61.244;-78.827;-57.481;-42.543;-23.805
2341358.001;6.892;-15.683;22.128;-72.531;-92.126;-62.995;-47.609;-27.195
2341358.009;0.559;-22.277;12.480;-80.392;-98.869;-63.181;-48.764;-28.200
2341358.017;-2.868;-26.040;7.711;-84.415;-100.061;-61.467;-43.809;-25.630
2341358.025;-3.278;-25.332;5.104;-83.297;-98.720;-53.868;-33.528;-17.546
2341358.033;-9.649;-29.430;-3.390;-87.768;-103.898;-48.131;-26.710;-11.697
2341358.041;-14.231;-31.963;-11.921;-89.109;-110.641;-48.429;-27.381;-9.649
2341358.049;-14.529;-31.106;-15.795;-88.774;-114.590;-43.996;-24.512;-4.731
2341358.057;-17.546;-32.596;-18.962;-90.562;-117.347;-41.835;-22.836;-3.017
2341358.065;-18.142;-32.410;-21.458;-91.456;-119.768;-39.153;-20.228;-1.006
2341358.073;-16.503;-30.659;-20.936;-90.040;-119.954;-33.267;-13.225;4.768
2341358.081;-20.638;-34.869;-25.481;-94.473;-124.015;-31.441;-9.537;4.135
2341358.089;-20.564;-35.129;-27.157;-96.560;-125.356;-29.355;-7.562;4.619
2341358.097;-25.332;-39.637;-32.932;-103.675;-130.497;-34.980;-14.305;0.410
2341358.105;-23.656;-37.029;-31.963;-103.377;-127.442;-37.663;-19.111;-1.788
2341358.113;-29.095;-42.357;-39.972;-109.822;-133.663;-45.002;-25.965;-8.009
2341358.121;-31.963;-45.300;-43.027;-111.982;-136.308;-53.123;-27.530;-12.778
2341358.129;-4.396;-18.254;-16.727;-84.378;-111.125;-26.375;3.874;12.927
2341358.137;7.749;-4.880;-5.849;-69.737;-100.732;-15.385;18.850;20.303
2341358.147;-1.192;-14.044;-14.491;-79.535;-108.741;-29.206;4.619;11.027
2341358.155;0.596;-13.039;-15.125;-77.821;-111.647;-28.946;3.502;11.735
2341358.163;-1.863;-15.534;-16.652;-79.423;-109.635;-27.046;4.694;13.411
2341358.171;-5.253;-19.111;-20.526;-83.707;-116.192;-30.957;-0.298;9.201
2341358.179;-3.576;-17.174;-18.924;-80.727;-115.372;-34.980;-2.347;3.427
2341358.187;6.221;-8.531;-11.921;-71.302;-110.045;-31.181;3.241;5.588
2341358.195;5.104;-11.101;-13.113;-73.947;-109.598;-28.089;4.508;8.866
2341358.203;8.419;-6.817;-9.127;-68.992;-105.128;-22.948;8.196;14.789
2341358.211;12.517;-3.539;-6.892;-64.895;-105.388;-22.240;7.339;14.044
2341358.219;7.786;-7.525;-10.803;-68.843;-106.581;-24.401;5.588;11.362
2341358.227;4.917;-8.196;-15.423;-67.949;-112.318;-20.526;9.686;12.293
2341358.235;17.397;-0.037;-2.272;-58.524;-100.918;-15.385;13.784;17.807
2341358.243;29.020;9.909;10.617;-48.876;-87.284;-10.952;18.813;23.991
2341358.251;37.774;19.521;16.466;-38.259;-81.100;-6.780;23.432;26.934
2341358.259;31.367;13.225;9.015;-44.964;-86.278;-9.835;19.521;24.512
2341358.267;35.651;18.142;11.474;-40.233;-86.352;-5.141;23.618;27.865
2341358.275;35.986;17.881;11.288;-41.947;-88.327;0.037;26.524;29.169
2341358.283;31.032;12.405;7.339;-46.156;-92.648;1.229;26.859;28.051
2341358.291;27.083;7.302;4.284;-50.291;-94.399;0.671;26.152;28.908
2341358.299;27.455;9.686;2.384;-45.635;-95.293;-0.559;26.114;28.685
2341358.307;21.793;4.731;-3.092;-51.260;-101.700;-2.198;22.948;27.120
2341358.315;24.885;4.321;1.676;-53.570;-97.044;0.969;24.289;30.436
2341358.323;25.928;5.364;1.676;-52.303;-93.058;-3.390;20.824;27.344
2341358.331;36.359;17.807;9.611;-36.135;-84.080;5.476;30.547;35.167
2341358.329;32.559;14.380;7.153;-36.284;-86.091;5.923;31.590;35.167
2341358.337;24.065;6.407;-2.086;-42.468;-95.442;1.341;27.828;30.883
2341358.345;25.257;6.370;-0.857;-42.096;-94.362;3.427;30.734;33.900
2341358.353;26.561;9.649;2.794;-35.353;-89.183;2.272;36.396;34.086
2341358.361;22.426;5.104;-2.570;-34.757;-91.977;-1.229;35.390;31.702
2341358.369;22.352;2.831;-1.527;-34.235;-87.544;1.676;37.551;34.347
2341358.377;33.192;14.529;6.780;-18.664;-76.629;10.766;45.449;45.635
2341358.385;32.261;16.056;1.304;-15.013;-82.739;8.084;41.500;41.053
2341358.393;30.883;14.305;-0.969;-16.242;-83.819;2.310;35.577;34.198
2341358.401;38.110;20.005;5.215;-11.176;-79.051;4.917;35.688;36.545
2341358.409;43.884;26.822;11.250;-4.619;-73.425;10.841;39.078;44.778
2341358.417;45.039;27.716;11.884;-3.465;-70.594;7.935;36.210;36.508
2341358.425;49.733;31.851;15.758;0.782;-65.751;14.044;41.462;41.761
2341358.433;41.574;24.103;7.488;-6.035;-73.910;7.860;37.327;34.049
2341358.441;44.927;27.642;9.574;-2.086;-72.345;16.578;43.623;41.388
2341358.449;59.009;42.804;26.003;14.082;-52.676;25.444;52.042;50.887
2341358.457;62.659;45.635;31.106;16.168;-46.305;23.916;47.795;48.876
2341358.465;59.605;41.276;27.530;10.319;-47.795;31.292;50.813;54.426
2341358.473;62.957;44.033;31.106;13.784;-43.921;39.712;58.487;60.126
2341358.481;70.147;48.801;39.227;19.111;-34.757;47.088;64.075;67.018
2341358.489;74.320;53.607;45.449;23.805;-27.232;51.148;67.763;71.339
2341358.497;68.285;47.572;39.265;17.099;-34.608;48.988;65.640;68.285
2341358.505;65.789;45.374;35.912;13.076;-39.637;50.850;66.459;68.918
2341358.513;63.851;45.188;33.192;13.188;-42.543;52.191;68.583;69.179
2341358.536;68.694;51.297;34.831;19.409;-43.251;59.605;74.841;74.543
2341358.544;76.294;58.860;41.425;27.530;-36.694;68.061;80.578;79.833
2341358.552;70.371;49.807;36.135;16.280;-41.388;61.467;70.967;72.233
2341358.560;65.789;44.294;30.249;8.717;-46.343;58.599;64.746;69.253
2341358.568;70.930;50.776;34.869;14.231;-41.351;69.141;73.798;78.678
2341358.576;71.414;51.409;33.937;13.858;-42.655;72.680;75.921;80.876
2341358.584;70.035;49.137;31.292;12.554;-45.262;70.632;73.798;78.306
2341358.592;70.632;49.919;29.765;11.995;-45.039;68.881;71.675;75.996
2341358.600;80.802;61.020;38.631;21.346;-35.129;76.741;79.013;82.701
2341358.608;81.845;61.765;40.792;21.644;-32.336;78.939;82.776;83.484
2341358.616;85.570;64.448;43.735;23.358;-28.238;84.154;86.986;87.097
2341358.624;89.407;69.141;47.199;29.095;-24.326;85.160;88.364;87.246
2341358.632;84.527;65.714;41.388;26.599;-30.845;79.274;82.329;81.696
2341358.640;84.490;67.316;40.717;27.679;-31.963;80.653;81.211;82.105
2341358.648;84.601;67.055;43.102;25.593;-28.200;76.853;78.417;79.758
2341358.656;86.613;67.949;46.045;24.252;-23.693;77.188;78.157;80.578
2341358.664;83.894;66.273;44.629;21.569;-23.916;73.761;75.549;77.225
2341358.672;78.417;59.828;40.382;15.050;-27.120;65.118;69.030;71.600
2341358.680;72.308;52.415;34.608;9.239;-31.739;59.493;63.516;68.173
2341358.688;67.353;48.615;30.845;6.445;-34.757;53.570;61.020;65.602
2341358.696;69.886;50.701;32.969;8.009;-33.155;53.011;62.399;66.683
2341358.704;74.469;54.874;39.153;11.884;-26.263;53.085;63.293;67.204
2341358.712;72.420;53.756;38.184;9.388;-27.269;48.876;60.387;63.255
2341358.720;70.594;53.756;34.869;8.047;-28.834;47.386;58.636;61.467
2341358.719;69.588;53.756;33.416;7.153;-28.685;46.492;58.338;60.275
2341358.727;71.451;55.619;34.161;8.494;-26.040;53.495;64.112;66.683
2341358.735;72.569;58.003;36.918;11.511;-22.538;55.283;65.602;68.732
2341358.743;72.494;56.811;37.700;10.617;-20.154;58.562;69.179;70.930
2341358.751;74.431;58.524;37.774;10.692;-20.787;59.046;69.588;70.669
2341358.759;69.141;55.395;32.894;7.525;-25.965;54.166;65.640;66.608
2341358.767;73.910;60.648;35.837;10.394;-21.607;59.269;68.136;71.563
2341358.775;81.956;67.540;42.431;14.827;-14.603;66.608;73.425;78.045
2341358.783;79.833;64.634;40.866;13.895;-12.368;67.428;73.686;77.412
2341358.791;74.431;59.195;37.514;9.388;-11.995;63.963;68.806;74.171
2341358.799;71.377;56.438;35.390;7.264;-12.554;60.014;65.230;70.222
2341358.807;77.523;62.548;39.078;13.262;-7.898;60.759;65.751;70.706
2341358.815;81.509;66.794;45.002;16.838;-1.080;61.728;66.198;72.047
2341358.823;81.137;66.757;43.064;15.013;-3.800;59.269;63.851;68.247
2341358.831;83.819;67.540;44.554;14.827;-2.012;59.865;63.889;67.651
2341358.839;79.833;62.957;40.792;8.717;-7.078;50.478;56.326;60.536
2341358.847;86.501;70.073;46.305;15.013;-2.421;56.438;61.244;64.671
2341358.855;83.186;65.938;44.368;10.021;-1.751;54.911;58.599;60.424
2341358.863;90.189;73.686;50.962;15.534;6.221;60.387;63.740;63.963
2341358.871;89.221;71.935;49.695;12.182;6.296;60.014;63.963;63.777
2341358.879;85.942;70.296;47.237;12.331;5.290;56.662;62.920;60.685
2341358.887;89.407;74.506;49.658;16.056;10.207;64.708;69.849;68.508
2341358.895;91.158;75.847;52.489;16.354;14.566;60.871;64.559;66.943
2341358.903;94.511;80.131;56.252;20.452;17.285;51.968;56.922;62.212
2341358.913;101.849;88.997;60.685;27.828;22.277;56.475;62.659;66.832
2341358.921;111.200;100.844;70.259;38.892;32.224;65.714;73.314;74.580
2341358.929;108.778;98.012;67.912;35.465;30.026;63.553;69.067;73.202
2341358.937;109.933;98.832;70.855;35.577;34.794;69.514;75.214;77.374
2341358.945;100.695;89.593;62.175;26.450;28.163;58.599;64.746;66.087
2341358.953;102.967;91.307;66.273;27.157;33.937;53.421;59.083;61.803
2341358.961;106.581;94.846;73.016;29.840;41.611;51.595;58.487;61.914
2341358.969;104.196;93.170;70.408;28.349;40.419;54.166;57.258;63.516
2341358.977;104.569;95.107;70.371;32.261;42.394;57.667;58.562;67.949
2341358.985;108.480;99.093;74.133;35.651;46.529;61.095;62.101;69.439
2341358.993;111.200;102.222;77.896;36.061;50.887;61.654;61.318;68.508
2341359.001;106.320;99.540;75.288;32.410;51.931;57.407;61.169;64.708
2341359.009;106.283;99.689;74.022;32.559;51.074;58.450;63.963;64.224
2341359.017;104.085;99.167;71.116;33.304;47.646;50.031;57.109;58.375
2341359.025;104.792;102.408;70.371;36.098;46.566;43.921;50.813;54.762
2341359.033;105.277;103.153;71.488;35.912;48.354;47.460;55.879;57.407
2341359.041;103.377;101.365;71.339;34.422;49.584;46.603;58.822;57.369
2341359.049;99.391;96.262;67.391;27.791;46.864;47.684;58.487;56.103
2341359.057;102.893;97.826;73.165;28.647;56.773;54.799;63.777;60.610
2341359.065;105.202;98.497;77.188;28.834;65.491;59.083;65.565;65.751
2341359.073;107.363;100.024;79.125;28.610;69.216;65.081;67.800;71.488
2341359.081;99.391;93.430;72.494;20.787;61.356;55.432;58.934;63.069
2341359.089;94.771;87.954;67.316;14.864;55.172;47.721;50.031;55.879
2341359.097;96.746;90.525;69.812;18.887;59.716;48.280;52.266;56.550
2341359.107;98.348;94.958;70.296;25.332;61.058;50.478;52.899;60.759
2341359.115;99.167;97.305;68.136;29.504;58.711;53.532;52.340;62.473
2341359.123;94.138;93.766;63.218;30.734;55.172;50.850;51.148;59.456
2341359.131;99.577;99.130;68.024;38.296;59.418;59.865;58.971;64.932
2341359.139;99.055;97.305;68.545;39.339;62.287;65.453;65.900;66.459
2341359.147;87.097;85.421;58.040;30.100;54.091;61.318;62.995;61.542
2341359.155;88.401;87.842;58.487;35.651;57.071;68.061;68.173;65.565
2341359.163;85.235;86.129;56.475;38.557;56.513;63.442;63.628;63.293
2341359.171;83.484;82.217;53.756;34.720;54.277;62.734;60.014;63.181
2341359.179;77.225;74.282;48.652;25.891;52.638;59.269;57.630;60.610
2341359.187;78.827;75.400;51.297;28.089;58.003;63.777;63.442;64.336
2341359.195;80.615;75.512;52.452;28.200;60.908;62.883;59.232;64.224
2341359.203;81.733;77.225;54.836;29.691;64.149;49.770;45.188;56.960
2341359.211;84.899;79.572;55.544;31.181;65.304;52.676;46.417;57.966
2341359.219;82.590;78.827;52.191;30.957;63.814;50.813;45.039;55.432
2341359.227;84.527;80.913;54.426;34.012;68.359;54.017;50.738;58.338
2341359.235;88.029;82.068;58.636;34.533;73.686;61.542;58.264;64.299
2341359.243;86.278;80.504;58.077;32.745;72.867;58.636;59.456;61.542
2341359.251;83.931;80.727;56.215;33.043;73.500;51.707;54.277;56.624
2341359.259;85.980;86.129;59.865;39.563;78.604;50.291;58.562;56.475
2341359.267;90.301;91.344;63.777;45.858;82.925;52.862;60.312;59.046
2341359.275;89.966;89.705;61.989;43.400;81.658;54.538;57.742;59.269
2341359.283;87.060;88.401;59.418;41.611;80.168;50.887;55.917;52.080
2341359.291;88.923;89.519;60.871;40.829;80.876;51.521;50.925;50.440
2341359.287;90.338;91.419;60.908;41.425;81.062;50.366;47.088;50.180
2341359.295;93.542;93.877;64.597;44.070;86.650;53.458;49.472;53.272
2341359.303;93.840;94.213;63.591;44.592;89.034;59.865;54.799;57.854
2341359.311;93.021;95.963;62.659;45.784;90.413;62.659;60.834;59.791
2341359.319;90.003;93.803;58.822;42.655;84.229;67.130;63.218;62.548
2341359.327;93.654;97.640;63.777;47.125;90.823;68.210;65.081;63.404
2341359.335;94.771;98.385;65.900;48.876;93.989;67.241;63.777;62.659
2341359.343;86.054;88.848;56.997;38.408;86.501;60.536;53.756;54.389
2341359.351;78.417;81.584;51.633;31.665;83.297;54.576;49.695;47.125
2341359.359;79.758;84.266;52.005;34.533;83.745;62.808;55.209;53.644
2341359.367;84.788;90.599;57.854;41.984;90.115;69.328;60.610;59.232
2341359.375;88.327;94.511;61.989;45.747;94.436;70.930;61.430;59.642
2341359.383;82.925;87.433;56.587;38.035;90.338;68.471;57.295;55.656
2341359.391;80.615;87.358;53.793;39.451;88.811;68.024;60.238;56.550
2341359.399;82.366;87.768;53.532;39.712;89.519;72.494;61.728;61.430
2341359.407;78.939;83.596;50.068;36.024;86.091;73.165;62.361;63.516
2341359.415;71.004;76.704;41.537;29.802;79.945;67.577;58.748;60.685
2341359.423;70.073;76.294;39.376;29.951;78.753;69.626;59.530;61.579
2341359.431;72.233;79.870;42.915;33.714;83.037;68.396;59.940;61.244
2341359.439;75.959;83.223;42.766;37.067;83.484;75.176;65.267;65.863
2341359.447;69.179;76.182;35.428;30.249;77.374;76.741;66.981;65.900
2341359.455;59.530;66.832;25.891;20.824;70.371;72.606;62.920;62.138
2341359.463;55.097;61.318;20.415;14.417;67.353;71.786;58.040;60.163
2341359.471;53.346;60.759;20.526;14.156;67.763;65.528;54.426;54.687
2341359.482;54.613;61.467;21.309;14.342;69.328;71.228;55.730;57.593
2341359.490;41.090;49.658;6.109;2.794;54.985;67.800;52.564;53.234
2341359.498;46.715;55.432;13.448;10.170;61.542;64.969;51.297;51.036
2341359.506;71.116;77.002;39.376;29.765;80.839;74.469;59.456;58.301
2341359.514;77.821;85.458;48.466;36.843;85.831;69.737;55.805;55.507
2341359.522;90.450;94.846;62.734;43.027;95.665;72.308;55.879;57.593
2341359.530;94.064;98.385;67.614;44.778;99.130;73.910;58.077;58.338
2341359.538;93.393;98.348;65.304;45.449;95.628;68.620;55.321;54.240
2341359.546;91.381;94.958;60.834;40.829;94.101;70.482;57.220;56.736
2341359.554;87.731;93.803;58.226;40.419;94.250;67.912;58.152;57.034
2341359.562;83.596;89.929;53.309;36.247;90.152;64.261;53.570;53.681
2341359.570;82.590;86.725;53.123;32.783;90.934;63.330;53.160;52.489
2341359.578;81.435;85.607;52.527;30.547;91.419;62.659;53.085;52.117
2341359.586;78.529;83.409;47.795;26.934;86.352;62.101;50.887;50.105
2341359.594;69.588;77.747;39.935;24.028;79.088;56.699;48.503;45.858
2341359.602;73.500;81.398;43.176;27.865;83.931;65.900;56.438;53.793
2341359.610;75.251;83.633;46.827;28.387;89.370;65.975;57.518;54.911
2341359.618;72.457;79.796;46.007;24.736;90.376;62.734;56.513;52.415
2341359.626;75.810;82.552;48.652;27.083;94.213;65.602;56.401;54.501
2341359.634;77.486;85.458;53.123;30.845;99.316;63.293;57.630;53.197
2341359.642;76.517;84.788;52.229;30.249;100.471;61.020;54.762;51.819
2341359.650;77.039;85.495;52.638;29.653;100.136;55.768;51.670;46.566
2341359.658;81.472;90.711;56.028;34.794;102.110;59.344;57.742;50.217
2341359.666;84.676;92.164;58.040;37.104;104.718;64.708;59.865;55.805
2341359.692;79.907;86.725;55.321;33.937;103.749;59.269;54.203;51.819
2341359.700;80.913;86.762;56.364;35.204;103.638;62.436;54.576;53.756
2341359.708;84.564;92.536;59.046;41.462;103.377;60.722;52.489;50.142
2341359.716;102.520;112.019;76.741;60.014;118.054;65.081;59.493;55.097
2341359.724;117.011;127.107;89.370;75.400;127.964;70.557;61.281;58.822
2341359.732;128.672;142.567;100.695;95.367;133.514;71.339;63.553;61.505
2341359.740;165.254;181.049;140.555;136.346;160.709;78.417;68.694;67.502
2341359.748;200.570;218.600;179.186;175.014;184.663;78.492;67.912;65.900
2341359.756;228.211;247.918;210.293;207.759;204.593;74.990;64.597;62.510
2341359.764;254.102;270.829;239.834;230.223;226.758;79.796;65.900;66.049
2341359.772;261.851;279.583;250.116;239.313;233.129;73.947;64.820;61.207
2341359.780;269.935;286.363;257.269;245.161;235.885;76.629;66.720;63.330
2341359.788;277.422;291.914;266.545;250.079;246.130;80.727;71.339;67.167
2341359.796;280.626;293.180;272.095;250.936;253.879;74.953;70.520;60.238
2341359.804;271.164;280.142;263.043;235.029;248.179;74.990;69.290;59.716
2341359.812;255.890;265.837;247.471;218.935;238.754;69.365;67.279;55.395
2341359.820;239.275;248.291;226.013;199.154;225.529;71.563;66.534;57.854
2341359.828;215.732;224.747;199.452;173.822;206.530;69.141;64.708;58.822
2341359.836;200.272;209.436;182.986;157.505;196.509;67.800;63.181;60.648
2341359.844;187.494;195.764;166.036;143.722;184.365;74.692;67.465;65.491
2341359.852;177.324;187.382;154.823;136.495;173.934;67.949;66.385;58.599
2341359.860;170.507;179.484;146.218;130.199;170.395;64.708;61.058;56.401
2341359.868;159.517;166.334;135.414;119.470;165.552;59.046;55.470;49.248
2341359.876;151.098;156.797;125.952;112.951;157.468;57.183;54.315;48.503
2341359.889;147.410;151.843;117.719;110.045;150.502;62.212;54.538;50.664
2341359.897;145.659;153.333;114.217;115.633;147.521;61.877;58.413;47.907
2341359.905;143.461;152.141;108.257;117.086;141.934;67.092;61.542;51.893
2341359.913;132.509;140.145;97.230;107.065;133.589;66.869;60.126;52.936
2341359.921;136.681;143.610;104.532;112.876;142.865;68.285;64.857;52.340
2341359.929;141.673;146.590;107.773;116.825;144.877;75.959;69.737;56.848
2341359.937;140.779;145.100;107.959;116.900;144.355;70.892;66.161;55.470
2341359.945;137.128;141.896;103.004;116.080;140.853;76.257;68.508;59.269
2341359.953;127.405;131.503;94.622;106.990;133.961;76.480;68.024;58.785
2341359.961;123.382;128.746;91.158;105.426;129.789;78.045;71.190;61.281
2341359.969;127.964;132.062;96.112;108.145;132.807;87.209;78.119;66.832
2341359.977;122.860;127.256;92.909;104.904;130.907;83.297;76.704;63.702
2341359.985;117.682;122.115;83.633;102.855;121.035;81.509;73.127;59.456
2341359.993;113.025;117.645;77.896;100.173;115.335;77.635;68.694;55.395
2341360.001;109.226;113.882;73.984;96.262;111.796;69.961;63.218;50.887
2341360.009;107.363;107.922;72.457;87.023;110.343;74.320;60.722;56.066
2341360.017;107.624;108.331;73.537;88.513;110.120;71.935;61.132;56.885
2341360.025;104.569;105.947;69.514;87.060;106.767;77.412;64.224;62.548
2341360.033;97.826;99.950;64.075;81.956;102.520;73.984;60.834;57.742
2341360.041;96.895;99.204;62.436;82.292;102.967;74.692;63.591;58.077
2341360.049;98.087;98.683;62.399;81.472;105.798;79.758;65.453;61.803
2341360.057;87.731;90.413;53.458;75.363;96.746;70.110;62.771;53.197
2341360.065;92.350;95.963;56.215;81.100;98.757;74.804;68.359;55.432
2341360.073;93.654;96.746;59.567;80.802;103.861;74.916;66.906;56.773
2341360.067;89.779;91.791;57.593;75.698;102.781;66.757;61.058;48.317
2341360.075;88.364;89.891;53.346;73.723;97.565;66.161;58.748;47.684
2341360.083;86.166;88.103;51.707;72.159;94.958;60.461;56.550;47.833
2341360.091;94.250;95.740;60.908;78.380;105.463;72.420;67.912;59.791
2341360.099;95.330;98.199;63.032;81.025;106.804;70.110;69.402;57.817
2341360.107;91.046;95.330;58.264;80.168;102.706;53.085;59.307;41.835
2341360.115;94.809;96.783;59.865;80.988;105.686;63.442;65.155;49.211
2341360.123;93.095;95.740;58.115;81.509;104.345;62.473;67.689;49.584
2341360.131;86.389;87.954;50.142;71.637;95.144;58.301;59.567;45.598
2341360.139;87.097;88.587;50.962;72.829;96.336;59.009;58.338;46.566
2341360.147;81.211;83.745;45.896;68.322;90.562;54.240;53.085;44.554
2341360.155;80.876;82.403;43.362;66.645;86.352;59.344;53.868;46.976
2341360.163;84.415;86.427;47.199;71.302;90.972;58.189;57.369;47.460
2341360.171;88.997;90.227;50.068;74.729;92.983;62.697;60.350;52.899
2341360.179;87.880;89.258;50.627;73.239;94.473;60.238;58.375;47.982
2341360.187;81.472;84.676;45.113;69.886;88.476;49.584;51.819;38.296
2341360.195;87.582;91.083;50.552;77.412;92.909;60.648;59.679;48.243
2341360.203;84.601;88.103;50.627;74.357;92.871;53.309;56.103;44.592
2341360.211;79.796;81.398;45.374;68.173;86.874;49.844;49.360;40.755
2341360.219;72.569;74.171;40.680;62.883;80.951;41.239;41.090;32.298
2341360.227;74.469;78.976;44.294;69.924;85.756;41.462;43.213;32.745
2341360.235;70.967;75.102;39.041;65.789;81.472;43.809;41.462;33.341
2341360.243;72.382;76.592;41.090;67.428;83.596;42.841;44.033;32.559
2341360.251;83.111;86.688;50.329;76.815;92.611;55.656;54.762;43.362
2341360.248;83.745;87.693;51.446;77.747;94.697;56.699;55.730;44.033
2341360.256;77.523;82.850;45.151;72.569;88.550;50.887;52.601;40.866
2341360.264;67.875;72.606;34.906;60.610;79.237;51.297;47.721;39.972
2341360.272;63.553;68.620;31.553;56.773;76.778;51.707;49.546;40.643
2341360.280;74.692;77.188;40.606;65.789;82.031;60.499;53.048;47.870
2341360.288;86.427;88.364;52.415;76.108;89.966;63.777;54.613;51.521
2341360.296;90.040;93.319;56.811;79.572;93.319;57.146;49.844;46.268
2341360.304;89.258;90.748;55.470;74.729;92.424;61.505;50.776;47.088
2341360.312;81.137;83.335;49.211;67.167;86.166;58.077;52.080;43.772
2341360.320;78.678;81.174;45.337;64.559;83.633;62.734;55.023;47.125
2341360.328;73.425;75.400;39.674;57.630;78.827;57.071;48.093;41.127
2341360.336;71.190;73.686;38.780;55.842;77.859;51.372;44.592;38.333
2341360.344;69.775;72.531;36.731;54.128;76.331;55.395;44.927;40.717
2341360.352;70.445;75.363;38.594;57.481;80.056;53.681;47.423;37.998
2341360.360;65.304;70.259;31.553;50.925;74.916;53.272;44.294;36.992
2341360.368;72.680;76.778;39.898;56.215;85.533;64.187;54.948;47.721
2341360.376;69.141;74.282;36.694;54.426;80.653;58.636;52.191;43.996
2341360.384;66.310;71.675;32.932;51.856;75.810;60.648;49.323;43.996
2341360.392;60.983;66.981;31.106;47.535;72.941;52.229;44.517;37.327
2341360.400;62.138;67.055;31.926;46.492;74.692;54.389;45.821;36.992
2341360.408;57.667;63.218;28.610;42.543;73.202;52.378;45.486;33.267
2341360.416;57.817;63.591;30.845;43.213;75.549;47.684;46.082;30.808
2341360.424;62.622;66.571;34.161;43.735;76.294;54.315;49.211;36.359
2341360.432;60.536;63.479;32.894;41.164;77.076;45.709;42.543;31.404
2341360.442;58.636;60.610;31.032;39.190;77.933;45.560;39.637;31.553
2341360.450;66.347;67.763;39.078;46.045;86.278;48.876;44.592;34.571
2341360.458;64.559;67.689;36.471;44.778;84.266;42.953;42.059;30.547
2341360.466;69.290;71.749;39.525;47.199;86.576;50.515;46.380;36.508
2341360.474;71.637;74.506;44.219;51.446;91.754;49.099;50.105;40.233
2341360.482;61.169;63.479;32.410;40.904;81.062;41.649;41.574;31.181
2341360.490;60.312;61.356;32.000;39.004;82.701;46.194;45.635;35.837
2341360.498;64.895;65.938;37.141;43.213;88.625;43.288;46.790;34.012
2341360.506;67.763;69.253;39.339;46.492;89.779;50.925;50.142;38.780
2341360.514;65.751;68.136;37.961;45.374;86.501;45.374;47.423;34.720
2341360.522;61.840;63.069;34.235;40.568;83.968;45.262;42.319;34.794
2341360.530;64.559;64.820;38.221;41.425;88.401;48.093;44.033;37.625
2341360.538;68.657;69.551;44.107;47.237;93.468;49.099;47.535;38.110
2341360.546;68.545;68.583;44.629;47.311;96.969;57.742;50.850;41.947
2341360.554;57.109;57.891;34.459;39.786;88.178;46.231;41.276;31.330
2341360.562;48.690;48.280;27.195;31.441;82.180;45.635;36.247;29.504
2341360.570;48.503;46.901;27.679;31.255;83.894;47.423;38.743;31.702
2341360.578;51.372;48.690;30.771;33.565;87.507;39.414;34.459;27.716
2341360.586;58.711;54.352;37.625;39.563;96.038;52.154;42.617;39.451
2341360.594;57.928;54.650;39.414;41.500;99.614;48.690;43.958;37.812
2341360.602;54.352;52.713;34.161;40.457;94.622;48.317;41.276;37.812
2341360.610;59.754;57.295;39.153;46.901;102.296;49.472;43.623;38.445
2341360.618;59.269;57.593;41.164;47.944;106.208;45.300;43.623;37.700
2341360.626;57.966;57.481;41.761;47.535;106.543;49.695;44.592;40.382
2341360.638;55.432;55.395;40.531;45.449;106.245;39.339;37.253;32.857
2341360.646;55.470;56.028;40.345;47.199;105.053;40.829;36.880;33.230
2341360.654;49.397;48.913;36.322;39.600;104.047;35.278;32.112;25.220
2341360.662;44.070;43.027;32.745;32.634;102.967;24.252;24.103;13.933
2341360.670;37.663;36.024;25.593;23.060;95.814;26.412;18.813;12.442
2341360.678;45.784;45.970;34.012;31.926;103.191;31.777;26.189;18.738
2341360.686;43.623;44.741;31.739;29.877;99.950;32.224;24.475;18.887
2341360.694;33.006;34.086;22.650;17.546;91.828;22.203;14.044;10.282
2341360.702;38.296;39.972;30.920;22.538;100.657;24.773;21.569;15.385
2341360.710;36.061;36.731;29.653;18.366;100.993;28.983;19.930;19.819
2341360.718;21.793;25.518;15.050;8.792;87.544;13.374;8.494;10.133
2341360.726;24.028;29.728;15.311;11.735;86.538;17.546;11.884;15.497
2341360.734;30.883;37.104;22.687;17.993;91.083;26.673;21.532;25.071
2341360.742;28.536;34.161;21.569;14.305;89.779;19.744;17.956;19.968
2341360.750;24.065;29.579;17.732;7.600;87.284;23.060;15.050;20.228
2341360.758;24.140;32.820;17.658;13.001;86.986;21.234;16.689;17.472
2341360.766;25.071;34.943;18.440;15.870;87.321;29.467;23.507;21.458
2341360.774;22.277;30.994;16.391;9.909;85.235;24.438;16.429;14.529
2341360.782;23.618;32.634;18.068;11.623;88.476;21.942;15.162;13.113
2341360.790;25.220;33.379;19.446;11.213;87.954;32.634;20.415;20.787
2341360.798;13.672;22.352;9.350;-0.559;77.486;23.022;16.578;13.337
2341360.806;10.468;20.079;5.551;-3.614;74.655;25.183;18.254;15.348
2341360.814;21.756;31.702;16.429;8.382;82.180;24.848;18.924;16.466
2341360.822;22.687;32.187;18.403;7.674;83.037;21.756;18.366;16.168
2341360.862;19.036;25.854;14.752;0.000;78.976;29.206;22.054;21.271
2341360.870;16.689;23.544;14.082;-1.788;78.678;23.209;18.924;18.775
2341360.878;17.546;25.667;14.044;0.708;80.094;23.171;15.162;20.601
2341360.886;17.732;26.785;14.268;0.931;81.360;26.375;15.646;22.501
2341360.894;17.509;27.046;15.199;-0.037;82.441;23.432;12.517;20.415
2341360.902;14.938;23.320;11.474;-4.880;78.045;28.685;12.182;21.905
2341360.910;16.131;24.885;11.958;-2.310;77.449;25.257;13.523;20.638
2341360.918;10.729;19.260;6.258;-7.972;73.686;23.209;7.898;19.446
2341360.926;16.093;26.152;12.182;-0.298;78.641;26.077;12.033;20.564
2341360.934;26.412;38.333;24.885;12.517;87.731;20.042;11.176;16.727
2341360.942;30.324;40.233;27.977;11.995;88.252;15.646;2.421;12.256
2341360.950;43.958;55.172;45.411;30.249;102.632;14.938;6.743;13.448
2341360.958;58.636;73.053;64.336;51.260;116.974;17.211;8.084;15.348
2341360.966;68.918;87.842;74.953;66.645;118.837;17.285;8.456;13.821
2341360.974;91.083;113.659;100.285;96.373;132.658;10.580;8.941;8.680
2341360.982;114.329;134.893;127.666;120.066;152.364;19.446;15.609;16.913
2341360.990;134.073;156.201;148.006;143.759;166.632;20.489;21.420;20.564
2341360.998;131.987;153.445;144.541;141.002;159.629;20.638;19.260;19.930
2341361.006;132.136;155.456;141.673;145.771;155.121;23.469;21.495;19.744
2341361.014;128.895;152.215;138.432;142.083;153.594;20.750;20.675;17.844
2341361.022;128.448;149.533;135.675;134.967;153.966;29.095;24.289;25.034
2341361.030;113.510;135.787;117.086;117.980;139.363;20.601;16.801;15.125
2341361.038;94.809;116.155;95.479;94.995;121.444;17.509;10.245;11.288
2341361.046;86.352;107.884;84.043;86.203;114.776;21.234;11.846;13.970
2341361.028;65.118;86.389;61.765;63.963;95.628;10.580;3.427;5.774
2341361.036;54.650;75.661;49.248;51.372;86.911;16.354;8.568;8.829
2341361.044;59.791;81.174;52.229;57.332;90.562;16.764;15.236;8.047
2341361.052;54.277;77.412;43.213;53.346;82.850;18.999;15.125;10.319
2341361.060;45.449;67.614;34.608;42.468;76.517;18.403;11.399;9.611
2341361.068;40.680;61.840;30.398;36.173;72.010;15.125;8.084;7.898
2341361.076;37.663;56.624;27.865;29.691;69.477;23.469;10.878;13.076
2341361.084;40.904;60.908;29.765;36.471;71.600;22.873;13.933;12.480
2341361.092;40.047;60.722;26.859;36.992;70.371;29.132;17.472;15.497
2341361.100;41.798;61.654;28.461;37.178;74.469;32.410;17.993;17.509
2341361.108;47.274;68.508;34.384;45.188;79.833;35.614;24.959;19.595
2341361.116;44.666;65.379;30.659;42.506;76.368;42.319;29.914;20.973
2341361.124;33.751;54.576;21.346;32.447;67.502;36.843;28.759;15.460
2341361.132;28.834;49.174;15.572;28.238;61.989;42.170;33.677;19.819
2341361.140;25.555;44.927;11.697;23.060;58.897;43.660;34.384;21.160
2341361.148;18.254;37.737;4.768;15.534;52.191;33.453;26.375;13.635
2341361.156;16.503;35.129;1.676;12.070;50.217;35.129;24.252;13.672
2341361.164;22.128;40.382;9.239;17.248;58.599;33.304;27.493;15.460
2341361.172;15.721;32.112;3.129;8.047;51.484;29.281;20.452;11.474
2341361.180;7.153;21.458;-5.700;-3.316;44.927;24.736;12.964;7.451
2341361.188;3.576;18.775;-9.239;-5.886;43.027;19.744;10.692;4.843
2341361.196;9.462;24.587;-5.104;-0.373;47.982;31.516;18.515;15.162
2341361.204;0.931;17.248;-15.013;-8.121;42.208;28.238;16.987;12.778
2341361.212;-0.149;20.117;-19.372;-2.347;37.104;30.845;19.707;15.311
2341361.224;11.995;28.722;-5.439;5.923;46.268;31.441;18.179;15.907
2341361.232;9.090;24.699;-7.525;3.129;45.002;23.283;12.107;9.462
2341361.240;17.583;30.994;-0.522;10.356;49.435;33.416;18.068;16.280
2341361.248;18.477;32.522;0.373;13.672;49.435;26.785;12.368;10.021
2341361.256;12.033;27.753;-6.184;10.021;45.337;30.063;13.411;12.740
2341361.264;4.098;19.707;-12.368;4.582;41.574;33.230;16.540;13.635
2341361.272;0.149;15.572;-14.380;4.061;41.500;25.369;13.970;6.147
2341361.280;-1.155;13.225;-15.832;3.539;41.313;27.232;11.735;8.345
2341361.288;-2.123;10.803;-16.019;1.788;41.649;19.073;5.849;3.278
2341361.296;-5.215;5.998;-19.595;-2.161;38.557;19.111;4.843;2.831
2341361.304;-1.527;8.456;-14.491;1.825;43.884;22.575;9.611;6.631
2341361.312;-1.267;8.829;-11.213;3.614;45.151;18.217;10.356;4.731
2341361.320;-4.955;4.955;-15.236;0.298;42.766;25.034;12.480;8.903
2341361.328;-1.974;8.084;-11.586;3.837;48.988;24.103;13.709;8.829
2341361.336;-8.196;0.708;-17.360;-2.831;42.729;19.819;9.798;3.949
2341361.344;-5.737;2.906;-16.242;-1.602;41.053;23.022;13.784;5.923
2341361.352;-0.112;8.419;-9.611;3.800;46.864;18.775;12.815;2.272
2341361.360;2.608;11.213;-6.519;6.594;49.397;24.140;13.411;5.364
2341361.368;2.980;12.182;-5.327;7.749;49.770;21.607;14.156;5.066
2341361.376;6.109;15.348;-3.316;11.027;50.366;24.773;18.291;8.643
2341361.384;5.886;14.827;-3.874;11.697;51.297;26.636;19.968;11.176
2341361.392;4.359;13.858;-4.768;11.176;50.217;20.005;16.280;4.917
2341361.400;1.602;11.362;-7.860;8.978;46.007;26.189;18.254;8.531
2341361.408;8.009;18.515;-2.794;15.087;50.962;26.710;20.936;10.058
2341361.402;9.313;20.005;-2.943;15.162;50.627;27.120;18.738;10.803
2341361.410;10.282;20.340;-1.751;15.274;51.409;23.991;14.566;5.066
2341361.418;14.752;24.773;3.129;19.260;57.593;21.756;13.858;4.321
2341361.426;11.660;21.830;0.186;16.913;55.544;26.524;14.156;7.786
2341361.434;14.156;23.879;2.272;21.011;55.097;23.954;16.056;6.780
2341361.442;16.354;26.077;3.092;21.756;54.091;28.014;19.260;9.798
2341361.450;7.823;15.832;-5.290;9.798;44.554;25.295;13.225;5.327
2341361.458;11.995;18.813;1.565;11.511;53.085;20.377;10.170;2.272
2341361.466;27.679;32.857;16.950;24.512;65.267;24.773;11.325;5.104
2341361.474;29.244;33.528;19.558;26.152;66.906;23.693;14.976;5.737
2341361.482;27.455;31.590;17.248;23.507;65.304;28.312;18.403;11.101
2341361.490;31.814;36.508;20.936;27.604;69.141;37.774;26.748;18.775
2341361.498;25.444;29.765;15.534;19.893;64.224;20.862;13.560;2.906
2341361.506;23.283;28.722;11.772;19.409;58.822;20.675;10.096;1.937
2341361.514;29.467;36.284;17.434;27.083;62.175;17.881;11.548;2.831
2341361.522;33.155;41.202;21.420;32.298;66.459;23.730;17.658;7.302
2341361.530;29.579;37.625;18.887;30.063;64.708;25.034;17.956;8.978
2341361.538;26.934;34.720;17.360;28.424;63.702;19.707;13.821;6.706
2341361.546;27.232;35.800;17.136;30.398;62.473;21.979;15.348;4.023
2341361.554;27.865;37.104;18.701;31.888;64.634;17.881;16.056;-0.112
2341361.562;26.748;34.906;18.254;30.622;62.287;17.844;14.268;1.863
2341361.570;23.805;30.845;14.976;27.530;56.848;17.919;11.362;4.880
2341361.578;23.730;30.585;14.827;27.530;56.066;12.629;10.096;1.788
2341361.586;33.043;39.153;22.873;36.880;63.777;25.779;20.154;13.560
2341361.614;26.822;33.826;16.652;33.565;56.773;15.572;13.895;6.296
2341361.622;32.745;38.333;22.613;38.072;62.808;11.548;10.319;2.421
2341361.630;43.400;47.907;33.788;47.944;69.439;14.268;13.225;3.017
2341361.638;43.362;47.274;32.596;48.839;66.161;8.307;10.841;-1.006
2341361.646;39.525;41.910;27.232;46.045;56.848;11.921;10.952;0.224
2341361.654;39.898;40.419;27.865;46.827;55.805;9.798;11.176;0.149
2341361.662;44.629;42.915;32.187;50.850;59.120;17.583;20.154;8.382
2341361.670;42.059;40.233;29.467;48.541;54.687;18.924;19.968;6.370
2341361.678;34.310;31.963;23.246;41.910;46.678;9.835;10.245;-1.900
2341361.686;29.169;24.401;17.956;35.167;41.947;13.188;9.872;2.198
2341361.694;24.065;20.303;12.815;32.373;36.396;8.531;7.190;-1.155
2341361.702;19.521;16.578;8.792;30.063;33.677;7.451;5.066;-2.794
2341361.710;5.998;2.533;-2.161;17.211;24.848;2.496;-3.017;-8.345
2341361.718;1.900;-1.900;-4.061;14.789;21.383;3.055;-0.969;-6.482
2341361.726;4.694;0.969;-1.341;16.317;24.103;16.093;7.339;4.992
2341361.734;0.484;-1.676;-4.135;15.087;21.942;14.640;6.668;3.539
2341361.742;-6.668;-8.047;-10.356;9.574;16.205;16.503;6.780;6.333
2341361.750;-16.652;-18.068;-18.403;-0.596;6.743;11.027;0.969;2.310
2341361.758;-20.191;-22.426;-20.824;-6.594;4.433;6.407;0.820;1.639
2341361.766;-22.575;-25.965;-24.140;-11.139;4.359;13.262;6.557;8.158
2341361.774;-27.604;-30.063;-29.914;-15.609;1.639;4.806;2.645;3.502
2341361.782;-33.751;-34.347;-37.141;-20.266;-4.508;-1.825;-2.533;-3.092
2341361.790;-29.542;-29.579;-31.367;-16.131;1.304;1.565;0.484;-2.123
2341361.798;-31.032;-29.430;-31.069;-16.652;3.874;-2.198;0.633;-5.923
2341361.793;-34.980;-31.292;-35.726;-19.521;-0.037;4.917;3.316;-3.055
2341361.801;-37.178;-31.888;-37.625;-21.346;-4.359;6.370;5.625;-3.912
2341361.809;-39.786;-33.975;-40.084;-24.103;-6.557;11.809;9.760;-0.261
2341361.817;-36.359;-29.914;-36.545;-20.675;-4.694;15.348;11.586;2.980
2341361.825;-41.388;-33.714;-41.015;-25.183;-12.480;5.774;5.513;-4.768
2341361.833;-44.890;-37.365;-45.486;-28.946;-17.136;8.792;7.115;-4.694
2341361.841;-41.910;-34.198;-43.958;-25.816;-14.268;7.935;10.021;-5.774
2341361.849;-36.694;-28.089;-40.382;-19.819;-11.995;7.972;12.629;-3.390
2341361.857;-35.577;-27.046;-37.625;-19.930;-7.935;2.645;9.201;-7.562
2341361.865;-38.520;-31.851;-38.967;-26.822;-10.543;-6.407;2.980;-13.337
2341361.873;-39.004;-34.682;-41.425;-30.734;-10.468;-0.037;5.439;-8.605
2341361.881;-35.651;-29.616;-38.594;-25.220;-5.923;-1.527;4.619;-10.990
2341361.889;-38.072;-30.883;-41.313;-26.822;-8.009;-0.596;4.433;-9.164
2341361.897;-34.086;-26.673;-38.072;-24.140;-5.476;5.476;9.052;-1.788
2341361.905;-34.124;-26.599;-38.035;-24.885;-5.476;2.161;8.196;-2.980
2341361.913;-37.961;-30.734;-41.761;-27.157;-10.133;4.433;7.376;-1.602
2341361.921;-38.259;-31.330;-40.904;-26.003;-7.041;1.416;6.557;-3.092
2341361.929;-32.969;-27.232;-36.396;-21.085;-2.272;6.519;11.772;0.894
2341361.937;-31.702;-27.902;-35.837;-21.011;-1.974;8.829;12.890;2.310
2341361.945;-42.692;-39.823;-43.251;-31.330;-9.201;-4.098;2.086;-8.382
2341361.953;-41.164;-40.010;-41.351;-30.361;-7.898;1.155;4.545;-4.657
2341361.961;-35.651;-36.173;-34.571;-26.487;-1.527;0.894;7.227;-5.066
2341361.969;-35.353;-35.912;-34.980;-24.997;-2.384;-0.335;7.376;-7.041
2341361.977;-40.829;-40.755;-39.935;-27.567;-8.196;-2.161;3.204;-10.207
2341361.988;-40.978;-40.866;-37.812;-27.902;-4.582;-8.978;-3.800;-13.076
2341361.996;-40.866;-42.543;-37.737;-30.808;-4.247;-7.898;-6.780;-10.543
2341362.004;-37.849;-39.712;-34.012;-27.902;-0.894;-6.631;-5.886;-8.717
2341362.012;-40.755;-43.139;-35.800;-31.069;-4.359;-8.866;-9.015;-11.958
2341362.020;-40.531;-43.251;-35.055;-31.702;-3.837;-6.706;-7.749;-12.033
2341362.028;-37.216;-40.866;-30.547;-30.696;1.490;-4.880;-3.614;-10.654
2341362.036;-33.826;-38.520;-26.114;-29.169;5.662;1.192;0.335;-6.557
2341362.044;-29.504;-34.869;-20.564;-24.885;12.480;-0.633;0.559;-8.270
2341362.052;-28.536;-34.757;-18.626;-23.209;14.640;-0.894;-1.453;-7.972
2341362.060;-28.424;-34.645;-16.131;-22.799;17.956;-1.676;-5.029;-9.313
2341362.068;-19.148;-24.363;-5.737;-16.578;25.555;-3.837;-7.302;-10.990
2341362.076;-9.201;-12.591;7.749;-3.688;37.588;3.278;-4.731;-5.215
2341362.084;5.066;3.017;21.830;9.239;43.474;-3.465;-8.605;-11.548
2341362.092;20.154;19.670;38.147;29.206;52.080;-6.743;-10.692;-16.168
2341362.100;50.068;49.770;71.004;63.330;70.669;-6.221;-10.468;-17.434
2341362.108;81.621;85.458;100.955;102.036;84.899;-6.929;-7.823;-17.360
2341362.116;107.847;112.839;127.219;131.093;100.397;0.745;-2.794;-9.127
2341362.124;135.452;140.481;155.009;159.517;117.123;5.104;2.906;-3.912
2341362.132;144.131;152.513;160.448;175.349;113.659;4.582;1.751;-2.943
2341362.140;149.757;158.437;163.205;182.241;114.478;4.321;-0.708;-3.390
2341362.148;158.288;168.681;167.824;195.056;116.378;4.582;1.974;-2.198
2341362.156;143.573;155.568;151.135;182.204;99.018;4.731;-0.820;-3.539
2341362.164;137.500;149.384;143.796;175.387;92.722;-1.006;-4.470;-5.364
2341362.172;121.705;135.489;123.568;161.938;75.288;-4.917;-7.041;-8.903
2341362.184;125.840;139.475;123.605;166.632;79.609;5.737;6.147;-1.453
2341362.192;114.664;127.442;107.884;153.035;64.857;2.235;5.364;-5.960
2341362.200;103.563;115.409;93.766;139.959;53.495;4.396;5.811;-6.184
2341362.208;98.310;109.822;89.332;133.589;49.472;4.135;6.557;-5.811
2341362.216;86.427;98.757;75.400;124.164;37.067;2.682;-0.708;-7.041
2341362.224;75.623;85.942;64.373;109.561;29.057;3.353;-4.694;-7.786
2341362.232;66.534;76.592;55.656;99.726;22.687;1.751;-3.837;-9.090
2341362.240;61.840;70.632;52.825;92.089;24.289;6.780;0.037;-5.923
2341362.248;61.616;70.073;53.346;90.525;27.530;8.754;4.694;-4.061
2341362.256;53.234;61.356;44.480;81.435;22.948;10.021;4.731;-2.421
2341362.264;45.151;53.085;36.620;73.314;17.993;13.299;5.662;1.118
2341362.272;33.900;41.686;27.046;61.542;10.580;6.296;1.118;-5.364
2341362.280;30.994;38.631;25.295;58.040;11.586;12.815;6.370;-2.049
2341362.288;34.682;42.878;30.957;60.908;20.042;15.497;10.915;2.012
2341362.296;26.450;35.241;23.842;52.787;16.242;8.307;4.917;-2.980
2341362.304;14.603;24.028;10.729;40.792;4.508;1.788;-2.272;-10.654
2341362.312;14.082;24.103;12.293;39.600;7.115;2.310;-0.559;-7.562
2341362.320;9.760;18.515;9.127;32.000;5.960;3.949;-2.161;-3.539
2341362.328;4.359;13.337;5.290;25.034;4.470;1.825;-4.470;-6.072
2341362.336;3.055;13.113;3.502;24.959;5.290;4.135;-1.676;-6.370
2341362.344;0.931;11.623;0.969;22.687;3.204;8.382;1.378;-5.364
2341362.352;5.811;15.981;8.456;25.220;11.325;9.313;3.390;-3.614
2341362.360;2.868;11.511;5.513;19.558;9.909;8.829;1.788;-4.210
2341362.368;2.570;10.841;4.768;16.578;13.262;7.041;3.316;-3.763
2341362.362;-5.588;2.757;-3.800;6.855;6.407;-1.304;-5.215;-9.723
2341362.370;-9.090;-1.229;-7.339;3.204;3.725;-0.596;-5.886;-8.903
2341362.378;-12.591;-3.017;-9.835;1.304;2.645;-5.700;-10.021;-12.666
2341362.386;-3.874;4.880;-1.118;7.562;11.399;0.820;-6.557;-8.233
2341362.394;1.565;8.829;6.035;9.425;20.675;-0.596;-9.090;-8.270
2341362.402;0.261;8.196;5.029;7.004;18.962;-4.247;-14.342;-10.394
2341362.410;-9.723;-0.410;-4.321;-2.459;8.680;-4.955;-15.870;-14.305
2341362.418;-13.299;-2.719;-6.184;-4.843;10.878;-1.900;-11.623;-13.299
2341362.426;-10.543;-0.298;-2.645;-1.974;15.832;4.619;-7.190;-7.264
2341362.434;-13.486;-4.284;-4.061;-7.190;15.460;-4.619;-16.466;-14.268
2341362.442;-20.303;-11.884;-8.345;-16.838;15.721;-9.835;-21.048;-18.105
2341362.450;-23.507;-15.050;-11.735;-19.297;12.480;-9.835;-22.464;-17.658
2341362.458;-22.836;-14.231;-11.101;-18.924;15.460;-9.388;-21.495;-15.013
2341362.466;-22.277;-12.927;-10.729;-18.105;18.328;-3.427;-17.546;-8.233
2341362.474;-32.261;-23.358;-18.366;-29.318;10.952;-13.597;-26.338;-17.099
2341362.482;-30.547;-21.644;-15.423;-28.387;16.503;-10.245;-22.203;-16.689
2341362.490;-27.977;-17.323;-12.107;-23.954;21.718;-4.172;-16.838;-14.827
2341362.498;-27.046;-17.658;-7.749;-24.401;24.550;-11.884;-24.550;-22.352
2341362.506;-13.597;-4.806;4.619;-13.970;32.336;-0.671;-14.640;-13.225
2341362.514;-2.310;6.370;17.546;-3.129;39.712;-3.427;-17.211;-16.652
2341362.522;3.614;14.752;25.444;6.743;44.256;-15.087;-28.610;-25.369
2341362.530;35.465;52.750;58.413;51.036;69.067;-7.004;-18.813;-17.807
2341362.538;80.615;99.950;107.512;104.569;95.330;-10.729;-20.526;-19.521
2341362.546;108.331;130.050;138.134;141.039;111.163;-9.723;-19.260;-15.758
2341362.558;143.014;167.228;170.656;182.129;131.875;-0.447;-3.800;-7.302
2341362.566;157.021;182.465;180.416;202.693;131.018;-6.482;-7.451;-12.964
2341362.574;156.499;184.476;174.902;211.857;120.364;-8.903;-10.915;-15.274
2341362.582;163.764;194.013;178.367;227.429;119.172;-5.886;-5.923;-11.213
2341362.590;166.818;197.142;176.840;234.917;114.776;-5.402;-7.041;-10.133
2341362.598;154.190;184.439;160.187;227.801;95.591;-20.117;-22.277;-21.942
2341362.606;156.462;187.755;157.356;236.519;90.115;-16.540;-22.165;-19.446
2341362.614;167.973;200.383;164.919;252.761;94.660;2.421;-3.986;-5.178
2341362.622;163.577;196.658;155.829;251.047;85.570;0.261;-3.055;-10.617
2341362.630;153.184;184.551;141.151;238.419;74.543;-3.204;-7.227;-16.689
2341362.638;142.381;173.412;126.287;228.025;62.212;-5.439;-10.952;-17.136
2341362.646;124.052;155.196;105.426;208.765;45.039;-12.517;-17.211;-21.867
2341362.654;107.996;138.320;87.991;187.680;34.273;-8.047;-10.841;-18.403
2341362.662;95.069;125.542;71.377;172.444;21.048;-2.943;-5.178;-12.890
2341362.670;73.500;101.589;47.088;143.684;0.596;-6.594;-14.119;-17.174
2341362.678;64.746;91.717;38.706;130.162;0.671;-8.568;-17.062;-18.366
2341362.686;60.275;86.389;33.639;122.823;-1.751;-12.740;-22.128;-20.973
2341362.694;47.758;72.755;20.638;107.624;-13.262;-9.425;-20.340;-21.197
2341362.702;39.339;64.522;14.976;98.310;-14.566;-4.582;-14.752;-18.552
2341362.710;31.255;56.513;9.574;87.321;-15.460;0.857;-10.952;-13.895
2341362.718;28.796;53.607;7.562;82.999;-12.107;7.153;-5.104;-6.855
2341362.726;20.042;44.145;0.410;71.079;-15.721;2.906;-9.611;-6.296
2341362.734;13.523;38.184;-4.247;62.883;-18.179;-1.304;-12.480;-9.499
2341362.742;13.262;39.600;-1.341;62.548;-10.803;-1.267;-7.674;-7.227
2341362.753;16.168;43.809;3.725;65.044;-3.129;1.118;-3.502;-5.700
2341362.761;8.084;35.390;-2.570;54.501;-7.041;-5.141;-9.164;-10.133
2341362.769;8.568;35.800;-1.080;51.893;-3.763;-1.043;-4.992;-6.035
2341362.777;8.680;34.794;-1.192;47.274;-1.639;0.224;-5.811;-5.327
2341362.785;0.075;24.401;-8.456;34.086;-7.227;-9.201;-15.981;-14.193
2341362.793;-6.258;17.807;-14.119;27.753;-12.629;-11.362;-18.366;-17.807
2341362.801;-10.319;13.337;-14.678;21.867;-9.350;-14.752;-20.713;-21.085
2341362.809;-8.680;11.958;-10.580;18.403;-1.490;-14.491;-21.607;-20.117
2341362.817;-7.711;11.250;-10.021;16.019;0.261;-14.715;-20.973;-21.122
2341362.825;-7.115;13.970;-9.798;17.770;1.304;-13.821;-19.893;-20.266
2341362.833;-10.505;12.629;-14.119;14.491;-3.204;-12.703;-19.819;-21.160
2341362.841;-11.586;11.213;-13.933;12.740;-2.384;-13.225;-17.211;-23.507
2341362.849;-13.709;8.978;-13.448;10.021;1.676;-15.125;-18.924;-27.344
2341362.857;-13.262;8.717;-11.921;9.164;2.123;-10.729;-18.403;-21.830
2341362.865;-5.849;14.976;-3.390;14.417;10.543;-0.447;-8.456;-13.039
2341362.873;-12.703;7.264;-6.706;6.706;8.494;-0.335;-10.245;-15.534
2341362.881;-24.550;-5.215;-14.864;-5.960;3.017;-13.784;-24.401;-26.375
2341362.889;-21.122;-2.310;-10.990;-4.619;7.823;-11.213;-20.415;-23.246
2341362.897;-12.107;5.439;-1.527;1.118;16.466;-3.166;-14.380;-15.832
2341362.905;-9.015;7.823;2.421;2.012;24.214;-6.221;-17.881;-17.285
2341362.913;-13.597;3.204;-3.204;-1.304;19.409;-9.052;-21.532;-21.048
2341362.921;-13.709;2.645;-3.204;-1.751;20.564;-8.680;-21.011;-21.309
2341362.929;-15.013;-0.261;-3.502;-6.892;20.899;-8.680;-21.122;-21.644
2341362.937;-9.201;3.353;3.129;-5.737;28.461;-4.359;-17.956;-17.472
2341362.948;-11.325;1.080;2.533;-9.537;28.908;-10.766;-23.991;-20.824
2341362.956;-18.887;-8.456;-3.465;-22.314;23.060;-8.866;-23.209;-17.881
2341362.964;-32.671;-18.105;-19.558;-30.175;9.015;-4.135;-19.185;-13.635
2341362.972;-27.716;-9.984;-14.901;-16.838;11.288;-8.643;-23.060;-19.781
2341362.980;-22.277;-8.158;-9.760;-14.491;14.342;-3.986;-18.366;-16.876
2341362.988;-24.289;-7.898;-18.366;-12.070;4.359;-4.806;-17.695;-15.497
2341362.996;-17.509;0.969;-17.621;-0.894;0.708;-1.527;-13.821;-13.411
2341363.004;-23.469;-3.800;-24.289;-4.582;-8.047;-1.304;-14.678;-13.635
2341363.012;-24.475;-5.364;-27.865;-4.694;-14.454;-3.912;-16.689;-16.652
2341363.020;-24.475;-5.327;-29.914;-4.992;-15.907;3.539;-7.004;-12.517
2341363.028;-29.914;-9.239;-35.726;-9.201;-20.377;-0.335;-10.692;-14.342
2341363.036;-35.502;-16.429;-39.786;-18.291;-23.767;-3.465;-15.087;-17.695
2341363.044;-23.581;-6.407;-26.561;-8.978;-12.144;0.037;-11.213;-14.491
2341363.052;-23.171;-5.439;-25.183;-8.903;-11.213;2.533;-8.307;-11.660
2341363.060;-31.888;-13.299;-33.490;-17.248;-17.285;-1.378;-11.995;-15.870
2341363.068;-38.520;-20.303;-39.786;-24.624;-20.191;-3.390;-14.529;-17.509
