Timestamp,AFz,AF3,AF4,AF7,AF8,Pz,P3,P4,2024-05-16 12:04:44.650,fs=125
5446304.041;933.744;964.627;746.660;606.962;994.354;1096.427;2022.646;1214.184
5446304.049;924.170;954.568;740.439;597.239;987.276;1091.398;2009.757;1212.060
5446304.057;917.315;946.261;737.943;590.570;986.904;1087.189;1999.624;1209.378
5446304.065;907.294;936.091;725.575;582.859;968.948;1075.640;1982.152;1196.340
5446304.073;897.869;927.784;720.359;580.549;961.646;1060.516;1961.365;1174.659
5446304.081;896.826;927.299;720.620;583.343;959.262;1054.555;1952.685;1159.832
5446304.089;893.995;924.096;718.646;580.661;952.519;1049.414;1941.696;1156.777
5446304.097;894.032;923.611;723.824;583.157;958.368;1051.798;1934.879;1163.073
5446304.105;889.339;918.061;719.391;580.177;949.651;1048.110;1922.920;1160.875
5446304.113;871.979;900.477;702.888;566.430;929.646;1027.994;1892.485;1141.578
5446304.121;860.468;888.854;691.302;556.074;920.221;1014.061;1869.872;1125.559
5446304.129;852.942;880.808;683.963;551.678;906.810;1007.356;1858.324;1115.985
5446304.137;847.541;874.065;684.001;550.076;906.847;1002.997;1846.217;1113.266
5446304.145;839.345;865.497;676.773;543.520;901.893;994.243;1834.370;1097.508
5446304.153;836.849;864.342;675.321;544.153;896.417;996.143;1830.272;1097.172
5446304.161;823.885;852.346;662.915;539.049;881.925;988.506;1815.557;1088.716
5446304.169;817.589;846.721;654.682;536.405;866.465;976.287;1796.447;1076.758
5446304.177;814.460;846.274;654.273;536.516;863.895;973.977;1786.240;1076.870
5446304.185;800.528;833.608;643.805;526.533;854.731;958.964;1767.203;1060.590
5446304.193;788.569;821.315;629.500;514.910;839.531;939.593;1740.195;1040.399
5446304.201;789.799;818.409;634.864;513.606;842.474;936.799;1729.578;1037.456
5446304.209;786.111;812.411;632.145;510.178;834.242;932.515;1718.216;1034.364
5446304.217;774.972;801.757;622.869;503.957;829.585;920.780;1699.589;1017.116
5446304.225;771.470;798.777;620.186;504.218;830.777;910.945;1682.900;1003.519
5446304.237;768.080;794.306;618.137;500.791;824.556;908.189;1673.624;1001.246
5446304.245;759.698;784.062;611.246;490.919;817.329;901.446;1659.766;995.174
5446304.253;753.030;777.952;604.466;487.790;808.723;894.815;1648.851;991.225
5446304.261;749.901;774.488;601.038;486.113;800.006;884.533;1629.144;984.967
5446304.269;738.092;760.891;590.198;475.012;788.607;870.526;1608.096;973.381
5446304.277;731.014;752.732;585.690;469.796;792.705;864.081;1596.808;960.901
5446304.285;731.684;752.658;583.529;469.536;789.016;864.863;1591.742;958.182
5446304.293;727.884;748.485;583.269;467.300;787.117;863.187;1581.349;956.617
5446304.301;716.969;737.719;571.273;465.177;769.421;854.731;1566.261;946.522
5446304.309;715.591;737.607;568.591;467.747;765.212;848.137;1556.166;936.426
5446304.317;706.054;728.071;558.309;457.950;759.177;833.236;1539.402;915.788
5446304.325;695.288;715.964;547.282;448.003;743.568;824.966;1526.996;906.214
5446304.333;692.196;713.021;545.979;447.705;744.536;821.017;1516.752;906.400
5446304.341;684.634;707.172;538.267;447.221;736.378;814.945;1503.415;902.414
5446304.349;679.046;701.733;531.748;439.510;728.369;808.686;1487.806;895.932
5446304.357;674.687;697.821;526.011;439.733;718.571;804.476;1474.582;889.041
5446304.365;671.819;693.873;525.005;442.564;722.781;802.092;1464.486;879.802
5446304.373;669.397;690.259;522.807;436.343;715.964;801.720;1460.165;878.386
5446304.381;659.674;681.989;513.271;429.861;707.023;788.569;1441.389;864.975
5446304.389;646.859;671.148;499.785;425.503;696.480;773.892;1421.906;848.658
5446304.397;640.415;662.878;490.360;421.964;685.826;765.882;1406.372;844.598
5446304.405;635.199;658.035;485.852;420.623;682.883;759.959;1393.631;842.996
5446304.413;628.158;650.175;484.362;412.762;686.012;749.752;1374.856;832.006
5446304.421;608.712;629.611;465.326;396.073;665.635;734.217;1354.367;813.864
5446304.432;603.721;625.513;458.770;394.508;655.018;735.112;1351.275;810.251
5446304.440;605.807;629.798;455.268;404.939;650.510;733.472;1340.993;807.792
5446304.448;604.242;628.456;452.958;406.988;651.553;727.326;1331.121;798.814
5446304.456;604.801;627.860;455.678;406.057;659.935;726.841;1326.278;801.794
5446304.464;591.986;614.151;441.708;392.720;643.320;713.430;1305.938;788.011
5446304.472;579.469;602.379;427.440;384.822;625.774;702.776;1290.776;775.382
5446304.480;569.709;593.960;414.290;380.352;611.916;691.265;1274.273;763.349
5446304.488;567.473;591.502;409.894;380.911;605.509;688.508;1264.960;761.189
5446304.496;564.791;589.937;411.309;380.538;612.848;685.789;1257.174;756.495
5446304.504;554.845;580.847;400.953;372.343;601.150;681.728;1247.190;750.497
5446304.512;555.143;580.177;400.692;371.970;602.379;681.095;1238.249;747.032
5446304.520;552.349;576.787;399.537;373.162;598.393;677.481;1230.203;739.880
5446304.528;548.698;574.104;393.502;375.770;591.278;674.576;1225.248;737.011
5446304.536;539.273;563.748;384.822;366.196;589.006;660.196;1208.596;719.242
5446304.544;533.201;556.819;377.409;360.124;585.876;653.937;1200.102;714.324
5446304.552;527.948;552.647;366.755;357.479;574.924;652.559;1194.701;709.593
5446304.560;516.810;541.732;354.163;350.475;564.568;648.424;1184.083;701.956
5446304.568;521.354;546.128;356.585;356.734;563.562;656.359;1181.960;710.562
5446304.576;521.243;544.563;354.946;353.344;559.017;649.914;1168.363;704.341
5446304.584;520.200;543.222;358.522;357.293;570.826;642.426;1156.367;695.623
5446304.592;513.680;535.250;353.009;348.724;560.991;632.294;1139.939;685.789
5446304.600;503.808;527.129;343.136;343.174;547.282;611.357;1113.974;667.013
5446304.608;494.830;518.858;335.053;339.523;539.795;593.662;1092.069;651.032
5446304.616;487.454;509.880;329.912;332.184;530.817;587.665;1083.240;644.624
5446304.582;482.649;503.920;329.055;326.037;526.495;589.788;1078.248;648.461
5446304.590;473.410;493.787;327.788;315.271;527.576;584.535;1066.066;641.495
5446304.598;467.338;487.007;324.659;312.924;518.225;575.595;1051.351;626.519
5446304.606;465.848;484.996;324.808;314.079;511.296;577.234;1045.652;626.966
5446304.614;466.295;485.294;324.659;314.042;500.530;578.649;1044.236;626.184
5446304.622;464.618;483.580;327.602;312.850;505.783;571.013;1034.923;617.914
5446304.630;457.540;475.943;323.653;304.580;501.983;553.392;1011.305;600.256
5446304.638;451.989;469.275;320.002;298.210;494.272;541.583;995.770;589.974
5446304.646;446.104;462.942;317.618;295.229;485.629;531.860;978.112;582.151
5446304.654;445.172;462.942;319.853;295.341;482.127;531.487;973.791;580.475
5446304.662;436.828;455.454;315.122;289.343;474.192;524.856;958.629;574.552
5446304.670;434.034;451.021;321.455;285.655;480.153;519.864;949.241;568.517
5446304.678;436.828;453.778;324.994;289.455;479.743;517.219;940.934;566.617
5446304.686;434.481;452.176;326.037;289.641;475.831;513.680;934.005;560.544
5446304.694;424.497;441.670;320.002;280.142;458.546;496.954;915.043;549.667
5446304.702;411.086;428.520;311.732;270.344;451.617;483.952;896.603;537.150
5446304.710;406.951;424.646;312.217;268.891;450.537;480.674;891.760;531.115
5446304.718;406.541;423.901;312.552;267.886;443.794;479.892;885.762;533.685
5446304.726;403.672;421.666;312.142;268.854;435.524;477.545;875.853;530.928
5446304.734;395.142;413.135;310.130;262.037;429.898;478.104;869.781;529.960
5446304.742;386.462;403.076;301.749;253.841;419.319;474.006;862.107;522.174
5446304.750;388.846;406.280;309.348;260.249;431.538;475.496;863.299;521.392
5446304.758;379.980;399.761;304.356;254.288;422.038;458.770;840.910;503.883
5446304.766;368.878;389.293;293.329;246.316;406.764;452.101;831.075;496.805
5446304.761;359.565;379.942;283.942;238.493;394.620;443.459;816.882;487.082
5446304.769;361.018;382.625;282.750;244.640;386.536;451.691;818.558;495.091
5446304.777;353.828;373.498;281.744;236.221;390.299;453.666;813.678;492.297
5446304.785;345.558;363.812;275.560;229.366;382.550;454.895;811.480;489.913
5446304.793;338.703;358.708;270.754;226.460;373.907;450.276;801.831;478.066
5446304.801;339.411;358.894;272.393;226.684;372.156;445.247;790.805;474.714
5446304.809;342.093;360.981;273.548;232.235;366.569;441.708;784.546;477.098
5446304.817;336.692;354.536;273.287;226.535;369.474;431.277;773.706;464.618
5446304.825;321.977;338.890;261.851;212.193;355.802;413.954;747.889;451.170
5446304.833;314.675;329.874;254.288;203.066;343.956;410.676;738.464;451.133
5446304.841;304.319;318.959;247.099;195.391;340.492;403.970;731.759;442.043
5446304.849;298.433;313.483;242.218;190.884;331.029;399.724;727.288;430.718
5446304.857;295.639;312.291;241.287;188.984;329.949;394.061;718.534;424.460
5446304.865;294.559;312.217;242.144;194.497;330.433;387.989;705.868;422.224
5446304.873;297.464;315.309;244.230;198.334;327.602;386.275;696.816;419.393
5446304.881;293.888;311.732;241.511;196.099;324.547;377.037;685.193;407.733
5446304.889;288.114;307.076;235.252;194.833;312.142;373.386;677.891;403.486
5446304.897;284.426;301.674;234.433;187.345;315.309;376.329;676.177;409.000
5446304.905;278.689;293.888;230.484;179.447;311.658;366.643;661.649;395.104
5446304.913;267.141;282.787;216.924;172.742;294.074;352.822;642.948;378.750
5446304.921;259.131;276.528;209.361;166.148;282.302;351.332;637.546;379.793
5446304.929;258.908;277.422;210.479;170.581;283.979;353.940;636.689;382.923
5446304.937;258.423;276.417;210.106;173.524;280.328;349.283;628.829;380.427
5446304.945;256.151;271.089;212.044;166.185;289.008;346.042;622.533;377.968
5446304.912;261.515;277.050;214.837;171.624;291.653;349.283;619.367;384.524
5446304.920;244.230;261.739;196.509;158.399;269.525;326.373;593.178;355.467
5446304.928;239.313;257.790;191.741;154.711;262.782;317.805;578.873;348.166
5446304.936;243.261;260.957;193.566;160.336;259.839;317.618;574.775;345.707
5446304.944;236.966;254.288;191.443;159.554;261.068;312.403;566.766;339.486
5446304.952;234.358;249.855;191.890;154.451;264.831;310.689;559.911;337.996
5446304.960;225.492;240.095;181.571;148.751;253.357;303.015;548.586;328.049
5446304.968;222.996;238.940;178.404;151.955;249.818;301.115;542.812;329.204
5446304.976;215.955;230.297;169.687;143.833;234.842;288.747;525.713;316.761
5446304.984;208.393;222.996;164.248;135.377;230.297;280.775;514.947;305.586
5446304.992;203.587;218.414;161.007;130.981;232.160;281.669;512.265;303.648
5446305.000;205.971;220.463;161.901;137.798;235.103;284.351;511.184;307.038
5446305.008;207.163;221.059;161.603;140.183;232.905;280.961;503.212;302.121
5446305.016;203.662;217.669;157.095;138.357;226.535;276.007;495.352;297.762
5446305.024;200.458;213.943;150.017;134.222;217.073;270.493;483.356;295.267
5446305.032;197.999;211.783;149.533;132.434;219.718;261.329;469.387;287.108
5446305.040;198.223;213.794;149.682;138.171;222.996;259.615;461.116;284.500
5446305.048;202.246;216.998;150.055;143.759;220.202;269.637;470.467;287.741
5446305.056;197.962;212.938;144.057;143.461;213.310;268.929;469.126;283.383
5446305.064;190.735;209.473;138.171;138.953;203.215;261.851;459.030;275.671
5446305.072;179.857;196.174;132.509;127.628;205.450;251.271;445.396;264.645
5446305.080;170.246;186.376;120.550;118.688;193.231;236.742;426.285;250.936
5446305.088;170.134;185.668;118.688;121.519;192.709;227.652;413.284;245.869
5446305.096;169.352;184.253;115.521;118.986;187.941;221.021;405.423;240.542
5446305.063;167.675;182.390;114.180;116.527;185.557;221.767;401.437;242.777
5446305.071;167.079;181.682;115.894;120.737;193.529;225.455;398.867;250.489
5446305.079;155.941;170.916;103.042;113.286;177.138;210.479;379.868;232.458
5446305.087;156.052;171.140;102.520;114.441;173.710;206.381;374.280;223.182
5446305.095;159.666;173.412;105.128;115.819;179.000;207.014;373.200;219.680
5446305.103;166.185;182.502;108.555;125.840;178.106;211.783;374.615;222.176
5446305.111;164.062;182.241;107.996;127.256;183.806;214.539;372.045;223.666
5446305.119;151.806;168.197;99.503;116.751;179.149;208.095;361.390;216.253
5446305.127;140.741;154.674;86.017;105.463;164.844;197.366;347.719;211.298
5446305.135;133.328;145.994;75.027;96.820;145.845;188.574;334.531;205.450
5446305.143;135.265;149.608;75.698;102.259;147.969;190.623;334.606;207.536
5446305.151;133.701;147.261;76.741;100.397;158.772;186.004;326.186;203.215
5446305.159;130.683;142.828;71.302;98.981;152.998;181.571;314.787;203.811
5446305.167;126.436;139.251;66.310;94.324;146.888;176.504;307.448;193.343
5446305.175;127.703;140.555;62.920;97.193;141.189;173.859;306.666;182.837
5446305.183;126.138;137.910;62.175;93.281;146.180;166.968;297.576;174.381
5446305.191;120.401;132.285;56.252;87.023;143.498;150.762;274.703;158.064
5446305.199;123.158;133.291;54.725;93.468;144.318;154.041;279.360;164.881
5446305.207;115.670;124.462;46.901;88.923;134.781;148.267;267.513;167.266
5446305.215;100.099;112.541;29.095;76.182;111.721;141.673;256.822;154.264
5446305.223;94.697;108.704;23.395;76.443;111.908;145.659;254.102;156.797
5446305.231;94.026;106.879;23.432;77.076;114.404;148.751;253.394;156.499
5446305.239;89.668;99.763;18.030;70.296;104.606;144.504;245.273;149.980
5446305.247;82.515;92.685;11.250;61.020;95.740;131.130;229.888;134.930
5446305.273;90.152;100.136;20.079;70.035;97.565;134.930;231.899;137.836
5446305.281;92.573;102.594;26.524;75.586;109.039;131.130;224.710;137.687
5446305.289;91.754;101.402;26.338;76.666;106.245;129.119;219.680;132.285
5446305.297;85.868;95.889;20.489;70.147;98.310;117.309;204.258;114.515
5446305.305;82.888;94.213;19.632;67.018;89.593;115.670;196.658;115.000
5446305.313;86.986;98.646;31.255;72.196;102.222;121.146;200.830;119.843
5446305.321;87.135;100.322;34.794;72.718;103.526;121.035;199.825;120.029
5446305.329;83.074;96.112;33.155;71.339;98.348;112.988;185.594;116.602
5446305.337;80.205;93.058;32.336;71.153;91.977;107.922;177.845;107.214
5446305.345;74.916;88.960;31.777;71.563;88.699;103.563;171.326;100.471
5446305.353;76.890;94.101;36.173;77.263;81.584;98.273;162.497;96.634
5446305.361;89.519;108.592;55.023;88.699;99.316;99.279;158.288;97.603
5446305.369;113.845;136.979;82.366;114.329;116.564;105.873;162.646;102.594
5446305.377;143.163;171.661;115.484;145.584;137.314;92.052;148.416;90.860
5446305.385;177.510;211.671;151.917;182.725;158.884;86.948;141.114;87.544
5446305.393;215.806;256.412;189.282;223.704;182.241;91.195;147.335;90.413
5446305.401;233.725;278.018;208.840;242.367;192.225;84.788;140.369;83.558
5446305.409;249.110;298.396;222.065;263.341;194.907;83.111;134.334;77.449
5446305.417;255.853;302.903;227.280;266.545;188.425;88.289;137.649;83.521
5446305.425;249.147;295.751;227.019;265.539;193.380;86.389;130.050;81.100
5446305.433;233.874;280.738;213.534;248.663;182.018;89.370;129.752;81.137
5446305.441;215.806;263.304;193.901;231.862;164.062;88.923;127.256;82.627
5446305.449;195.131;241.660;174.753;214.502;146.553;80.653;116.788;72.941
5446305.457;169.054;212.342;149.645;188.686;121.333;73.016;107.661;65.938
5446305.514;146.627;185.706;124.201;165.440;96.038;63.740;92.462;61.579
5446305.522;125.468;159.964;104.345;142.939;81.584;54.464;80.653;52.825
5446305.530;104.085;136.122;88.438;118.986;75.325;41.127;65.826;40.159
5446305.538;89.481;119.582;76.368;104.979;64.373;45.002;68.694;43.325
5446305.546;71.153;99.577;60.126;90.934;50.031;46.045;69.067;41.872
5446305.554;58.115;86.017;45.151;81.807;30.696;39.041;63.591;33.639
5446305.562;49.397;73.425;38.669;70.222;25.257;36.955;60.461;29.393
5446305.570;43.698;66.385;37.216;62.548;28.275;40.792;61.914;33.975
5446305.578;36.471;56.438;28.349;53.681;20.862;39.414;53.719;34.310
5446305.586;27.306;43.996;19.297;43.213;7.190;30.845;40.010;21.532
5446305.594;20.005;38.370;15.572;38.035;3.837;24.065;29.467;11.362
5446305.602;12.852;31.143;9.350;32.447;-4.470;25.481;28.126;13.560
5446305.610;5.700;22.426;6.594;27.046;-1.974;22.314;21.458;6.407
5446305.618;-1.751;16.391;-1.043;23.209;-6.557;24.587;21.905;6.780
5446305.626;1.080;20.340;2.906;28.349;-5.402;34.049;31.218;14.193
5446305.634;-11.064;4.731;-7.749;10.654;-25.034;20.415;16.950;-1.006
5446305.642;-19.558;-5.737;-11.027;1.974;-23.171;9.984;6.221;-8.009
5446305.650;-26.114;-11.548;-16.242;1.378;-21.458;5.811;-1.155;-8.568
5446305.658;-33.453;-19.670;-25.071;-6.221;-31.143;5.104;-7.004;-8.456
5446305.666;-43.511;-32.410;-31.777;-18.626;-38.594;-0.224;-17.993;-10.207
5446305.674;-50.217;-39.488;-39.376;-26.599;-52.452;-4.210;-23.171;-12.927
5446305.682;-52.787;-42.468;-43.921;-29.877;-54.128;-10.058;-28.275;-20.899
5446305.690;-48.690;-36.508;-38.706;-19.558;-41.611;-10.245;-27.642;-21.234
5446305.698;-48.913;-34.943;-37.737;-20.079;-48.578;-11.176;-31.143;-23.767
5446305.662;-58.077;-42.766;-47.348;-27.642;-67.055;-17.062;-37.625;-31.218
5446305.670;-31.963;-17.397;-16.056;-3.316;-33.416;-18.440;-38.743;-34.086
5446305.678;-21.458;-7.004;-6.966;2.682;-23.320;-22.016;-47.460;-36.657
5446305.686;-11.027;2.161;0.671;7.637;-21.532;-28.275;-56.401;-44.815
5446305.694;5.774;14.603;18.924;14.119;-8.345;-24.997;-56.811;-36.545
5446305.702;15.609;20.638;31.888;11.995;0.894;-34.235;-67.838;-40.755
5446305.710;11.772;17.546;23.097;14.082;-2.645;-42.245;-77.970;-48.913
5446305.718;15.646;17.695;26.338;15.385;6.258;-35.092;-70.892;-44.927
5446305.726;4.768;15.646;19.856;5.290;-5.700;-35.912;-77.561;-51.968
5446305.734;-5.700;7.711;12.219;3.912;-15.534;-34.347;-77.337;-52.638
5446305.742;-4.321;6.109;12.591;6.929;-13.821;-25.183;-72.308;-44.145
5446305.750;-10.394;-0.484;2.235;0.671;-24.065;-24.028;-77.710;-43.698
5446305.758;-25.891;-16.615;-10.617;-15.721;-24.252;-36.657;-91.232;-56.736
5446305.766;-40.196;-30.883;-26.673;-28.498;-35.875;-54.985;-111.274;-71.824
5446305.774;-43.847;-36.359;-28.200;-33.155;-42.282;-61.244;-122.935;-72.643
5446305.782;-45.672;-41.574;-29.393;-39.451;-47.050;-58.711;-120.997;-70.110
5446305.790;-42.059;-36.359;-29.579;-33.975;-48.392;-48.950;-109.859;-65.081
5446305.798;-46.529;-40.196;-33.118;-35.651;-45.486;-53.346;-115.000;-73.947
5446305.806;-50.738;-42.878;-39.376;-33.453;-47.050;-56.215;-117.868;-68.992
5446305.814;-55.917;-47.758;-47.013;-35.800;-56.550;-61.020;-119.954;-71.377
5446305.822;-63.442;-55.693;-58.524;-43.064;-67.577;-67.204;-125.542;-79.647
5446305.830;-65.193;-56.848;-59.865;-47.050;-75.027;-70.632;-132.695;-80.429
5446305.838;-67.838;-59.940;-59.791;-48.690;-77.486;-79.051;-144.802;-84.527
5446305.846;-67.502;-60.983;-59.530;-46.492;-64.597;-81.472;-148.378;-84.639
5446305.872;-64.075;-57.518;-58.450;-43.437;-61.728;-84.899;-154.264;-92.499
5446305.880;-64.224;-59.046;-58.785;-46.492;-65.714;-84.899;-156.425;-93.207
5446305.888;-69.253;-64.895;-69.812;-49.509;-80.168;-86.948;-161.864;-98.273
5446305.896;-73.239;-67.540;-74.282;-48.503;-76.257;-91.419;-169.240;-106.469
5446305.904;-72.531;-66.161;-66.198;-40.904;-64.336;-88.774;-166.409;-103.116
5446305.912;-74.618;-65.230;-68.955;-43.511;-73.016;-81.658;-164.583;-97.528
5446305.920;-82.813;-72.122;-80.988;-47.162;-87.433;-77.225;-163.242;-94.436
5446305.928;-71.041;-62.883;-67.092;-34.980;-70.296;-80.466;-166.968;-96.224
5446305.936;-65.006;-57.518;-62.175;-37.588;-64.522;-86.166;-171.028;-103.675
5446305.944;-70.706;-65.900;-62.771;-54.315;-61.877;-99.465;-186.488;-113.100
5446305.952;-64.038;-65.975;-51.707;-58.785;-42.170;-102.185;-195.131;-113.659
5446305.960;-57.742;-59.232;-45.449;-55.097;-41.649;-97.267;-192.486;-108.480
5446305.968;-57.667;-56.326;-47.088;-52.638;-43.735;-97.714;-195.466;-113.100
5446305.976;-64.485;-64.261;-54.836;-59.716;-48.727;-100.583;-198.670;-121.444
5446305.984;-71.488;-71.414;-64.075;-63.665;-62.212;-106.618;-205.785;-125.542
5446305.992;-75.810;-76.815;-68.918;-61.877;-57.071;-112.355;-213.198;-130.609
5446306.000;-79.460;-79.721;-70.855;-66.124;-53.979;-111.870;-213.422;-129.156
5446306.008;-78.306;-78.306;-70.632;-66.124;-51.856;-101.849;-206.195;-117.794
5446306.016;-89.593;-90.897;-83.260;-75.698;-67.912;-102.483;-209.138;-125.617
5446306.024;-103.116;-104.755;-104.271;-88.960;-90.972;-103.228;-213.943;-129.901
5446306.032;-108.667;-108.406;-110.082;-89.891;-93.132;-96.709;-212.826;-126.176
5446306.040;-110.231;-106.990;-105.277;-85.831;-85.533;-101.589;-221.394;-130.124
5446306.048;-103.675;-103.600;-98.012;-80.541;-77.039;-99.465;-214.875;-129.193
5446306.056;-105.426;-108.592;-101.849;-84.415;-75.661;-103.526;-215.285;-130.944
5446306.081;-114.404;-116.937;-111.572;-92.313;-85.235;-116.900;-230.074;-142.567
5446306.089;-112.876;-113.919;-114.664;-88.699;-94.585;-118.986;-235.215;-137.798
5446306.097;-108.853;-111.274;-106.245;-88.960;-84.452;-118.762;-233.650;-136.457
5446306.105;-103.749;-107.400;-94.958;-81.733;-77.635;-111.349;-228.584;-128.858
5446306.113;-100.806;-105.985;-89.332;-81.211;-77.300;-106.916;-227.056;-124.164
5446306.121;-108.965;-112.280;-99.912;-93.393;-89.742;-115.223;-235.960;-135.675
5446306.129;-109.561;-109.226;-99.689;-84.639;-91.232;-122.748;-244.230;-139.922
5446306.137;-116.341;-113.472;-103.675;-81.919;-95.032;-138.879;-262.894;-156.648
5446306.145;-127.442;-125.766;-114.702;-92.648;-109.076;-137.873;-262.521;-156.350
5446306.153;-119.135;-118.427;-96.969;-87.954;-93.468;-135.303;-260.547;-152.811
5446306.161;-105.686;-106.208;-76.704;-84.713;-75.549;-137.538;-261.441;-154.302
5446306.169;-103.489;-106.059;-72.792;-87.693;-75.661;-135.452;-262.707;-157.878
5446306.177;-106.283;-112.168;-74.692;-97.752;-79.423;-138.022;-268.631;-159.815
5446306.185;-105.761;-113.733;-62.212;-100.322;-70.408;-136.383;-267.699;-158.511
5446306.193;-103.228;-110.380;-59.754;-93.617;-72.978;-141.300;-275.858;-163.727
5446306.201;-105.537;-111.721;-61.654;-93.766;-73.761;-148.378;-285.208;-169.240
5446306.209;-107.065;-109.971;-60.089;-94.660;-74.320;-147.596;-286.214;-168.718
5446306.217;-111.759;-114.515;-58.673;-99.353;-81.547;-153.556;-292.882;-177.212
5446306.225;-110.343;-113.696;-58.822;-97.714;-86.613;-152.364;-289.939;-176.542
5446306.233;-115.521;-117.719;-59.009;-100.806;-87.954;-156.313;-295.974;-179.224
5446306.241;-114.962;-114.627;-56.922;-92.126;-85.905;-148.304;-292.510;-169.538
5446306.249;-113.025;-112.653;-53.532;-87.544;-83.968;-138.581;-288.151;-162.572
5446306.257;-115.372;-114.031;-55.544;-90.227;-88.997;-137.687;-288.524;-165.179
5446306.265;-122.301;-122.562;-59.567;-104.606;-94.101;-142.306;-294.335;-168.569
5446306.339;-124.499;-124.946;-59.567;-107.251;-95.107;-142.455;-292.175;-170.805
5446306.347;-124.872;-124.052;-54.650;-102.706;-107.624;-144.877;-291.094;-172.257
5446306.355;-132.471;-130.236;-60.424;-105.575;-105.724;-150.204;-298.806;-171.512
5446306.363;-136.495;-128.560;-62.510;-103.116;-103.116;-155.009;-306.554;-174.828
5446306.371;-130.832;-126.660;-52.825;-100.359;-99.801;-153.743;-305.213;-176.430
5446306.379;-128.821;-129.603;-55.507;-103.936;-103.526;-157.319;-305.511;-181.533
5446306.387;-128.597;-130.944;-56.438;-103.824;-106.469;-161.119;-310.652;-188.015
5446306.395;-134.073;-133.216;-61.803;-104.457;-117.011;-160.672;-316.016;-184.849
5446306.403;-141.896;-142.567;-65.304;-120.588;-117.272;-157.841;-315.048;-182.278
5446306.411;-138.097;-141.189;-55.917;-118.800;-107.177;-161.640;-320.151;-185.743
5446306.419;-129.491;-133.030;-46.939;-109.673;-102.632;-158.958;-318.512;-180.639
5446306.427;-119.880;-123.009;-40.606;-100.434;-99.391;-160.895;-319.220;-185.668
5446306.435;-127.703;-130.273;-46.529;-108.518;-110.045;-170.432;-329.763;-195.354
5446306.443;-139.400;-143.908;-58.338;-122.078;-129.938;-177.920;-338.666;-203.922
5446306.451;-139.549;-145.026;-57.481;-121.854;-125.207;-175.796;-337.288;-199.564
5446306.459;-133.142;-140.108;-47.423;-113.174;-109.598;-166.669;-326.671;-191.592
5446306.467;-140.667;-146.665;-58.003;-119.247;-124.611;-170.693;-331.923;-199.117
5446306.475;-152.513;-156.350;-69.812;-128.411;-138.953;-176.504;-340.901;-204.034
5446306.483;-153.445;-159.033;-61.840;-131.018;-132.434;-176.467;-345.148;-200.085
5446306.491;-151.433;-151.880;-65.751;-123.084;-140.630;-173.748;-345.670;-191.890
5446306.499;-155.829;-159.033;-68.769;-131.391;-133.477;-182.316;-352.748;-203.960
5446306.507;-160.784;-164.509;-78.380;-136.122;-142.120;-185.333;-355.951;-214.167
5446306.515;-163.652;-169.203;-78.529;-135.675;-148.080;-180.155;-351.705;-206.232
5446306.523;-160.970;-165.179;-67.353;-135.787;-148.565;-179.335;-349.469;-201.054
5446306.546;-159.480;-160.709;-70.892;-125.803;-156.015;-186.861;-353.418;-206.828
5446306.554;-164.099;-168.234;-75.810;-126.474;-145.249;-196.286;-365.674;-210.218
5446306.562;-168.011;-170.022;-71.749;-128.746;-148.863;-198.968;-367.574;-215.434
5446306.570;-162.274;-162.534;-67.763;-122.264;-148.676;-191.294;-358.783;-213.571
5446306.578;-162.832;-164.323;-72.569;-123.829;-154.525;-184.812;-353.418;-210.106
5446306.586;-155.605;-155.531;-66.198;-113.435;-149.645;-182.912;-354.052;-208.467
5446306.594;-149.235;-151.172;-53.458;-114.664;-131.913;-190.958;-365.265;-216.886
5446306.602;-149.608;-156.350;-50.664;-126.325;-120.699;-195.950;-370.964;-217.892
5446306.610;-140.481;-148.751;-31.590;-125.393;-102.557;-196.472;-370.592;-216.775
5446306.618;-141.859;-153.519;-31.479;-137.240;-100.806;-197.701;-374.541;-217.929
5446306.626;-142.977;-155.382;-29.728;-147.186;-99.130;-195.578;-372.864;-214.837
5446306.634;-150.092;-164.807;-36.657;-155.568;-107.661;-201.687;-382.774;-220.910
5446306.642;-161.864;-173.822;-45.262;-159.219;-121.631;-211.485;-393.502;-229.292
5446306.650;-169.016;-178.255;-54.650;-168.085;-118.166;-213.422;-395.998;-232.607
5446306.658;-164.546;-180.006;-53.048;-166.334;-121.295;-208.840;-391.826;-231.899
5446306.666;-168.681;-185.594;-50.031;-167.415;-118.241;-208.765;-391.379;-232.197
5446306.674;-172.146;-184.551;-57.779;-164.136;-122.264;-206.903;-392.497;-231.452
5446306.682;-162.758;-174.679;-53.830;-151.619;-119.656;-186.265;-374.429;-209.697
5446306.690;-166.036;-181.459;-55.172;-161.901;-121.295;-181.831;-374.615;-208.952
5446306.698;-177.175;-187.568;-64.336;-168.905;-130.162;-189.468;-386.424;-223.853
5446306.706;-182.278;-194.274;-76.368;-172.369;-140.555;-190.213;-389.777;-226.237
5446306.714;-187.531;-203.848;-83.521;-185.072;-145.137;-191.033;-389.628;-223.480
5446306.722;-189.841;-202.730;-79.460;-181.533;-145.547;-197.291;-391.640;-226.237
5446306.730;-189.021;-201.203;-80.541;-177.808;-150.017;-206.716;-398.085;-232.197
5446306.757;-194.237;-205.263;-89.481;-184.476;-156.611;-216.998;-408.553;-237.040
5446306.765;-189.878;-200.756;-73.463;-178.665;-138.171;-213.385;-406.317;-229.627
5446306.773;-193.678;-205.301;-74.469;-180.714;-140.965;-219.755;-412.203;-236.332
5446306.781;-183.620;-195.280;-67.167;-164.658;-142.381;-220.463;-414.848;-234.731
5446306.789;-175.983;-182.092;-71.153;-147.969;-145.435;-219.680;-413.954;-237.376
5446306.797;-173.971;-178.777;-70.557;-147.521;-138.395;-217.557;-413.358;-239.648
5446306.805;-171.401;-180.304;-53.793;-147.484;-119.172;-210.963;-408.068;-239.089
5446306.813;-171.177;-176.616;-57.034;-149.608;-126.287;-200.458;-399.500;-228.062
5446306.821;-177.361;-186.712;-63.516;-155.121;-138.134;-205.822;-404.045;-231.490
5446306.829;-182.129;-190.958;-68.732;-155.307;-141.859;-210.851;-407.770;-237.636
5446306.837;-195.801;-197.962;-87.731;-160.038;-161.603;-216.998;-419.132;-235.550
5446306.845;-191.815;-198.670;-82.441;-162.497;-165.887;-217.408;-419.803;-236.332
5446306.853;-186.488;-189.096;-65.118;-153.966;-143.647;-223.331;-426.508;-246.912
5446306.861;-187.196;-191.778;-69.253;-156.052;-151.172;-225.715;-430.308;-251.234
5446306.869;-182.651;-191.480;-70.184;-152.513;-153.296;-212.528;-416.115;-242.144
5446306.877;-184.812;-193.827;-72.941;-153.258;-151.061;-210.106;-413.768;-241.064
5446306.885;-186.116;-194.125;-79.274;-157.878;-160.374;-209.659;-411.533;-240.244
5446306.893;-190.251;-201.203;-75.772;-160.933;-156.723;-210.069;-413.172;-237.376
5446306.901;-190.437;-196.956;-74.990;-158.586;-155.382;-213.906;-413.731;-242.181
5446306.909;-185.966;-192.784;-68.881;-153.631;-150.613;-217.073;-415.295;-246.800
5446306.917;-190.996;-200.123;-75.623;-157.319;-160.560;-228.807;-432.469;-257.120
5446306.925;-188.611;-198.111;-79.013;-158.809;-169.985;-227.503;-434.853;-253.543
5446306.933;-180.155;-193.343;-60.834;-155.941;-158.884;-219.084;-425.987;-249.185
5446306.941;-182.614;-198.223;-62.995;-159.703;-152.960;-220.686;-430.159;-248.440
5446306.877;-184.253;-190.847;-62.324;-150.502;-162.087;-224.337;-431.426;-254.177
5446306.885;-183.918;-186.004;-59.158;-147.559;-164.025;-221.431;-427.514;-256.449
5446306.893;-181.794;-185.035;-62.250;-142.269;-173.151;-213.236;-421.964;-247.546
5446306.901;-178.963;-186.823;-58.450;-143.014;-177.324;-211.895;-419.840;-244.156
5446306.909;-181.571;-192.635;-47.497;-152.700;-170.954;-217.296;-423.491;-245.348
5446306.917;-183.322;-196.956;-43.362;-160.262;-161.380;-227.503;-434.071;-257.455
5446306.925;-191.033;-208.057;-46.492;-169.836;-166.930;-234.470;-443.086;-263.453
5446306.933;-187.382;-196.621;-48.988;-160.895;-170.879;-235.997;-445.247;-266.731
5446306.941;-181.161;-189.133;-46.417;-144.653;-173.487;-237.636;-446.104;-267.364
5446306.949;-181.124;-187.308;-34.198;-146.218;-172.257;-231.601;-440.925;-262.149
5446306.957;-181.980;-190.698;-21.942;-154.786;-164.881;-232.272;-446.402;-262.782
5446306.965;-182.092;-192.933;-21.048;-152.513;-168.234;-233.836;-446.551;-261.925
5446306.973;-180.975;-192.896;-22.091;-150.315;-172.779;-227.317;-437.722;-255.667
5446306.981;-179.186;-190.362;-21.569;-148.788;-173.785;-220.351;-429.265;-256.039
5446306.989;-176.877;-186.302;-15.944;-147.298;-172.816;-215.098;-425.726;-250.377
5446306.997;-181.608;-190.400;-16.131;-149.608;-176.691;-220.276;-431.910;-254.810
5446307.005;-183.657;-192.486;-17.472;-152.215;-178.702;-215.992;-428.148;-250.265
5446307.013;-190.921;-201.873;-15.423;-164.099;-182.092;-214.502;-425.167;-249.073
5446307.021;-190.586;-200.085;-18.850;-159.219;-187.643;-214.353;-428.446;-243.559
5446307.029;-197.068;-207.201;-20.228;-163.652;-189.655;-225.306;-439.510;-252.947
5446307.037;-202.134;-214.763;-20.042;-168.197;-195.131;-231.564;-446.513;-256.896
5446307.045;-197.776;-208.654;-25.406;-165.477;-199.676;-229.403;-440.180;-261.664
5446307.053;-189.990;-197.776;-10.058;-159.554;-192.411;-222.102;-435.337;-251.420
5446307.061;-185.780;-197.962;-6.706;-154.376;-187.904;-218.898;-432.059;-246.726
5446307.159;-190.325;-204.071;-6.296;-162.609;-179.075;-227.205;-440.180;-261.217
5446307.167;-188.611;-200.458;2.310;-164.211;-183.806;-222.102;-435.151;-254.922
5446307.175;-188.015;-199.229;-5.960;-162.274;-200.942;-220.872;-432.543;-251.494
5446307.183;-184.625;-197.068;-1.453;-154.600;-191.107;-221.878;-433.847;-250.600
5446307.191;-183.471;-194.721;6.706;-151.619;-182.018;-224.188;-435.263;-252.947
5446307.199;-189.133;-202.097;0.000;-159.442;-189.245;-228.249;-438.318;-260.212
5446307.207;-187.308;-199.713;-3.502;-159.256;-188.351;-217.408;-432.581;-250.228
5446307.215;-190.064;-202.730;-7.525;-165.403;-211.075;-217.184;-430.979;-252.649
5446307.223;-194.684;-207.424;-6.780;-168.271;-215.136;-224.411;-437.126;-258.647
5446307.231;-199.042;-213.496;-11.325;-170.246;-205.748;-230.372;-442.266;-261.031
5446307.239;-199.713;-213.310;-15.944;-166.483;-203.177;-226.721;-437.461;-256.337
5446307.247;-193.864;-206.418;-8.009;-163.391;-198.744;-220.276;-435.077;-249.334
5446307.255;-199.266;-208.467;-0.261;-173.785;-196.807;-224.561;-438.951;-254.996
5446307.263;-203.513;-215.918;-9.313;-174.753;-210.814;-231.564;-444.204;-264.272
5446307.271;-186.749;-205.226;1.751;-167.452;-200.979;-221.320;-433.065;-253.357
5446307.279;-181.831;-196.248;-2.682;-157.692;-205.114;-221.506;-432.357;-249.632
5446307.287;-185.147;-196.472;-2.161;-153.445;-214.390;-229.962;-442.490;-256.151
5446307.295;-187.829;-204.407;11.027;-157.468;-194.982;-238.456;-452.995;-266.768
5446307.303;-198.409;-211.559;-5.774;-167.526;-211.224;-244.044;-458.471;-274.032
5446307.311;-199.340;-209.846;-5.029;-164.919;-223.853;-243.261;-457.577;-271.201
5446307.319;-186.525;-199.191;-1.490;-157.207;-211.485;-231.601;-450.276;-256.225
5446307.327;-180.267;-194.348;13.299;-152.215;-187.531;-227.317;-444.092;-260.435
5446307.335;-182.316;-193.901;13.933;-147.671;-197.403;-230.819;-443.533;-267.066
5446307.343;-177.734;-186.041;18.552;-140.406;-190.623;-233.725;-446.849;-266.284
5446307.343;-154.786;-164.472;42.170;-128.709;-174.455;-233.613;-448.115;-264.607
5446307.351;-129.789;-138.544;68.806;-107.251;-151.433;-231.229;-444.688;-260.137
5446307.359;-112.727;-120.848;84.564;-90.487;-144.914;-230.260;-444.129;-256.784
5446307.367;-93.803;-101.924;105.798;-76.815;-118.837;-234.433;-451.766;-257.194
5446307.375;-70.967;-75.810;131.465;-54.650;-98.571;-223.294;-436.977;-247.397
5446307.383;-67.055;-71.377;132.807;-50.515;-97.677;-227.466;-442.639;-251.308
5446307.391;-68.694;-77.002;133.961;-53.309;-104.718;-239.499;-451.319;-264.309
5446307.399;-68.694;-76.480;129.528;-54.725;-110.455;-238.307;-448.488;-267.737
5446307.407;-68.508;-80.392;117.123;-63.814;-117.235;-229.627;-439.622;-259.206
5446307.415;-84.005;-94.213;109.524;-73.835;-112.094;-227.988;-438.094;-260.696
5446307.423;-100.546;-111.237;93.281;-83.856;-134.781;-232.123;-444.204;-263.266
5446307.431;-116.564;-128.299;69.551;-101.104;-150.576;-241.101;-453.964;-266.545
5446307.439;-133.254;-147.633;42.394;-116.862;-163.689;-246.018;-459.664;-268.817
5446307.447;-146.553;-160.225;20.377;-126.772;-183.545;-243.857;-458.844;-267.290
5446307.455;-144.467;-161.715;24.475;-123.084;-174.046;-230.782;-447.072;-253.208
5446307.463;-155.270;-172.034;23.060;-131.913;-176.467;-240.356;-454.560;-263.080
5446307.471;-163.577;-173.971;13.895;-134.595;-194.535;-240.169;-452.101;-260.063
5446307.479;-174.157;-185.706;-6.892;-145.808;-205.971;-240.989;-451.505;-265.911
5446307.487;-190.511;-199.936;-25.891;-155.680;-220.649;-251.345;-465.140;-277.236
5446307.495;-193.976;-204.816;-31.628;-158.511;-230.707;-249.594;-465.401;-274.256
5446307.503;-200.234;-209.101;-30.622;-156.276;-225.045;-237.115;-456.162;-267.029
5446307.511;-200.607;-209.883;-33.081;-152.998;-216.849;-226.460;-448.339;-265.241
5446307.519;-193.790;-206.083;-39.525;-153.296;-211.634;-221.059;-444.911;-257.976
5446307.527;-196.472;-213.496;-41.015;-162.758;-222.735;-228.845;-448.041;-262.707
5446307.506;-200.383;-213.943;-42.506;-156.946;-230.893;-236.370;-454.560;-261.478
5446307.514;-205.599;-217.631;-41.872;-161.119;-224.188;-245.571;-464.767;-264.198
5446307.522;-213.534;-228.956;-56.475;-171.065;-228.435;-250.675;-467.747;-269.860
5446307.530;-209.473;-215.508;-61.058;-158.809;-237.338;-247.546;-463.985;-268.072
5446307.538;-208.318;-217.296;-63.926;-164.062;-242.144;-244.156;-457.391;-265.129
5446307.546;-204.705;-213.794;-51.558;-152.662;-226.833;-243.634;-455.230;-267.848
5446307.554;-196.695;-204.667;-45.337;-141.189;-210.665;-238.009;-447.780;-260.361
5446307.562;-197.403;-210.255;-49.509;-148.676;-216.365;-238.083;-449.866;-260.621
5446307.570;-198.670;-211.745;-50.962;-150.092;-218.563;-238.232;-450.090;-265.799
5446307.578;-201.985;-211.522;-67.279;-150.129;-225.566;-242.181;-457.652;-267.066
5446307.586;-201.911;-214.949;-63.330;-149.831;-222.102;-240.318;-456.497;-264.421
5446307.594;-211.410;-224.784;-62.063;-161.082;-232.905;-248.998;-461.787;-276.677
5446307.602;-204.295;-220.425;-59.009;-153.035;-229.068;-246.391;-457.317;-276.566
5446307.610;-198.074;-209.473;-57.854;-145.771;-216.067;-235.587;-449.195;-261.739
5446307.618;-192.411;-206.865;-56.177;-144.951;-204.444;-236.109;-450.835;-257.269
5446307.626;-194.050;-210.777;-64.559;-144.653;-213.012;-236.817;-450.686;-259.764
5446307.634;-191.778;-204.444;-63.553;-142.604;-206.865;-235.513;-447.035;-263.490
5446307.642;-193.492;-205.450;-59.605;-149.012;-215.769;-233.352;-443.496;-262.298
5446307.650;-196.658;-210.255;-63.963;-148.453;-219.382;-229.441;-438.914;-260.882
5446307.658;-196.025;-212.714;-70.110;-143.722;-221.655;-230.521;-441.633;-259.094
5446307.666;-190.139;-204.071;-65.379;-143.833;-222.959;-227.951;-437.833;-256.598
5446307.674;-195.615;-207.275;-72.233;-150.166;-211.559;-235.960;-446.960;-263.862
5446307.682;-200.197;-211.820;-73.053;-147.112;-215.098;-235.327;-446.700;-261.851
5446307.690;-200.644;-215.136;-62.771;-147.447;-215.918;-236.742;-447.296;-264.756
5446307.670;-192.747;-205.003;-60.946;-143.349;-218.041;-236.444;-447.370;-266.880
5446307.678;-183.508;-195.242;-64.149;-139.587;-219.457;-236.556;-446.625;-267.103
5446307.686;-176.989;-191.815;-46.864;-133.961;-201.724;-233.576;-441.149;-262.409
5446307.694;-180.975;-191.927;-45.598;-126.213;-202.022;-236.407;-444.129;-266.172
5446307.702;-183.769;-196.286;-48.168;-133.030;-209.175;-242.628;-449.270;-274.815
5446307.710;-182.763;-195.131;-47.348;-132.844;-208.132;-243.857;-447.631;-278.503
5446307.718;-172.630;-183.955;-31.888;-126.883;-197.701;-239.909;-443.794;-272.915
5446307.726;-161.938;-174.902;-19.073;-121.854;-188.909;-235.550;-439.510;-267.178
5446307.734;-155.792;-169.575;-10.245;-119.135;-188.649;-241.920;-449.680;-272.654
5446307.742;-130.013;-146.963;23.618;-104.979;-152.402;-238.940;-446.700;-267.550
5446307.750;-100.732;-114.068;53.085;-75.772;-131.130;-229.143;-436.045;-258.759
5446307.758;-66.422;-74.953;84.303;-34.310;-111.312;-229.441;-435.486;-263.937
5446307.766;-35.018;-36.135;111.237;7.339;-95.665;-223.555;-428.669;-258.163
5446307.774;-5.513;-4.694;134.967;36.694;-85.756;-211.634;-415.221;-242.814
5446307.782;10.841;12.778;144.243;60.014;-85.235;-208.206;-410.378;-237.487
5446307.790;13.784;15.423;140.928;70.073;-96.895;-214.353;-414.103;-250.265
5446307.798;8.717;13.895;124.350;74.953;-117.421;-217.147;-420.026;-248.216
5446307.806;-0.224;11.362;102.222;71.302;-137.761;-221.469;-422.560;-252.947
5446307.814;-16.652;1.602;70.482;68.322;-162.236;-223.964;-424.720;-254.028
5446307.822;-50.738;-31.777;29.095;46.901;-198.781;-232.570;-432.506;-260.957
5446307.830;-81.211;-65.677;-9.388;22.165;-224.635;-237.860;-438.057;-263.900
5446307.838;-101.067;-83.558;-40.531;10.543;-245.757;-231.490;-425.465;-259.951
5446307.846;-124.834;-106.506;-70.557;-1.974;-266.358;-224.225;-416.748;-258.796
5446307.854;-149.198;-130.460;-97.379;-24.363;-276.081;-226.311;-424.385;-260.398
5446307.807;-173.114;-158.623;-127.591;-48.615;-298.321;-232.384;-427.514;-263.751
5446307.815;-193.641;-181.794;-152.104;-68.732;-316.314;-248.104;-439.920;-273.287
5446307.823;-201.091;-190.325;-163.242;-74.320;-318.214;-246.614;-438.206;-271.425
5446307.831;-212.900;-206.716;-172.965;-89.779;-324.436;-247.061;-435.710;-281.781
5446307.839;-214.390;-205.077;-178.330;-92.536;-322.908;-240.877;-429.600;-280.067
5446307.847;-215.843;-209.138;-182.018;-93.766;-325.367;-237.413;-431.612;-273.846
5446307.855;-229.441;-225.455;-191.852;-104.308;-336.394;-239.275;-438.839;-273.548
5446307.863;-230.186;-225.790;-189.804;-106.618;-317.730;-229.552;-429.973;-266.768
5446307.871;-239.499;-234.917;-203.140;-117.049;-329.390;-234.619;-431.724;-277.348
5446307.879;-244.603;-238.679;-210.926;-117.831;-334.717;-235.885;-429.079;-281.408
5446307.887;-237.264;-230.782;-205.860;-107.065;-325.702;-227.988;-417.978;-274.442
5446307.895;-236.742;-233.278;-207.871;-111.163;-327.379;-221.133;-409.447;-269.115
5446307.903;-239.052;-236.258;-212.714;-114.813;-328.459;-219.904;-409.856;-263.378
5446307.911;-250.675;-246.502;-226.796;-123.195;-340.343;-230.595;-419.877;-266.954
5446307.919;-256.449;-252.463;-231.192;-124.611;-336.766;-232.942;-418.536;-264.794
5446307.927;-262.484;-263.155;-232.905;-132.993;-335.984;-235.364;-420.697;-267.923
5446307.935;-261.180;-258.274;-238.307;-129.528;-339.001;-242.256;-431.612;-275.336
5446307.943;-262.894;-254.996;-240.393;-129.417;-341.646;-243.597;-433.475;-273.921
5446307.951;-265.352;-260.472;-244.752;-132.136;-341.982;-232.980;-423.081;-262.484
5446307.959;-263.788;-263.676;-245.720;-135.824;-340.529;-227.466;-417.344;-259.951
5446307.967;-262.819;-259.802;-243.634;-134.893;-346.787;-233.650;-424.050;-269.339
5446307.975;-262.074;-256.225;-241.473;-129.379;-331.923;-240.728;-427.477;-276.975
5446307.983;-259.243;-255.778;-240.989;-128.038;-327.453;-235.662;-421.405;-271.201
5446307.991;-262.409;-261.739;-247.024;-133.701;-332.110;-236.519;-424.162;-269.562
5446308.091;-262.819;-264.123;-247.285;-137.240;-327.751;-237.972;-426.359;-269.562
5446308.099;-266.917;-267.662;-255.816;-140.853;-336.170;-246.242;-435.486;-275.150
5446308.107;-265.203;-267.699;-257.790;-139.438;-337.213;-243.783;-435.337;-271.238
5446308.115;-259.466;-263.490;-249.557;-136.569;-321.008;-245.273;-437.014;-271.089
5446308.123;-262.186;-264.309;-252.128;-142.679;-317.283;-246.093;-434.853;-271.834
5446308.131;-267.066;-269.301;-259.764;-146.516;-319.257;-246.540;-433.549;-272.542
5446308.139;-273.436;-275.858;-269.823;-150.912;-326.484;-250.787;-438.243;-272.617
5446308.147;-270.270;-274.219;-269.227;-151.247;-323.057;-251.047;-438.802;-268.966
5446308.155;-266.023;-273.138;-269.301;-154.711;-324.771;-255.518;-443.198;-277.013
5446308.163;-262.037;-269.040;-265.837;-149.757;-313.185;-252.239;-438.429;-278.689
5446308.171;-263.229;-270.344;-269.599;-150.502;-308.417;-251.085;-436.865;-277.236
5446308.179;-270.829;-277.646;-279.993;-156.164;-317.022;-255.406;-440.553;-281.371
5446308.187;-276.379;-280.812;-285.543;-156.201;-321.418;-254.214;-436.492;-279.583
5446308.195;-279.956;-285.432;-290.722;-160.560;-322.312;-253.022;-438.280;-279.099
5446308.203;-266.992;-274.554;-278.540;-149.980;-308.529;-237.785;-425.205;-263.639
5446308.211;-274.740;-284.091;-291.020;-160.709;-319.406;-242.926;-431.761;-266.843
5446308.219;-278.801;-286.587;-296.608;-163.876;-329.986;-245.869;-436.530;-271.536
5446308.227;-272.170;-277.907;-289.232;-156.164;-310.130;-239.462;-429.675;-264.645
5446308.235;-276.305;-283.644;-295.676;-158.995;-308.305;-248.924;-434.369;-270.046
5446308.243;-282.675;-294.149;-304.095;-169.203;-319.369;-261.515;-443.384;-278.950
5446308.251;-281.930;-292.920;-305.325;-169.724;-320.897;-262.298;-442.639;-284.612
5446308.259;-277.571;-281.222;-304.505;-157.431;-319.220;-248.589;-430.755;-267.476
5446308.267;-270.158;-274.815;-300.966;-146.814;-310.242;-235.960;-419.542;-258.684
5446308.275;-268.184;-272.617;-302.643;-145.547;-305.325;-237.450;-419.803;-269.040
5446308.259;-269.264;-273.362;-314.154;-149.049;-312.738;-237.152;-416.413;-273.474
5446308.267;-269.525;-274.442;-308.938;-148.267;-320.710;-236.407;-412.837;-269.227
5446308.275;-270.009;-275.187;-304.095;-150.576;-305.139;-233.948;-410.005;-263.266
5446308.283;-270.493;-276.677;-308.938;-154.153;-304.095;-236.034;-416.078;-262.931
5446308.291;-274.777;-278.801;-318.103;-153.519;-308.976;-238.717;-420.399;-266.954
5446308.299;-271.648;-280.216;-316.352;-153.258;-303.909;-230.446;-412.539;-257.716
5446308.307;-272.468;-283.271;-318.661;-153.370;-306.778;-229.925;-411.309;-256.151
5446308.315;-273.772;-277.609;-323.132;-148.341;-309.609;-232.644;-413.023;-259.578
5446308.323;-275.485;-278.130;-329.651;-148.900;-317.283;-231.750;-410.043;-256.561
5446308.331;-273.474;-280.924;-327.826;-151.470;-308.268;-232.048;-409.260;-258.051
5446308.339;-279.173;-288.598;-333.898;-158.437;-305.697;-237.823;-414.960;-266.768
5446308.347;-283.383;-294.000;-341.721;-162.087;-313.036;-235.513;-413.880;-262.074
5446308.355;-275.820;-287.816;-338.592;-158.958;-308.268;-236.221;-413.470;-263.192
5446308.363;-274.479;-283.457;-337.102;-153.184;-302.829;-237.674;-413.209;-265.427
5446308.371;-266.284;-274.777;-330.694;-139.065;-296.310;-231.080;-409.633;-259.727
5446308.379;-258.908;-266.992;-330.135;-134.781;-299.662;-224.262;-402.667;-254.884
5446308.387;-255.331;-263.005;-325.590;-134.110;-292.100;-228.323;-403.672;-260.621
5446308.395;-252.835;-263.117;-319.146;-131.726;-280.030;-230.446;-404.380;-262.260
5446308.403;-254.586;-264.049;-323.504;-134.408;-280.291;-228.472;-400.841;-257.529
5446308.411;-256.300;-263.415;-323.430;-132.769;-282.265;-230.521;-399.686;-256.002
5446308.419;-256.971;-265.017;-322.834;-136.755;-284.798;-244.118;-411.123;-270.046
5446308.427;-255.033;-265.762;-321.269;-138.097;-285.432;-238.344;-408.143;-261.404
5446308.435;-258.386;-270.121;-325.926;-141.636;-288.971;-233.799;-405.647;-254.065
5446308.443;-263.900;-274.256;-332.892;-147.931;-300.892;-237.040;-410.266;-261.627
5446308.436;-268.780;-277.497;-333.376;-152.476;-297.874;-241.250;-415.221;-265.390
5446308.444;-258.833;-269.413;-323.765;-143.349;-288.114;-231.937;-403.300;-253.804
5446308.452;-255.816;-269.413;-317.730;-146.143;-285.991;-234.768;-404.567;-254.288
5446308.460;-254.847;-267.178;-312.142;-144.504;-285.357;-237.189;-406.504;-260.510
5446308.468;-248.887;-260.472;-308.231;-138.097;-279.918;-228.770;-398.234;-256.188
5446308.476;-243.373;-256.710;-304.207;-133.067;-273.176;-220.165;-390.336;-248.961
5446308.484;-240.467;-256.151;-300.854;-134.893;-276.603;-216.551;-384.189;-245.832
5446308.492;-239.499;-254.698;-296.831;-132.136;-269.115;-219.978;-386.648;-248.291
5446308.500;-249.892;-261.068;-304.468;-138.246;-278.987;-227.801;-394.173;-256.598
5446308.508;-248.812;-257.976;-303.201;-133.328;-283.495;-225.194;-389.777;-250.190
5446308.516;-250.041;-259.764;-301.749;-129.156;-284.091;-224.598;-389.405;-240.095
5446308.524;-251.010;-263.602;-302.419;-137.947;-282.861;-233.203;-397.563;-253.022
5446308.532;-259.802;-279.211;-315.346;-147.782;-300.072;-239.909;-403.896;-266.284
5446308.540;-254.363;-268.593;-304.468;-135.861;-292.137;-236.258;-401.847;-264.533
5446308.548;-236.034;-244.305;-277.907;-118.501;-260.994;-217.259;-387.393;-248.142
5446308.556;-223.182;-234.768;-264.719;-108.220;-250.079;-208.840;-378.005;-239.350
5446308.564;-222.512;-241.473;-262.596;-112.914;-247.732;-210.069;-378.378;-241.622
5446308.572;-224.151;-242.479;-267.662;-116.602;-259.914;-216.439;-382.848;-249.334
5446308.580;-219.755;-232.905;-263.862;-109.039;-258.908;-216.141;-378.527;-251.755
5446308.588;-219.718;-233.948;-263.825;-105.649;-249.781;-212.342;-375.099;-249.296
5446308.596;-212.453;-231.713;-263.900;-97.454;-255.406;-199.676;-363.402;-236.817
5446308.604;-206.716;-222.810;-256.225;-93.877;-250.041;-188.500;-352.785;-220.686
5446308.612;-222.623;-234.693;-269.786;-110.678;-265.613;-199.676;-363.663;-229.962
5446308.620;-228.584;-242.293;-272.803;-108.927;-270.605;-200.681;-364.594;-234.693
5446308.571;-226.498;-241.213;-269.413;-107.214;-263.266;-197.440;-356.846;-237.003
5446308.579;-227.205;-240.728;-274.368;-106.283;-268.929;-201.538;-357.032;-244.863
5446308.587;-214.018;-225.641;-262.298;-91.195;-253.990;-193.603;-351.891;-232.533
5446308.595;-193.045;-207.610;-238.754;-82.664;-236.295;-186.525;-347.756;-218.451
5446308.603;-179.335;-195.839;-225.045;-71.712;-227.988;-188.611;-350.960;-221.431
5446308.611;-157.654;-178.218;-203.960;-60.610;-210.032;-186.935;-344.589;-223.033
5446308.619;-151.210;-169.501;-199.266;-51.446;-207.573;-193.492;-348.128;-234.060
5446308.627;-142.492;-157.319;-194.013;-47.572;-212.565;-192.896;-347.197;-230.037
5446308.635;-137.798;-149.906;-184.625;-37.886;-197.515;-188.388;-343.248;-220.314
5446308.643;-144.206;-157.766;-188.239;-40.419;-200.570;-191.852;-347.570;-220.798
5446308.651;-148.602;-165.775;-190.958;-47.423;-205.636;-189.804;-346.042;-214.428
5446308.659;-142.008;-161.156;-183.322;-44.815;-194.833;-177.547;-335.798;-203.475
5446308.667;-145.547;-164.621;-190.102;-47.460;-197.180;-172.779;-331.663;-203.773
5446308.675;-151.284;-169.165;-193.976;-55.730;-204.220;-171.848;-329.018;-204.183
5446308.683;-158.809;-175.759;-199.340;-64.746;-212.118;-176.206;-331.812;-213.832
5446308.691;-156.797;-174.791;-200.793;-58.971;-216.737;-170.991;-327.863;-210.293
5446308.699;-153.743;-173.263;-196.658;-58.562;-212.863;-167.862;-325.292;-208.467
5446308.707;-164.546;-185.035;-205.487;-71.488;-210.591;-173.599;-330.061;-209.697
5446308.715;-171.065;-190.884;-212.379;-71.451;-218.712;-178.926;-334.866;-208.579
5446308.723;-173.971;-193.156;-214.241;-72.904;-220.574;-181.161;-335.127;-206.828
5446308.731;-164.323;-183.918;-206.418;-68.210;-215.396;-179.037;-329.316;-204.071
5446308.739;-149.459;-171.475;-189.915;-55.321;-199.117;-176.132;-325.404;-202.172
5446308.747;-147.037;-168.905;-185.743;-51.409;-197.776;-173.599;-321.530;-202.842
5446308.755;-150.055;-169.054;-192.188;-51.670;-205.860;-172.295;-319.891;-200.793
5446308.738;-150.390;-171.289;-190.474;-55.097;-191.666;-171.214;-318.624;-201.352
5446308.746;-149.757;-171.363;-190.549;-54.091;-192.598;-179.447;-325.292;-207.797
5446308.754;-147.484;-169.314;-188.574;-50.254;-192.747;-187.866;-334.196;-210.367
5446308.762;-138.395;-159.107;-179.186;-44.405;-184.588;-187.010;-336.356;-205.711
5446308.770;-131.167;-150.204;-171.177;-30.175;-178.367;-187.345;-336.654;-210.069
5446308.778;-119.768;-134.408;-158.660;-11.548;-169.091;-183.955;-335.686;-212.453
5446308.786;-93.505;-107.102;-131.875;12.815;-146.739;-175.387;-329.651;-204.407
5446308.794;-56.513;-65.602;-95.293;49.397;-117.570;-167.377;-320.934;-195.019
5446308.802;-18.924;-23.693;-57.556;87.693;-88.401;-156.462;-308.938;-182.986
5446308.810;14.976;13.746;-23.507;120.290;-62.175;-157.766;-309.013;-184.961
5446308.818;39.972;39.600;1.416;140.183;-39.935;-164.546;-320.561;-189.990
5446308.826;64.671;64.783;22.613;162.460;-26.897;-158.176;-310.466;-187.755
5446308.834;79.870;79.758;37.029;176.132;-12.703;-147.857;-297.278;-178.702
5446308.842;80.615;76.443;37.625;179.522;-5.700;-140.518;-288.971;-171.326
5446308.850;62.548;58.897;16.764;160.262;-23.060;-144.988;-295.974;-173.897
5446308.858;44.890;42.208;-3.316;144.206;-34.161;-144.653;-293.255;-175.275
5446308.866;30.734;30.324;-21.160;132.471;-42.468;-145.994;-294.484;-175.908
5446308.874;4.880;-0.149;-51.297;109.226;-66.049;-158.772;-307.336;-187.643
5446308.882;-9.984;-18.813;-67.018;96.299;-78.268;-154.153;-299.923;-185.743
5446308.890;-31.553;-44.107;-85.793;74.320;-92.760;-149.198;-294.894;-180.304
5446308.898;-58.115;-76.182;-112.802;43.735;-108.890;-150.055;-294.819;-181.161
5446308.906;-78.715;-96.932;-135.228;21.718;-125.095;-153.631;-299.290;-185.147
5446308.914;-93.728;-112.988;-150.353;12.033;-127.405;-160.746;-305.399;-190.884
5446308.922;-97.044;-119.284;-153.892;7.264;-121.891;-158.735;-300.072;-187.755
5446308.916;-98.087;-119.619;-155.605;8.903;-120.327;-148.192;-290.200;-179.373
5446308.924;-105.761;-127.740;-171.624;4.284;-130.050;-139.065;-281.110;-175.424
5446308.932;-114.366;-138.134;-181.049;-9.909;-142.790;-147.820;-289.679;-187.196
5446308.940;-113.286;-136.420;-179.000;-8.345;-132.397;-145.435;-289.753;-186.041
5446308.948;-123.009;-145.100;-185.035;-10.654;-138.506;-143.759;-289.679;-186.190
5446308.956;-127.479;-145.137;-190.288;-8.158;-141.300;-140.518;-285.767;-178.516
5446308.964;-119.917;-138.506;-179.484;-5.700;-139.661;-135.563;-277.460;-169.501
5446308.972;-113.063;-136.532;-173.636;-1.118;-133.738;-141.561;-278.540;-175.536
5446308.980;-105.835;-130.534;-165.030;3.390;-123.791;-145.249;-279.509;-177.324
5446308.988;-111.200;-135.042;-170.097;-3.800;-124.909;-147.037;-283.495;-178.888
5446308.996;-124.536;-149.123;-180.192;-15.274;-132.695;-152.737;-289.157;-185.445
5446309.004;-121.966;-146.776;-176.318;-9.686;-125.431;-144.765;-280.477;-176.877
5446309.012;-120.066;-143.871;-169.575;-8.233;-125.840;-136.010;-270.084;-165.366
5446309.020;-112.802;-136.867;-165.068;-1.751;-121.817;-132.136;-266.321;-162.348
5446309.028;-116.117;-139.698;-171.550;-4.955;-126.064;-133.775;-268.072;-168.607
5446309.036;-116.900;-139.810;-165.924;-4.470;-129.715;-130.720;-265.203;-165.999
5446309.044;-111.908;-136.010;-158.548;4.098;-132.658;-126.325;-259.355;-164.956
5446309.052;-118.352;-140.108;-164.285;-0.671;-127.628;-125.095;-258.088;-166.968
5446309.060;-118.949;-141.375;-162.497;-2.496;-126.362;-120.960;-258.163;-159.293
5446309.068;-122.413;-146.069;-163.428;-7.041;-130.273;-123.605;-262.372;-159.070
5446309.076;-127.405;-152.215;-165.291;-14.454;-132.620;-130.348;-269.860;-163.056
5446309.084;-133.067;-159.256;-169.352;-20.377;-137.053;-136.644;-274.144;-171.885
5446309.092;-132.993;-160.709;-168.197;-21.383;-137.091;-139.736;-272.430;-175.647
5446309.100;-130.497;-160.076;-162.572;-20.191;-132.993;-137.985;-267.364;-171.810
5446309.097;-120.066;-148.155;-152.774;-10.058;-126.995;-130.311;-260.510;-161.603
5446309.105;-126.511;-153.594;-159.927;-14.789;-137.016;-142.492;-274.107;-168.979
5446309.113;-126.436;-155.829;-158.064;-17.062;-135.601;-145.622;-276.379;-169.314
5446309.121;-128.187;-156.425;-154.860;-22.016;-126.213;-146.069;-277.981;-168.905
5446309.129;-126.138;-154.637;-149.123;-15.050;-121.184;-145.063;-280.589;-165.142
5446309.137;-102.296;-126.846;-125.319;13.597;-102.222;-143.088;-276.230;-167.526
5446309.145;-73.574;-92.946;-96.485;44.815;-82.552;-143.945;-272.319;-174.344
5446309.153;-33.751;-48.764;-58.487;84.154;-53.830;-130.795;-259.504;-159.591
5446309.161;-1.788;-12.219;-28.610;116.266;-31.777;-131.205;-257.604;-162.497
5446309.169;28.796;22.724;2.906;146.441;-6.258;-126.734;-251.904;-158.288
5446309.177;54.687;56.401;27.530;177.287;11.735;-125.915;-250.265;-155.158
5446309.185;60.089;62.212;31.553;178.069;10.766;-134.706;-257.641;-161.789
5446309.193;71.786;70.296;41.202;184.663;18.813;-131.056;-252.575;-159.219
5446309.201;68.508;63.032;37.365;177.212;17.583;-126.734;-248.849;-155.419
5446309.209;42.655;38.631;7.860;152.364;-5.960;-134.185;-259.057;-164.025
5446309.217;15.423;11.176;-21.644;126.474;-27.716;-136.755;-262.111;-163.913
5446309.225;13.039;8.084;-26.636;125.654;-26.040;-126.623;-252.277;-151.992
5446309.233;-3.949;-12.852;-44.778;104.383;-39.190;-131.354;-257.157;-154.823
5446309.241;-29.095;-40.792;-72.606;78.492;-67.130;-138.804;-261.888;-162.870
5446309.249;-33.565;-50.776;-76.443;68.694;-65.453;-130.497;-251.681;-155.605
5446309.257;-49.099;-69.216;-90.376;51.074;-71.600;-134.669;-253.953;-157.394
5446309.265;-64.932;-85.048;-111.163;43.437;-86.874;-135.452;-255.406;-156.164
5446309.273;-76.704;-95.777;-121.556;34.273;-91.493;-135.712;-255.778;-155.270
5446309.281;-78.343;-101.589;-120.997;24.773;-92.275;-139.214;-258.461;-160.448
5446309.291;-69.924;-96.969;-116.415;30.063;-85.086;-133.067;-257.418;-156.872
5446309.299;-82.031;-109.375;-125.617;16.317;-95.405;-135.899;-262.000;-161.007
5446309.307;-82.664;-109.039;-130.795;16.317;-98.459;-130.124;-254.922;-156.835
5446309.315;-77.859;-103.712;-127.256;24.438;-95.107;-121.109;-245.422;-147.820
5446309.323;-77.635;-106.059;-122.897;23.134;-89.966;-111.647;-235.923;-140.779
5446309.331;-84.899;-114.478;-133.254;14.454;-100.620;-107.214;-231.080;-141.375
5446309.339;-81.472;-109.226;-133.850;19.968;-104.569;-100.359;-221.878;-134.334
5446309.347;-89.221;-118.427;-135.973;6.780;-96.671;-111.349;-230.521;-138.357
5446309.355;-87.805;-118.352;-136.457;9.686;-94.064;-116.825;-234.060;-145.696
5446309.363;-89.034;-122.525;-141.002;8.084;-92.275;-116.751;-235.029;-143.200
5446309.371;-94.660;-128.374;-141.002;-0.969;-99.130;-119.992;-241.026;-143.498
5446309.379;-93.281;-128.187;-138.693;0.745;-100.881;-116.341;-235.923;-139.475
5446309.387;-89.407;-123.158;-138.991;4.768;-99.763;-113.361;-231.564;-139.214
5446309.395;-92.871;-127.666;-144.653;-0.186;-104.010;-119.023;-236.183;-144.765
5446309.403;-104.010;-138.544;-156.388;-9.239;-117.347;-123.940;-238.009;-151.619
5446309.411;-101.514;-134.148;-157.617;-6.519;-118.986;-126.250;-242.367;-154.115
5446309.419;-100.993;-133.514;-152.998;-5.662;-108.480;-122.041;-240.132;-145.510
5446309.427;-101.998;-136.867;-153.035;-8.382;-107.251;-125.505;-242.926;-143.647
5446309.435;-93.915;-128.150;-144.839;-0.112;-103.414;-119.656;-234.731;-138.022
5446309.443;-74.506;-109.337;-127.032;17.546;-86.054;-111.647;-223.331;-135.191
5446309.451;-86.091;-120.252;-138.991;8.047;-97.640;-121.035;-231.564;-143.424
5446309.459;-86.091;-123.233;-140.332;6.333;-98.310;-114.776;-226.609;-135.787
5446309.467;-81.211;-113.845;-136.271;13.448;-97.379;-113.547;-224.374;-135.899
5446309.475;-87.023;-117.123;-140.332;8.158;-97.416;-117.980;-229.552;-137.947
5446309.426;-88.811;-118.837;-144.653;3.800;-102.557;-117.645;-231.229;-138.916
5446309.434;-85.607;-114.851;-143.722;9.835;-98.385;-119.098;-233.091;-140.518
5446309.442;-74.394;-104.420;-135.489;22.091;-88.699;-111.386;-221.878;-132.211
5446309.450;-71.637;-103.265;-133.552;19.483;-84.899;-109.524;-217.669;-130.013
5446309.458;-72.271;-103.749;-136.644;18.775;-83.223;-111.125;-219.829;-135.042
5446309.466;-82.515;-112.765;-144.951;8.382;-91.977;-121.258;-229.366;-145.510
5446309.474;-90.785;-121.221;-153.966;-1.304;-98.087;-124.685;-230.893;-144.541
5446309.482;-108.145;-137.612;-171.140;-14.082;-113.733;-133.403;-234.246;-155.307
5446309.490;-110.269;-139.922;-175.945;-14.305;-122.599;-122.711;-225.157;-143.349
5446309.498;-114.739;-144.839;-174.418;-20.862;-111.237;-123.903;-229.441;-146.590
5446309.506;-111.796;-140.816;-169.575;-19.670;-100.546;-118.241;-221.469;-142.306
5446309.514;-99.614;-128.448;-156.425;-7.711;-90.003;-103.451;-204.667;-124.685
5446309.522;-110.120;-138.916;-167.638;-19.409;-104.755;-114.776;-217.557;-137.351
5446309.530;-121.072;-151.061;-176.914;-31.255;-116.900;-126.809;-232.086;-148.006
5446309.538;-123.568;-152.811;-178.069;-33.379;-122.450;-127.442;-234.731;-145.249
5446309.546;-128.485;-157.505;-181.608;-35.353;-128.411;-128.895;-234.172;-147.074
5446309.554;-112.839;-142.790;-166.483;-25.481;-118.501;-117.160;-221.320;-139.512
5446309.562;-106.581;-135.563;-155.345;-21.048;-98.795;-114.106;-218.190;-134.520
5446309.570;-105.873;-133.850;-154.190;-16.317;-96.522;-117.496;-220.388;-135.452
5446309.578;-94.585;-121.742;-141.747;-1.378;-93.281;-115.037;-216.886;-134.856
5446309.586;-79.572;-105.500;-121.482;7.749;-80.802;-114.851;-216.402;-133.067
5446309.594;-67.391;-93.170;-104.532;15.460;-68.322;-116.527;-217.892;-132.285
5446309.602;-50.962;-74.059;-92.797;28.983;-56.848;-110.306;-211.745;-124.611
5446309.610;-26.226;-44.554;-62.063;57.928;-39.898;-104.867;-209.063;-120.178
5446309.549;7.264;-7.339;-24.624;89.221;-15.385;-104.047;-208.095;-120.923
5446309.557;42.059;28.796;11.660;118.352;6.743;-105.202;-206.791;-120.513
5446309.565;72.643;62.287;47.423;148.825;40.755;-104.792;-206.307;-118.688
5446309.573;105.686;102.669;79.609;184.216;61.356;-99.428;-200.830;-114.590
5446309.581;105.277;104.532;80.056;183.098;55.358;-104.904;-205.226;-118.762
5446309.589;90.599;87.358;69.737;166.744;42.133;-113.994;-213.161;-128.299
5446309.597;85.346;76.778;58.413;154.786;32.112;-112.727;-209.361;-133.701
5446309.605;74.804;70.632;47.944;146.218;19.334;-110.604;-209.436;-128.224
5446309.613;52.266;45.374;25.816;119.843;-1.751;-110.939;-212.379;-126.585
5446309.621;53.421;43.400;26.301;116.043;2.123;-96.373;-196.211;-112.280
5446309.629;45.560;34.533;22.464;111.461;4.731;-95.405;-192.411;-107.810
5446309.637;24.624;14.231;-0.820;90.636;-10.207;-97.789;-195.652;-112.131
5446309.645;3.204;-9.313;-27.940;66.198;-33.565;-106.357;-204.146;-121.891
5446309.653;-7.823;-25.034;-36.024;52.862;-43.213;-110.678;-206.940;-122.748
5446309.661;-5.886;-26.338;-35.800;54.091;-38.818;-98.199;-194.274;-110.418
5446309.669;-16.876;-37.514;-45.262;41.947;-46.492;-92.797;-190.809;-105.202
5446309.677;-27.008;-47.572;-49.956;30.994;-52.005;-92.946;-190.660;-108.294
5446309.685;-34.682;-58.189;-60.946;21.420;-60.908;-96.373;-194.572;-112.914
5446309.693;-51.484;-78.529;-80.466;-0.522;-80.690;-108.108;-206.381;-127.032
5446309.701;-58.860;-86.352;-82.515;-7.525;-72.680;-105.388;-203.662;-125.915
5446309.709;-51.409;-79.088;-72.718;0.298;-62.175;-89.668;-188.053;-109.859
5446309.717;-53.942;-81.286;-73.835;0.075;-62.324;-85.942;-183.769;-105.537
5446309.725;-59.083;-87.954;-78.194;-6.817;-67.092;-88.699;-185.780;-108.741
5446309.733;-56.736;-87.619;-71.675;-6.594;-63.777;-84.117;-176.318;-105.426
5446309.786;-66.422;-98.310;-81.286;-15.795;-76.517;-90.785;-177.585;-114.664
5446309.794;-59.381;-90.264;-79.609;-8.382;-75.810;-87.582;-171.885;-109.039
5446309.802;-64.299;-95.479;-81.211;-11.586;-67.391;-90.860;-174.120;-111.088
5446309.810;-72.308;-104.085;-86.166;-21.048;-71.824;-90.227;-173.859;-111.200
5446309.818;-79.721;-109.635;-93.989;-29.691;-81.956;-90.525;-175.945;-110.418
5446309.826;-69.775;-98.236;-86.576;-16.913;-74.208;-82.739;-169.203;-102.296
5446309.834;-61.542;-89.742;-80.466;-5.625;-66.385;-76.480;-162.832;-94.064
5446309.842;-60.312;-88.774;-79.125;-7.227;-69.551;-80.205;-165.328;-96.112
5446309.850;-60.610;-88.587;-77.933;-9.164;-78.864;-79.907;-164.360;-94.548
5446309.858;-68.471;-97.230;-79.945;-16.615;-76.219;-87.991;-171.326;-103.116
5446309.866;-76.145;-105.426;-89.407;-20.936;-83.297;-96.224;-180.379;-109.598
5446309.874;-74.469;-102.967;-87.470;-18.813;-80.056;-91.568;-175.796;-105.500
5446309.882;-64.075;-91.866;-76.331;-9.649;-70.743;-76.890;-158.884;-92.424
5446309.890;-73.612;-102.259;-85.384;-20.638;-77.970;-79.386;-162.087;-95.852
5446309.898;-87.842;-119.284;-97.342;-39.004;-86.948;-88.029;-170.358;-106.022
5446309.906;-105.239;-137.389;-113.435;-56.587;-106.096;-95.889;-178.367;-112.057
5446309.914;-120.364;-150.986;-127.628;-69.030;-117.347;-103.414;-186.600;-116.676
5446309.922;-112.019;-144.280;-116.453;-64.448;-99.540;-99.577;-181.794;-109.598
5446309.930;-112.802;-144.690;-116.788;-63.442;-103.228;-97.305;-179.186;-106.767
5446309.938;-106.357;-139.438;-114.031;-58.711;-98.720;-96.485;-176.430;-105.128
5446309.946;-111.721;-143.908;-118.390;-66.310;-103.116;-103.414;-182.614;-112.541
5446309.954;-110.790;-142.045;-116.304;-65.006;-102.073;-96.411;-175.200;-106.730
5446309.962;-109.188;-141.636;-116.415;-61.356;-99.503;-89.668;-170.171;-102.371
5446309.970;-122.748;-153.817;-131.875;-71.414;-117.943;-101.291;-181.608;-113.845
5446310.026;-116.639;-147.298;-127.703;-65.751;-105.873;-99.763;-180.602;-112.690
5446310.034;-103.824;-136.234;-113.994;-56.513;-88.699;-87.656;-170.060;-102.669
5446310.042;-86.389;-120.997;-94.026;-42.990;-73.239;-78.380;-158.176;-97.193
5446310.050;-87.358;-123.307;-96.187;-44.629;-72.196;-90.823;-167.377;-113.100
5446310.058;-88.885;-124.387;-98.832;-40.680;-74.431;-94.958;-170.916;-113.584
5446310.066;-90.972;-125.058;-102.818;-41.537;-82.627;-90.152;-165.179;-105.053
5446310.074;-98.459;-132.583;-110.827;-49.397;-88.699;-88.401;-162.534;-99.428
5446310.082;-100.099;-136.308;-116.415;-52.899;-90.189;-79.162;-152.849;-91.083
5446310.090;-92.313;-129.715;-111.125;-46.194;-82.925;-69.253;-140.518;-83.186
5446310.098;-79.796;-113.547;-97.640;-28.312;-65.714;-67.167;-136.718;-79.162
5446310.106;-93.356;-127.107;-115.335;-44.443;-78.976;-79.349;-148.416;-89.519
5446310.114;-113.174;-148.378;-136.904;-65.677;-95.144;-92.909;-162.460;-102.483
5446310.122;-115.670;-151.806;-140.928;-65.044;-99.242;-89.221;-160.635;-97.863
5446310.130;-120.811;-156.499;-147.894;-68.024;-104.085;-91.940;-164.025;-99.167
5446310.138;-123.680;-158.623;-154.003;-71.004;-111.423;-98.273;-171.252;-102.930
5446310.146;-126.176;-162.274;-158.325;-74.059;-112.802;-95.628;-170.432;-98.012
5446310.154;-128.262;-161.231;-158.325;-73.612;-101.440;-98.534;-172.481;-101.365
5446310.162;-114.404;-145.212;-143.349;-58.077;-90.562;-91.195;-162.497;-101.440
5446310.170;-107.810;-143.647;-135.377;-57.109;-90.450;-82.664;-154.711;-93.803
5446310.178;-110.120;-144.914;-135.563;-56.587;-91.344;-82.217;-155.829;-95.554
5446310.186;-111.125;-144.504;-139.028;-57.109;-94.213;-89.332;-164.025;-103.749
5446310.194;-107.251;-139.996;-134.036;-52.601;-94.622;-92.871;-166.446;-107.959
5446310.202;-95.628;-130.348;-120.662;-44.666;-83.186;-88.625;-160.411;-99.055
5446310.210;-89.854;-123.419;-110.678;-37.998;-66.757;-87.358;-158.250;-94.585
5446310.236;-80.094;-114.217;-100.099;-30.585;-59.679;-79.907;-152.886;-86.464
5446310.244;-84.899;-120.439;-103.936;-36.582;-66.943;-81.249;-152.774;-92.015
5446310.252;-97.752;-132.248;-112.690;-45.188;-79.311;-84.452;-152.886;-98.869
5446310.260;-107.065;-142.343;-115.819;-55.432;-82.888;-85.123;-154.153;-95.963
5446310.268;-101.030;-138.730;-105.985;-55.358;-74.729;-80.355;-150.278;-87.433
5446310.276;-97.081;-133.403;-103.302;-47.460;-75.549;-77.076;-149.049;-79.386
5446310.284;-98.534;-132.285;-108.555;-46.939;-85.644;-83.633;-153.705;-84.937
5446310.292;-93.617;-127.442;-101.142;-45.411;-79.758;-83.148;-150.092;-88.848
5446310.300;-88.289;-125.021;-90.525;-45.896;-67.838;-77.002;-143.796;-85.421
5446310.308;-95.107;-133.403;-93.021;-52.452;-74.059;-79.796;-148.565;-87.917
5446310.316;-94.064;-131.987;-88.401;-47.199;-74.357;-75.623;-146.143;-82.068
5446310.324;-89.146;-123.903;-86.166;-40.084;-73.761;-76.070;-141.449;-85.868
5446310.332;-85.831;-120.997;-79.796;-39.972;-68.322;-73.798;-139.922;-86.315
5446310.340;-76.368;-109.337;-68.769;-30.547;-62.659;-73.053;-139.214;-83.633
5446310.348;-70.445;-103.265;-64.075;-25.220;-64.820;-74.320;-138.208;-81.956
5446310.356;-64.820;-97.081;-56.513;-20.824;-56.736;-70.445;-134.930;-75.325
5446310.364;-53.197;-87.060;-39.525;-10.468;-38.780;-59.754;-126.436;-67.316
5446310.372;-48.205;-81.472;-37.625;-6.557;-41.053;-60.275;-124.648;-75.661
5446310.380;-39.451;-70.930;-25.481;1.267;-30.696;-59.381;-121.631;-73.947
5446310.388;-41.127;-70.892;-26.152;2.049;-32.373;-64.597;-125.729;-76.033
5446310.396;-32.820;-62.138;-14.417;11.362;-25.742;-66.943;-128.374;-73.873
5446310.404;-14.156;-40.382;6.929;32.634;-8.643;-69.439;-130.869;-71.898
5446310.412;17.732;-3.278;40.904;65.193;20.787;-63.591;-125.431;-65.342
5446310.420;56.513;40.010;77.486;101.961;46.231;-55.432;-118.278;-57.146
5446310.401;88.885;75.661;109.076;131.726;66.087;-53.011;-115.409;-57.146
5446310.409;121.072;110.976;142.045;160.150;89.891;-51.484;-112.951;-56.513
5446310.417;149.496;143.982;168.867;185.296;107.586;-51.484;-110.939;-59.530
5446310.425;157.766;155.382;181.049;192.337;123.605;-49.658;-107.326;-59.977
5446310.433;167.228;159.331;186.861;199.154;127.740;-43.288;-99.353;-53.905
5446310.441;152.662;141.412;171.922;178.516;113.323;-55.879;-112.355;-63.106
5446310.449;146.553;135.526;164.695;170.730;111.349;-46.678;-100.583;-56.624
5446310.457;131.279;119.470;137.500;154.376;91.717;-40.457;-94.324;-51.819
5446310.465;106.804;93.766;114.962;133.328;71.712;-50.515;-111.200;-56.326
5446310.473;96.448;79.870;113.063;122.972;67.204;-51.633;-110.231;-53.830
5446310.481;77.263;62.808;92.946;105.835;51.856;-60.685;-114.627;-64.559
5446310.489;43.772;31.888;55.917;75.139;22.575;-74.804;-125.580;-83.558
5446310.497;26.897;13.225;36.582;58.264;6.668;-66.198;-118.725;-71.414
5446310.505;10.915;-6.407;21.942;42.021;-3.502;-69.141;-121.333;-79.200
5446310.513;7.898;-13.560;21.458;37.439;-2.533;-66.236;-119.992;-71.339
5446310.521;9.164;-15.311;22.799;32.485;8.792;-63.591;-115.409;-65.826
5446310.529;1.006;-23.022;14.566;25.406;1.006;-59.940;-111.498;-66.198
5446310.537;-10.170;-33.192;2.608;16.354;-8.605;-54.799;-111.088;-63.814
5446310.545;-38.557;-63.293;-23.358;-14.044;-28.014;-61.393;-120.513;-71.712
5446310.553;-56.401;-81.994;-37.774;-28.275;-40.010;-62.473;-121.444;-72.196
5446310.561;-66.385;-93.617;-45.635;-38.594;-51.595;-65.379;-122.041;-76.406
5446310.569;-66.161;-94.660;-43.884;-37.886;-45.523;-61.058;-115.968;-72.718
5446310.577;-59.418;-88.923;-39.339;-32.410;-40.829;-52.042;-105.500;-62.771
5446310.585;-73.537;-102.855;-54.464;-47.274;-52.899;-67.949;-118.464;-82.850
5446310.659;-78.827;-107.810;-58.450;-51.558;-47.758;-71.824;-121.668;-83.223
5446310.667;-79.498;-108.629;-56.811;-51.819;-52.638;-67.614;-115.223;-76.555
5446310.675;-77.896;-105.351;-55.991;-49.993;-52.825;-59.158;-107.288;-63.665
5446310.683;-88.885;-115.037;-68.508;-62.846;-63.106;-68.210;-118.278;-71.228
5446310.691;-79.796;-104.196;-65.528;-55.395;-61.691;-68.024;-119.507;-71.786
5446310.699;-67.763;-92.164;-50.254;-42.133;-49.621;-61.616;-110.082;-66.534
5446310.707;-74.916;-98.422;-64.485;-44.294;-63.218;-65.267;-111.684;-71.786
5446310.715;-75.698;-100.136;-67.241;-45.970;-59.046;-57.518;-103.042;-64.969
5446310.723;-87.582;-114.590;-71.302;-62.399;-61.169;-64.000;-109.151;-75.065
5446310.731;-83.335;-110.902;-71.861;-57.109;-62.399;-57.183;-101.998;-68.508
5446310.739;-76.443;-101.998;-69.439;-48.131;-53.607;-52.042;-99.801;-60.871
5446310.747;-65.640;-99.055;-60.387;-48.131;-51.185;-55.544;-103.600;-62.399
5446310.755;-65.640;-96.597;-71.153;-45.411;-61.765;-57.630;-107.028;-64.224
5446310.763;-61.989;-89.556;-65.304;-42.915;-44.517;-63.926;-112.243;-67.763
5446310.771;-52.154;-80.168;-60.089;-33.043;-34.273;-59.828;-107.475;-62.548
5446310.779;-45.523;-69.961;-64.410;-24.028;-37.365;-51.558;-96.075;-54.315
5446310.787;-47.423;-76.108;-62.585;-26.487;-38.296;-55.768;-97.416;-65.900
5446310.795;-47.274;-75.251;-59.642;-28.126;-34.608;-54.017;-98.534;-66.422
5446310.803;-41.835;-63.479;-59.232;-18.962;-35.875;-49.695;-93.505;-61.020
5446310.811;-38.110;-60.052;-55.842;-14.640;-25.742;-48.392;-90.823;-57.481
5446310.819;-42.580;-67.018;-60.871;-23.469;-26.524;-50.403;-96.299;-58.115
5446310.827;-52.191;-77.561;-74.059;-33.081;-40.121;-48.988;-99.316;-55.432
5446310.835;-68.061;-94.473;-86.166;-50.329;-52.489;-54.277;-105.016;-57.258
5446310.843;-76.666;-103.489;-85.048;-59.120;-57.071;-58.971;-108.257;-60.536
5446310.881;-93.132;-120.364;-103.116;-76.741;-77.374;-74.543;-122.786;-75.363
5446310.889;-101.030;-126.176;-111.535;-84.229;-78.790;-73.053;-123.307;-75.623
5446310.897;-98.236;-121.854;-103.265;-78.380;-73.798;-72.233;-121.109;-77.151
5446310.905;-90.897;-111.535;-93.989;-70.110;-67.800;-61.505;-111.274;-65.602
5446310.913;-88.438;-110.194;-88.140;-70.371;-67.018;-56.215;-106.916;-57.183
5446310.921;-89.891;-115.186;-90.860;-73.388;-70.371;-65.714;-112.057;-69.998
5446310.929;-89.742;-114.031;-90.487;-73.835;-70.892;-56.885;-103.898;-64.485
5446310.937;-96.187;-121.593;-97.267;-81.435;-80.839;-55.097;-102.967;-62.585
5446310.945;-87.693;-111.945;-87.507;-71.637;-72.457;-44.443;-92.201;-51.074
5446310.953;-76.368;-98.720;-72.718;-60.052;-57.258;-38.110;-86.762;-45.970
5446310.961;-83.111;-103.638;-75.549;-61.765;-66.720;-54.576;-102.632;-63.889
5446310.969;-81.062;-100.136;-72.867;-60.424;-65.230;-55.879;-103.191;-62.250
5446310.977;-69.737;-87.805;-56.066;-50.366;-53.942;-55.060;-98.012;-60.312
5446310.985;-49.546;-64.410;-32.820;-25.928;-37.961;-62.212;-103.004;-67.577
5446310.993;-26.487;-36.322;-8.829;-1.155;-22.538;-64.000;-106.953;-64.224
5446311.001;4.619;1.416;23.730;29.244;-0.745;-58.748;-102.855;-59.158
5446311.009;46.119;44.927;67.763;62.808;30.585;-48.056;-91.419;-48.131
5446311.017;95.256;98.571;116.862;110.231;68.471;-37.551;-79.572;-36.061
5446311.025;124.611;133.142;145.584;143.014;84.825;-36.322;-77.076;-35.726
5446311.033;134.446;145.286;159.927;152.215;101.440;-35.986;-75.176;-41.835
5446311.041;129.230;138.767;156.425;142.269;94.138;-40.531;-81.025;-45.523
5446311.049;119.433;126.511;146.665;130.832;83.186;-42.208;-81.696;-45.523
5446311.057;97.454;102.110;122.748;106.171;63.479;-51.446;-87.805;-53.421
5446311.065;88.550;93.505;112.914;97.640;56.811;-45.821;-81.956;-47.944
5446311.094;73.388;76.741;94.846;84.080;42.804;-43.698;-82.180;-47.125
5446311.102;51.223;51.670;69.998;59.940;22.426;-54.613;-92.573;-54.985
5446311.110;34.720;33.304;51.297;42.357;8.903;-56.922;-93.170;-58.860
5446311.118;24.550;20.042;38.147;28.685;3.912;-50.664;-88.215;-50.552
5446311.126;15.832;8.419;27.306;19.297;-7.860;-46.752;-85.756;-44.554
5446311.134;6.929;-2.533;25.146;11.213;-7.562;-52.229;-89.295;-48.876
5446311.142;0.224;-12.107;21.458;3.949;-2.906;-57.295;-92.313;-56.215
5446311.150;-12.927;-25.332;7.153;-9.872;-19.446;-60.424;-93.281;-61.765
5446311.158;-22.277;-35.278;-2.757;-20.415;-25.220;-56.438;-87.693;-59.307
5446311.166;-21.048;-35.986;-1.155;-20.191;-21.607;-43.139;-76.368;-47.274
5446311.174;-30.100;-45.672;-6.370;-27.306;-26.040;-39.041;-74.953;-45.747
5446311.182;-39.339;-55.954;-14.231;-35.800;-31.255;-36.806;-74.618;-43.735
5446311.190;-48.205;-62.026;-21.830;-40.606;-39.637;-37.104;-75.288;-43.362
5446311.198;-58.301;-73.165;-31.516;-51.148;-48.168;-41.910;-78.194;-45.002
5446311.206;-66.981;-81.994;-40.457;-59.493;-54.948;-44.703;-78.641;-46.715
5446311.214;-76.555;-93.617;-50.403;-67.055;-65.453;-45.374;-77.598;-48.801
5446311.222;-79.833;-97.603;-54.315;-71.563;-59.754;-45.672;-77.039;-48.876
5446311.230;-84.676;-102.073;-48.950;-78.306;-59.493;-51.111;-82.105;-53.048
5446311.238;-75.474;-94.548;-41.761;-71.079;-52.452;-50.738;-81.658;-47.572
5446311.246;-83.894;-101.551;-53.905;-75.623;-65.602;-62.063;-92.760;-57.556
5446311.254;-84.713;-103.302;-54.948;-77.710;-66.236;-60.052;-88.625;-54.464
5446311.262;-72.829;-91.642;-43.698;-65.938;-54.352;-52.266;-82.292;-45.262
5446311.270;-79.423;-95.293;-55.954;-68.173;-70.333;-58.636;-87.619;-51.409
5446311.278;-78.753;-94.697;-52.750;-67.614;-59.232;-59.828;-87.097;-54.091
5446311.255;-69.253;-87.358;-44.405;-60.834;-47.386;-53.123;-81.845;-50.627
5446311.263;-63.777;-83.707;-37.998;-58.189;-46.790;-48.354;-77.039;-47.982
5446311.271;-72.159;-91.866;-43.251;-70.557;-53.085;-59.307;-87.060;-60.499
5446311.279;-69.067;-88.587;-40.904;-64.224;-46.603;-58.003;-85.272;-55.619
5446311.287;-75.214;-95.889;-47.199;-69.477;-49.584;-56.922;-84.862;-47.311
5446311.295;-81.658;-103.563;-53.756;-74.469;-56.140;-62.883;-91.046;-52.750
5446311.303;-91.344;-113.212;-63.255;-86.538;-70.743;-72.606;-99.093;-62.510
5446311.311;-90.636;-111.796;-60.759;-82.664;-62.361;-67.614;-95.256;-56.252
5446311.319;-85.756;-106.134;-57.630;-75.996;-56.103;-63.442;-92.275;-55.954
5446311.327;-91.270;-113.063;-64.932;-85.048;-63.330;-70.930;-100.993;-59.232
5446311.335;-82.366;-102.744;-57.854;-73.127;-55.209;-61.765;-89.034;-52.489
5446311.343;-82.925;-99.801;-59.493;-70.594;-59.642;-58.822;-83.409;-51.707
5446311.351;-72.531;-89.668;-57.444;-60.759;-62.771;-52.154;-76.965;-47.088
5446311.359;-57.891;-73.947;-46.603;-47.199;-47.013;-41.500;-68.359;-35.986
5446311.367;-61.467;-80.317;-43.511;-55.805;-42.617;-47.870;-73.239;-43.586
5446311.375;-53.234;-73.835;-34.757;-47.944;-38.631;-43.921;-70.371;-38.780
5446311.383;-41.984;-61.654;-26.673;-41.313;-29.057;-35.055;-62.324;-30.734
5446311.391;-43.847;-63.516;-33.416;-48.354;-33.677;-46.380;-72.978;-42.841
5446311.399;-38.035;-56.699;-29.691;-36.694;-27.418;-47.088;-72.792;-45.449
5446311.407;-36.210;-54.389;-31.106;-31.032;-25.816;-49.360;-73.016;-47.274
5446311.415;-41.984;-61.840;-41.276;-40.717;-36.992;-50.776;-75.549;-43.623
5446311.423;-39.190;-57.518;-39.116;-37.476;-31.106;-49.695;-75.400;-42.133
5446311.431;-33.863;-52.005;-35.651;-33.118;-16.764;-41.239;-67.130;-35.055
5446311.439;-32.634;-50.068;-38.669;-32.000;-20.675;-34.161;-58.487;-31.963
5446311.392;-31.628;-46.343;-40.308;-28.498;-16.876;-29.244;-51.744;-27.604
5446311.400;-33.379;-48.652;-45.300;-29.244;-21.793;-36.433;-60.163;-30.324
5446311.408;-27.679;-46.007;-46.566;-28.238;-19.968;-41.053;-63.851;-33.490
5446311.416;-32.149;-53.160;-49.882;-36.582;-27.381;-53.905;-73.574;-46.603
5446311.424;-36.322;-57.481;-40.345;-42.692;-20.005;-61.467;-81.882;-50.403
5446311.432;-44.703;-63.293;-48.280;-51.148;-27.679;-65.155;-88.029;-53.719
5446311.440;-37.812;-56.922;-49.099;-40.717;-25.369;-57.295;-79.349;-49.658
5446311.448;-19.968;-38.967;-24.028;-22.277;-6.668;-36.545;-58.897;-28.387
5446311.456;-14.491;-29.765;-20.154;-15.795;-4.061;-29.840;-49.397;-21.122
5446311.464;-18.999;-33.118;-25.332;-20.079;-13.597;-32.112;-51.595;-26.040
5446311.472;-27.455;-43.325;-27.716;-31.106;-16.987;-40.904;-60.014;-37.774
5446311.480;-25.928;-43.623;-21.495;-31.404;-4.433;-47.237;-66.459;-41.649
5446311.488;-27.306;-43.362;-24.885;-31.665;-10.878;-48.205;-67.614;-41.015
5446311.496;-39.972;-54.352;-33.006;-44.405;-20.638;-53.421;-75.251;-44.294
5446311.504;-55.917;-69.886;-46.417;-58.636;-33.975;-56.550;-83.596;-47.125
5446311.512;-62.324;-78.566;-49.509;-67.800;-43.884;-60.014;-84.676;-50.478
5446311.520;-59.791;-76.815;-48.019;-67.241;-45.337;-50.217;-75.847;-41.649
5446311.528;-69.216;-84.043;-54.315;-76.294;-46.901;-48.690;-72.755;-45.784
5446311.536;-72.680;-83.335;-54.166;-76.965;-44.666;-47.497;-70.259;-46.715
5446311.544;-62.920;-72.606;-44.219;-65.453;-41.686;-38.780;-63.181;-36.471
5446311.552;-63.218;-71.116;-45.784;-62.324;-43.251;-39.525;-63.255;-37.067
5446311.560;-60.685;-69.179;-42.915;-62.175;-43.139;-47.311;-71.600;-42.953
5446311.568;-56.140;-65.975;-35.949;-61.505;-43.027;-52.825;-76.666;-40.457
5446311.576;-71.861;-81.249;-49.137;-78.417;-60.983;-67.465;-92.015;-50.217
5446311.572;-62.436;-72.494;-37.588;-73.276;-44.443;-56.252;-81.584;-40.680
5446311.580;-32.410;-43.251;-4.657;-39.078;-10.096;-24.177;-50.776;-7.637
5446311.588;-60.648;-65.751;-38.892;-61.914;-44.219;-52.601;-75.810;-46.827
5446311.596;-84.303;-88.513;-61.728;-86.948;-73.723;-73.388;-94.958;-73.500
5446311.604;-70.184;-76.704;-40.419;-77.859;-59.158;-62.808;-85.570;-59.418
5446311.612;-52.601;-55.917;-19.148;-58.785;-31.106;-62.361;-82.441;-55.768
5446311.620;-30.734;-34.571;-1.304;-37.327;-18.142;-67.241;-86.352;-54.464
5446311.628;-6.557;-4.880;27.530;-10.245;0.782;-69.402;-89.519;-53.719
5446311.636;25.220;34.161;58.971;24.177;24.587;-56.513;-74.804;-42.319
5446311.644;62.622;74.878;96.001;62.101;54.166;-40.978;-57.481;-28.796
5446311.652;86.948;100.844;120.103;87.135;70.445;-39.041;-55.023;-28.387
5446311.660;114.888;134.222;148.900;112.057;91.866;-31.367;-47.721;-19.930
5446311.668;134.669;148.341;170.879;125.617;108.331;-18.291;-34.161;-9.462
5446311.676;137.761;151.247;170.507;122.897;108.294;-18.477;-33.453;-12.480
5446311.684;132.285;155.643;159.778;125.617;92.126;-24.848;-36.992;-19.073
5446311.692;133.179;161.529;164.285;132.211;99.614;-26.636;-35.875;-21.383
5446311.700;122.078;144.169;155.345;112.541;93.877;-30.547;-40.010;-23.507
5446311.708;105.426;125.989;140.220;101.663;78.492;-23.097;-33.341;-10.692
5446311.716;87.619;105.985;118.986;81.584;62.883;-26.338;-36.806;-12.442
5446311.724;61.356;71.488;93.244;47.758;46.864;-37.439;-51.744;-19.521
5446311.732;41.761;53.495;71.563;28.946;29.802;-37.998;-52.899;-22.240
5446311.740;36.024;45.896;66.310;21.942;18.701;-35.651;-47.497;-27.381
5446311.748;25.220;34.012;52.601;14.678;4.843;-33.602;-43.698;-26.412
5446311.756;6.445;12.331;42.357;-2.049;8.903;-36.806;-46.678;-24.065
5446311.811;-8.829;-5.141;27.828;-22.650;-2.161;-43.549;-49.919;-28.312
5446311.819;-12.331;-9.276;26.114;-26.524;-4.284;-39.339;-46.678;-24.736
5446311.827;-21.867;-17.881;17.583;-39.227;-13.411;-33.230;-44.703;-23.283
5446311.835;-25.555;-24.326;13.262;-43.698;-22.016;-26.971;-42.729;-19.297
5446311.843;-28.573;-28.424;12.033;-42.655;-22.762;-21.048;-35.428;-16.503
5446311.851;-32.820;-28.647;8.419;-44.629;-28.498;-14.231;-27.232;-15.758
5446311.859;-52.266;-49.211;-6.221;-63.404;-37.700;-21.867;-36.806;-25.891
5446311.867;-62.399;-61.616;-14.640;-77.188;-40.717;-25.108;-38.929;-26.077
5446311.875;-81.509;-82.105;-37.439;-99.503;-63.628;-40.829;-51.893;-35.539
5446311.883;-79.274;-78.529;-33.043;-95.032;-63.255;-39.972;-46.939;-26.822
5446311.891;-81.435;-80.913;-36.806;-98.646;-65.304;-46.305;-52.452;-30.585
5446311.899;-83.335;-84.713;-44.852;-100.322;-69.104;-50.515;-57.928;-32.634
5446311.907;-92.015;-95.181;-52.489;-111.125;-79.572;-60.424;-67.800;-44.294
5446311.915;-60.871;-63.889;-21.011;-81.472;-46.119;-23.618;-30.696;-12.927
5446311.923;-77.486;-81.398;-40.643;-99.875;-65.938;-37.402;-40.792;-30.808
5446311.931;-92.052;-94.473;-52.378;-113.919;-72.606;-50.776;-52.676;-44.554
5446311.939;-87.880;-92.499;-47.237;-111.572;-72.382;-46.305;-49.621;-38.892
5446311.947;-81.249;-85.644;-40.159;-103.936;-65.155;-40.792;-46.119;-32.373
5446311.955;-82.925;-84.974;-43.623;-101.365;-68.583;-40.941;-49.286;-30.249
5446311.963;-80.280;-82.850;-43.586;-103.936;-71.526;-42.431;-50.701;-28.610
5446311.971;-76.443;-78.380;-38.482;-97.118;-64.299;-43.809;-52.191;-27.716
5446311.979;-71.414;-73.649;-32.410;-91.866;-48.503;-37.402;-47.982;-21.346
5446311.987;-85.719;-89.444;-39.861;-108.182;-56.438;-45.598;-55.246;-32.820
5446311.995;-93.877;-98.236;-49.658;-113.659;-62.510;-48.801;-57.705;-35.577
5446312.020;-106.171;-110.976;-62.585;-126.362;-76.853;-61.691;-70.147;-49.807
5446312.028;-94.734;-98.906;-53.681;-115.782;-69.961;-58.711;-65.528;-46.082
5446312.036;-87.880;-90.674;-53.979;-106.134;-63.069;-50.291;-55.768;-38.445
5446312.044;-81.845;-83.037;-48.317;-98.459;-61.654;-39.339;-45.970;-25.481
5446312.052;-81.360;-84.415;-46.678;-98.832;-65.789;-37.886;-44.554;-24.959
5446312.060;-89.258;-90.860;-54.985;-106.394;-74.767;-43.698;-48.429;-31.292
5446312.068;-87.842;-91.977;-53.495;-105.426;-58.860;-45.113;-49.025;-30.696
5446312.076;-69.104;-75.698;-39.935;-90.823;-46.641;-40.643;-42.655;-28.424
5446312.084;-58.636;-61.430;-32.149;-78.343;-39.190;-37.104;-38.818;-26.934
5446312.092;-49.025;-52.042;-23.544;-67.540;-26.785;-29.281;-32.261;-19.930
5446312.100;-64.634;-69.067;-43.549;-82.664;-42.990;-44.703;-48.652;-34.831
5446312.108;-75.810;-80.243;-61.952;-91.121;-58.226;-52.191;-55.134;-43.176
5446312.116;-68.359;-71.451;-61.616;-82.552;-53.048;-42.319;-45.300;-35.167
5446312.124;-74.171;-75.698;-69.700;-89.221;-64.634;-42.655;-48.168;-33.937
5446312.132;-67.055;-71.824;-60.052;-83.819;-46.305;-33.714;-42.580;-20.005
5446312.140;-64.895;-70.184;-49.546;-76.517;-32.261;-33.341;-41.984;-21.495
5446312.148;-57.556;-66.981;-46.603;-72.867;-31.330;-38.669;-45.598;-27.157
5446312.156;-62.399;-69.179;-55.619;-78.194;-40.792;-44.443;-52.676;-29.579
5446312.164;-72.122;-75.623;-68.098;-83.707;-53.458;-47.870;-55.619;-37.737
5446312.172;-71.824;-75.363;-69.179;-81.509;-54.836;-39.935;-47.348;-32.522
5446312.180;-69.700;-72.233;-64.336;-79.162;-58.152;-34.496;-42.580;-26.636
5446312.188;-49.546;-48.503;-37.551;-57.071;-29.542;-21.085;-30.063;-9.611
5446312.196;-58.971;-59.679;-45.449;-70.967;-38.631;-35.837;-43.474;-23.097
5446312.204;-63.702;-67.875;-51.893;-75.139;-47.982;-42.021;-49.658;-26.301
5446312.186;-72.643;-72.680;-57.444;-81.882;-47.944;-51.297;-60.834;-35.986
5446312.194;-60.834;-61.654;-46.380;-72.829;-37.774;-45.896;-56.177;-34.012
5446312.202;-46.343;-48.876;-32.634;-61.058;-26.412;-42.953;-51.856;-33.639
5446312.210;-40.233;-42.021;-16.838;-55.991;-18.962;-36.396;-44.964;-23.767
5446312.218;-39.898;-44.815;-13.448;-57.444;-24.326;-40.159;-47.907;-29.095
5446312.226;-46.492;-51.968;-15.199;-62.697;-19.036;-43.362;-50.776;-29.765
5446312.234;-47.572;-51.148;-16.429;-62.250;-19.409;-38.855;-45.486;-25.742
5446312.242;-44.443;-46.119;-13.560;-59.679;-21.942;-34.645;-39.674;-21.718
5446312.250;-46.529;-46.790;-15.087;-59.269;-28.647;-35.129;-37.737;-24.885
5446312.258;-42.208;-40.233;-10.803;-51.744;-22.091;-33.639;-38.035;-23.097
5446312.266;-42.096;-42.133;-6.780;-52.825;-16.391;-35.018;-43.511;-19.334
5446312.274;-44.629;-45.300;-7.376;-57.630;-20.564;-39.972;-49.025;-26.785
5446312.282;-47.572;-46.827;-12.070;-59.642;-28.685;-46.492;-54.166;-34.682
5446312.290;-40.047;-38.110;-5.402;-50.589;-27.195;-43.698;-49.993;-29.393
5446312.298;-24.475;-22.389;10.133;-37.812;-20.675;-36.620;-42.170;-21.383
5446312.306;-1.378;0.261;40.755;-16.429;13.784;-25.108;-30.100;-11.139
5446312.314;33.043;40.904;77.523;23.171;46.268;-11.548;-15.721;-1.006
5446312.322;48.839;59.493;93.244;35.167;51.223;-23.432;-27.269;-13.746
5446312.330;74.841;90.711;120.290;62.101;69.290;-24.773;-29.132;-10.096
5446312.338;111.908;134.148;155.531;99.316;90.562;-16.913;-21.756;-3.651
5446312.346;138.246;165.552;182.129;125.170;109.784;-19.632;-25.108;-5.215
5446312.354;167.973;199.191;210.181;153.966;133.626;-21.011;-23.544;-4.508
5446312.362;171.810;202.879;212.118;153.631;132.434;-31.888;-30.063;-17.099
5446312.370;181.906;208.132;216.737;164.881;136.159;-13.523;-11.511;-0.224
5446312.339;178.367;206.195;213.869;163.428;130.050;-7.078;-3.017;1.527
5446312.347;168.756;201.501;204.295;152.662;127.591;-2.794;-1.155;6.109
5446312.355;142.343;171.326;171.065;128.560;102.930;-7.525;-9.574;5.253
5446312.363;125.952;150.576;159.293;105.463;94.473;-13.262;-16.913;0.522
5446312.371;110.529;134.967;140.481;86.240;79.609;-19.893;-25.108;-3.017
5446312.379;85.905;109.859;111.312;64.000;59.009;-37.029;-37.923;-22.426
5446312.387;80.764;100.583;109.002;59.530;57.332;-35.688;-33.341;-21.458
5446312.395;74.692;91.344;102.744;53.905;51.633;-28.983;-27.865;-13.188
5446312.403;65.379;78.455;93.170;44.964;49.025;-19.073;-19.073;-1.751
5446312.411;48.317;63.255;78.008;28.089;37.327;-24.773;-25.555;-12.591
5446312.419;35.577;50.589;67.204;15.311;29.281;-23.767;-24.922;-8.047
5446312.427;21.271;34.645;53.346;2.421;21.346;-27.902;-30.175;-15.236
5446312.435;13.076;25.481;43.511;-6.743;10.133;-27.753;-29.393;-15.981
5446312.443;-6.147;5.402;25.257;-24.512;-5.588;-32.485;-38.147;-20.415
5446312.451;-19.036;-10.319;17.509;-41.164;-3.241;-29.355;-35.949;-19.372
5446312.459;-29.840;-21.420;10.058;-55.134;-14.752;-25.183;-30.696;-16.838
5446312.467;-36.843;-26.934;-2.012;-54.799;-19.446;-20.601;-24.103;-14.752
5446312.475;-41.090;-35.614;-8.680;-55.544;-25.742;-15.683;-19.409;-6.147
5446312.483;-59.381;-53.719;-27.232;-76.182;-48.690;-36.322;-36.657;-26.710
5446312.491;-58.301;-53.346;-24.363;-75.772;-42.021;-36.135;-32.671;-25.965
5446312.499;-60.201;-56.811;-27.604;-79.349;-35.316;-30.734;-27.269;-15.944
5446312.507;-58.897;-55.283;-24.885;-74.767;-39.600;-25.891;-22.762;-8.903
5446312.515;-53.830;-46.529;-20.005;-69.141;-31.292;-15.385;-12.778;3.502
5446312.523;-60.871;-51.446;-24.028;-71.898;-37.998;-24.438;-22.277;-10.058
5446312.518;-72.829;-65.379;-38.445;-82.590;-50.291;-38.929;-37.402;-30.361
5446312.526;-58.115;-52.080;-31.814;-74.431;-44.294;-26.673;-24.289;-15.274
5446312.534;-48.652;-42.431;-23.469;-64.783;-36.396;-23.060;-21.383;-9.835
5446312.542;-45.262;-41.835;-17.881;-63.479;-25.555;-15.534;-12.517;-6.817
5446312.550;-45.262;-43.660;-16.280;-68.210;-29.802;-12.293;-8.196;-7.451
5446312.558;-47.050;-44.964;-18.552;-69.775;-21.905;-11.064;-10.394;-8.084
5446312.566;-57.369;-54.538;-35.912;-76.331;-37.923;-16.764;-18.105;-11.511
5446312.574;-76.965;-71.898;-52.303;-91.121;-58.003;-40.196;-41.127;-28.163
5446312.582;-72.941;-66.869;-49.472;-87.917;-49.397;-33.379;-33.341;-19.111
5446312.590;-77.188;-74.133;-52.825;-96.038;-53.011;-33.081;-30.920;-21.644
5446312.598;-75.810;-69.216;-52.862;-96.224;-59.940;-29.057;-25.705;-16.578
5446312.606;-73.314;-63.591;-48.243;-87.321;-50.850;-28.275;-22.948;-19.334
5446312.614;-73.910;-65.863;-50.776;-82.292;-52.117;-25.891;-19.968;-19.707
5446312.622;-72.978;-67.465;-54.166;-82.478;-54.091;-17.211;-12.517;-12.740
5446312.630;-71.675;-63.218;-54.166;-79.721;-46.454;-12.368;-7.451;-5.849
5446312.638;-78.827;-63.628;-64.969;-81.211;-57.071;-20.191;-16.131;-7.860
5446312.646;-88.774;-81.249;-86.315;-97.528;-75.325;-33.975;-31.367;-22.538
5446312.654;-83.558;-79.758;-64.299;-93.952;-63.442;-31.218;-29.206;-19.670
5446312.662;-75.065;-66.049;-53.011;-82.739;-47.646;-20.377;-16.242;-8.717
5446312.670;-84.192;-71.079;-69.104;-91.530;-52.080;-29.430;-22.464;-20.489
5446312.678;-71.302;-61.765;-59.344;-79.907;-47.013;-26.152;-21.048;-17.770
5446312.686;-71.563;-58.562;-60.648;-74.841;-47.162;-26.375;-21.756;-19.930
5446312.694;-65.900;-53.756;-60.312;-75.065;-47.944;-21.160;-18.254;-13.150
5446312.702;-59.530;-47.460;-48.280;-69.514;-38.147;-14.491;-13.225;-3.353
5446312.696;-64.373;-56.103;-54.501;-75.325;-43.735;-25.183;-21.644;-15.721
5446312.704;-75.400;-63.330;-68.694;-76.666;-61.244;-34.496;-28.424;-25.667
5446312.712;-79.423;-67.241;-66.608;-78.417;-50.478;-36.359;-30.026;-27.195
5446312.720;-71.786;-62.771;-58.636;-74.394;-44.219;-34.608;-29.579;-24.214
5446312.728;-67.875;-59.083;-56.364;-71.786;-41.537;-25.555;-19.446;-16.801
5446312.736;-68.247;-56.960;-62.808;-70.408;-44.554;-23.171;-16.131;-12.107
5446312.744;-70.557;-60.983;-68.732;-76.033;-47.870;-31.814;-26.003;-17.881
5446312.752;-61.654;-53.309;-51.260;-73.537;-34.459;-36.024;-30.808;-24.214
5446312.760;-55.432;-46.603;-49.882;-64.634;-29.877;-31.888;-22.762;-21.309
5446312.768;-63.218;-50.291;-66.869;-69.588;-46.566;-36.359;-27.306;-25.183
5446312.776;-70.371;-58.450;-76.406;-76.704;-44.107;-34.086;-28.312;-23.060
5446312.784;-71.898;-61.020;-83.894;-77.933;-43.139;-28.722;-24.438;-14.305
5446312.792;-73.202;-63.255;-79.200;-82.664;-47.088;-28.647;-23.320;-12.480
5446312.800;-77.672;-72.680;-83.297;-86.948;-50.478;-35.055;-30.547;-15.534
5446312.808;-82.813;-74.133;-92.648;-89.705;-53.868;-40.233;-37.067;-22.575
5446312.816;-86.352;-76.182;-95.405;-92.573;-51.484;-39.674;-37.663;-20.936
5446312.824;-87.023;-77.933;-94.175;-92.722;-52.005;-35.167;-33.602;-14.789
5446312.832;-94.175;-86.166;-104.457;-101.775;-67.763;-37.402;-37.365;-17.509
5446312.840;-79.796;-71.228;-88.066;-89.146;-47.274;-28.163;-30.212;-14.007
5446312.848;-78.231;-69.849;-87.395;-90.003;-46.492;-32.559;-32.075;-23.693
5446312.856;-84.266;-76.294;-94.809;-91.642;-54.650;-39.898;-37.178;-28.759
5446312.864;-76.592;-67.800;-87.209;-82.105;-49.435;-36.322;-34.086;-21.607
5446312.872;-63.404;-54.128;-67.875;-70.222;-40.941;-30.473;-27.679;-19.372
5446312.880;-57.667;-51.223;-57.332;-67.800;-37.290;-28.051;-27.120;-18.589
5446312.861;-45.188;-38.743;-43.847;-57.966;-22.575;-14.901;-17.844;-2.868
5446312.869;-44.294;-39.116;-43.288;-56.773;-29.802;-13.374;-17.025;-1.602
5446312.877;-61.914;-59.530;-60.797;-74.320;-40.829;-30.473;-31.739;-22.426
5446312.885;-68.434;-63.926;-66.273;-76.965;-44.666;-29.206;-31.255;-23.171
5446312.893;-68.471;-62.287;-62.957;-74.729;-45.523;-24.810;-27.604;-18.924
5446312.901;-55.917;-51.223;-46.715;-69.812;-32.485;-20.489;-22.464;-16.056
5446312.909;-55.023;-51.036;-47.609;-70.892;-37.663;-24.848;-27.083;-17.472
5446312.917;-57.258;-53.681;-50.291;-70.147;-44.107;-22.799;-25.928;-15.981
5446312.925;-63.106;-58.785;-54.017;-72.122;-54.240;-19.446;-23.432;-13.486
5446312.933;-66.571;-56.066;-43.511;-68.173;-36.955;-15.683;-19.744;-11.772
5446312.941;-61.244;-50.180;-27.232;-63.777;-27.865;-13.672;-17.881;-7.190
5446312.949;-60.946;-50.627;-25.108;-65.714;-30.361;-18.775;-24.624;-11.176
5446312.957;-50.366;-39.265;-18.999;-49.397;-26.934;-16.540;-22.762;-8.345
5446312.965;-32.485;-18.217;-1.602;-28.796;-12.368;-11.884;-17.658;-3.614
5446312.973;-9.388;10.543;23.320;-7.860;0.075;-21.756;-25.928;-13.076
5446312.981;37.663;59.940;73.314;37.141;36.731;-19.595;-19.297;-11.809
5446312.989;77.710;104.196;110.678;75.921;65.081;-21.085;-20.862;-15.199
5446312.997;102.930;134.222;134.408;100.136;77.486;-18.813;-19.781;-12.107
5446313.005;141.449;179.447;172.667;140.481;104.271;-5.662;-4.768;0.708
5446313.013;157.431;196.248;193.752;151.992;127.777;-1.378;-0.447;2.794
5446313.021;153.258;189.319;190.958;144.988;123.158;-2.310;-2.310;2.384
5446313.029;138.618;171.736;175.126;126.027;108.182;-11.176;-11.548;-8.494
5446313.037;116.639;147.633;155.382;102.594;92.238;-13.784;-15.832;-8.084
5446313.045;106.767;136.718;143.759;97.044;84.341;-1.676;-3.353;6.966
5446313.040;90.785;120.848;120.215;80.019;65.416;-0.782;-2.719;5.253
5446313.048;64.783;96.783;91.642;56.401;43.660;-17.546;-18.589;-13.374
5446313.056;59.605;91.307;86.091;54.315;43.586;-14.715;-13.858;-9.388
5446313.064;46.417;73.127;70.482;37.625;23.916;-13.597;-13.001;-7.451
5446313.072;20.750;46.566;46.901;17.770;11.101;-15.050;-14.976;-8.941
5446313.080;23.358;44.778;48.205;19.372;17.323;-2.012;-1.378;7.376
5446313.088;3.465;28.014;26.710;-4.582;-2.272;-24.475;-22.054;-14.976
5446313.096;3.278;27.642;23.991;-5.662;-2.459;-24.624;-23.805;-12.182
5446313.104;-8.307;12.219;12.331;-16.801;-8.978;-33.416;-34.086;-20.973
5446313.112;-9.760;8.754;7.972;-21.905;-11.139;-31.516;-33.267;-16.801
5446313.120;-9.015;9.052;13.001;-20.936;-10.207;-23.693;-27.418;-10.654
5446313.128;-9.760;8.568;9.015;-21.495;-16.801;-17.062;-23.395;-7.264
5446313.136;-10.096;5.327;7.637;-23.134;-12.070;-11.027;-15.534;-8.978
5446313.144;-9.686;7.339;7.562;-21.011;-6.482;-5.625;-7.860;-10.692
5446313.152;-21.048;-7.525;0.969;-34.608;-22.985;-11.139;-14.864;-18.887
5446313.160;-14.715;-2.831;7.078;-28.163;-11.586;3.800;0.224;1.192
5446313.168;-35.055;-23.693;-14.938;-47.684;-32.298;-10.207;-11.884;-12.852
5446313.176;-38.035;-25.444;-17.248;-52.154;-31.553;-8.047;-8.456;-4.843
5446313.184;-40.606;-29.504;-22.203;-54.501;-35.390;-10.207;-8.047;-2.459
5446313.192;-42.617;-34.533;-22.277;-58.450;-29.802;-19.260;-14.305;-11.027
5446313.200;-46.678;-35.912;-21.495;-58.562;-29.318;-23.581;-17.099;-16.652
5446313.208;-49.025;-35.651;-24.661;-54.650;-29.877;-17.323;-10.915;-9.239
5446313.216;-47.982;-30.771;-27.791;-51.819;-31.739;-7.674;-5.066;1.192
5446313.224;-40.084;-28.610;-16.689;-53.830;-23.693;-4.098;-1.267;2.347
5446313.148;-33.826;-22.054;-6.407;-45.523;-15.721;0.000;4.508;7.376
5446313.156;-31.404;-20.079;-8.494;-42.506;-22.389;-2.235;2.123;1.602
5446313.164;-48.541;-40.345;-23.879;-59.977;-30.026;-18.217;-12.331;-15.795
5446313.172;-54.985;-45.337;-37.700;-67.465;-40.196;-25.034;-22.724;-19.558
5446313.180;-48.913;-36.955;-30.100;-62.026;-33.416;-18.664;-15.162;-9.127
5446313.188;-53.346;-44.368;-29.318;-66.198;-26.263;-16.317;-14.417;-2.645
5446313.196;-53.458;-45.486;-31.441;-64.857;-29.765;-14.268;-13.374;-1.639
5446313.204;-53.942;-47.423;-37.774;-70.110;-39.935;-13.113;-15.162;-4.210
5446313.212;-53.756;-45.821;-36.173;-64.895;-26.636;-8.009;-9.276;0.037
5446313.220;-53.793;-42.506;-42.506;-58.860;-29.057;-6.482;-7.153;2.235
5446313.228;-61.356;-49.695;-49.546;-66.198;-45.598;-17.807;-19.930;-9.350
5446313.236;-57.481;-45.411;-46.790;-62.175;-48.801;-16.280;-18.552;-9.015
5446313.244;-53.681;-41.611;-51.111;-57.630;-51.334;-7.115;-8.084;1.378
5446313.252;-62.287;-50.068;-54.874;-73.127;-45.560;-17.807;-17.211;-13.076
5446313.260;-60.648;-48.243;-57.705;-67.316;-47.684;-19.521;-18.477;-14.231
5446313.268;-60.052;-46.417;-56.028;-61.877;-44.182;-20.452;-19.632;-13.225
5446313.276;-62.436;-50.217;-62.548;-66.422;-54.464;-28.275;-26.599;-19.744
5446313.284;-53.868;-43.735;-55.544;-62.101;-48.950;-18.403;-14.380;-7.600
5446313.292;-56.960;-48.056;-56.215;-66.906;-37.961;-13.635;-9.015;-4.433
5446313.300;-54.650;-45.002;-56.140;-61.989;-38.408;-13.895;-8.941;-8.084
5446313.308;-53.570;-44.331;-53.272;-59.977;-33.975;-17.248;-12.778;-8.158
5446313.316;-66.981;-59.232;-70.184;-76.033;-49.025;-22.873;-18.775;-12.740
5446313.324;-65.453;-54.687;-67.391;-70.892;-51.334;-14.305;-9.835;-6.370
5446313.332;-64.038;-48.280;-69.924;-65.826;-54.166;-11.772;-5.513;-7.488
5446313.312;-66.161;-48.764;-78.790;-61.207;-55.358;-11.101;-5.849;-10.394
5446313.320;-64.895;-48.280;-75.437;-59.344;-42.021;-5.588;-2.049;1.565
5446313.328;-68.806;-55.991;-80.541;-65.863;-50.887;-10.394;-7.525;0.037
5446313.336;-69.216;-54.762;-84.564;-65.230;-53.905;-12.070;-7.041;-4.470
5446313.344;-61.691;-43.809;-82.776;-53.942;-47.199;-1.974;1.825;7.898
5446313.352;-92.089;-73.686;-115.708;-83.074;-78.902;-23.358;-20.154;-20.601
5446313.360;-97.789;-77.449;-123.270;-87.246;-86.762;-33.081;-27.791;-33.304
5446313.368;-77.449;-64.634;-92.313;-77.076;-57.705;-27.753;-23.507;-24.512
5446313.376;-84.452;-68.918;-100.173;-83.372;-67.055;-32.410;-29.169;-24.550
5446313.384;-81.584;-66.720;-111.237;-77.188;-62.920;-22.538;-20.154;-10.878
5446313.392;-77.263;-63.963;-110.902;-69.626;-65.677;-20.303;-16.280;-8.494
5446313.400;-81.733;-68.620;-111.982;-79.647;-68.806;-24.885;-21.979;-13.150
5446313.408;-84.862;-71.414;-116.862;-80.951;-67.092;-25.406;-23.469;-15.423
5446313.416;-80.205;-63.330;-119.358;-76.257;-57.258;-17.881;-16.131;-14.119
5446313.424;-78.827;-66.645;-125.170;-74.804;-53.123;-10.207;-9.201;-8.829
5446313.432;-77.747;-69.104;-121.742;-73.835;-59.046;-10.058;-8.382;-8.531
5446313.440;-83.372;-69.551;-126.325;-80.243;-63.665;-19.558;-16.540;-13.709
5446313.448;-85.793;-69.067;-126.734;-81.547;-53.793;-30.361;-24.773;-24.997
5446313.456;-83.297;-70.967;-126.138;-81.100;-57.183;-32.261;-28.573;-25.705
5446313.464;-71.488;-62.473;-113.323;-71.749;-43.586;-20.601;-22.724;-10.170
5446313.472;-65.677;-53.830;-109.226;-63.591;-41.761;-18.179;-20.303;-8.009
5446313.480;-65.379;-53.607;-110.194;-67.055;-42.059;-13.970;-16.205;-6.296
5446313.488;-75.400;-64.746;-118.837;-81.770;-55.321;-22.091;-26.077;-16.913
5446313.496;-76.182;-64.000;-110.902;-79.535;-51.148;-26.524;-30.324;-22.613
5446313.567;-74.059;-60.797;-107.177;-72.457;-45.635;-24.997;-26.748;-20.415
5446313.575;-58.077;-47.311;-92.536;-57.928;-36.880;-16.131;-16.242;-9.239
5446313.583;-58.636;-47.348;-92.201;-58.338;-41.984;-17.993;-18.328;-10.319
5446313.591;-61.914;-50.031;-92.052;-63.740;-37.365;-16.689;-19.409;-7.488
5446313.599;-51.334;-39.749;-78.492;-53.197;-20.117;-3.651;-8.196;6.445
5446313.607;-58.711;-49.695;-83.223;-61.356;-31.851;-11.437;-15.534;-3.465
5446313.615;-62.659;-53.309;-84.341;-66.459;-38.035;-8.903;-13.076;-0.559
5446313.623;-61.281;-53.607;-81.807;-66.124;-35.428;-8.419;-12.890;2.533
5446313.631;-63.255;-53.644;-83.335;-68.881;-39.712;-17.360;-20.601;-10.841
5446313.639;-50.627;-41.574;-69.961;-61.542;-35.800;-11.362;-14.789;-6.855
5446313.647;-36.955;-26.375;-51.111;-42.021;-18.589;-2.310;-5.737;0.149
5446313.655;-40.866;-29.020;-56.773;-43.325;-14.640;-2.608;-8.382;-0.112
5446313.663;-50.738;-37.104;-65.528;-52.787;-32.447;-11.697;-13.262;-10.990
5446313.671;-54.389;-42.319;-62.026;-60.387;-37.625;-19.707;-18.738;-17.807
5446313.679;-33.677;-22.836;-41.537;-37.551;-26.524;-3.390;-0.037;0.224
5446313.687;-34.794;-23.022;-47.125;-35.614;-39.339;-4.061;0.782;-1.192
5446313.695;-36.359;-24.438;-38.035;-38.035;-16.950;-6.966;-1.490;-6.668
5446313.703;-30.510;-17.136;-28.424;-32.261;-6.929;-4.433;-2.123;-0.857
5446313.711;-50.142;-37.067;-45.300;-50.366;-24.661;-17.248;-17.807;-13.858
5446313.719;-67.353;-52.452;-64.075;-65.453;-44.778;-22.314;-23.954;-19.856
5446313.727;-57.258;-41.351;-49.956;-57.183;-42.580;-11.027;-11.660;-6.631
5446313.735;-64.746;-51.185;-55.097;-65.304;-46.268;-14.491;-13.672;-9.537
5446313.743;-66.422;-53.830;-54.054;-67.353;-43.772;-21.048;-16.242;-13.262
5446313.751;-51.856;-41.537;-43.176;-55.656;-36.247;-14.119;-7.004;-3.129
5446313.701;-70.408;-61.281;-58.934;-81.062;-51.260;-35.241;-28.759;-23.693
5446313.709;-52.527;-39.265;-40.084;-54.464;-33.937;-21.271;-14.491;-13.746
5446313.717;-38.333;-22.538;-28.014;-35.428;-25.257;-10.841;-5.886;-3.949
5446313.725;-34.422;-18.962;-23.320;-37.178;-29.467;-14.678;-9.947;-5.849
5446313.733;-29.020;-11.921;-8.233;-29.765;-14.119;-16.205;-14.901;-6.370
5446313.741;0.410;17.211;22.426;-0.112;11.995;-11.288;-9.611;-2.347
5446313.749;32.894;52.452;59.307;33.826;41.872;-11.325;-7.451;-2.608
5446313.757;74.655;99.689;101.291;73.761;72.271;-1.825;2.086;7.600
5446313.765;120.811;151.880;145.286;120.848;104.681;11.027;16.540;19.707
5446313.773;140.071;175.126;165.552;141.412;115.857;2.831;8.047;13.895
5446313.781;145.957;184.886;170.767;146.329;113.361;-15.199;-9.909;-5.886
5446313.789;154.823;195.727;178.851;157.207;117.458;-18.142;-12.033;-11.250
5446313.797;156.425;192.784;179.075;159.815;117.496;-10.692;-6.109;-0.447
5446313.805;132.173;168.830;149.198;133.663;87.656;-16.317;-14.044;-7.227
5446313.813;115.521;154.413;124.127;116.751;66.943;-9.052;-8.829;-0.149
5446313.821;99.018;137.724;110.120;102.073;65.118;-0.410;-0.373;12.144
5446313.829;87.209;124.499;103.377;92.760;59.679;-2.868;-1.825;5.886
5446313.837;66.049;99.391;79.647;71.339;40.717;-11.809;-11.101;-1.714
5446313.845;66.720;97.193;80.727;67.204;42.841;-1.937;-0.782;10.356
5446313.853;36.210;65.602;52.974;36.433;17.099;-12.778;-11.064;1.304
5446313.861;19.409;46.492;35.316;21.756;5.476;-18.775;-12.890;-7.190
5446313.869;19.483;42.655;35.055;20.415;9.686;-18.179;-11.399;-3.651
5446313.877;17.360;40.755;30.249;15.832;7.786;-7.190;-2.496;10.766
5446313.885;-10.058;14.380;0.149;-11.958;-21.532;-17.174;-14.864;-2.012
5446313.959;-16.540;6.743;-6.631;-16.987;-17.881;-7.115;-8.419;1.453
5446313.967;-29.616;-10.133;-14.789;-32.037;-21.867;-7.525;-13.821;0.596
5446313.975;-39.749;-21.681;-21.197;-41.425;-26.263;-8.345;-15.385;-1.304
5446313.983;-36.508;-17.993;-20.154;-36.247;-23.879;2.459;-3.390;5.402
5446313.991;-48.392;-29.504;-35.241;-47.348;-33.900;-7.041;-7.376;-7.227
5446313.999;-56.252;-37.998;-45.300;-53.607;-41.611;-12.405;-9.686;-15.981
5446314.007;-44.964;-28.983;-37.476;-43.958;-36.396;0.820;3.353;-4.172
5446314.015;-40.680;-26.301;-28.051;-41.611;-23.767;8.643;13.039;6.668
5446314.023;-50.105;-33.453;-35.390;-47.125;-28.014;0.186;3.576;4.768
5446314.031;-54.277;-37.290;-42.282;-50.329;-37.849;-9.611;-4.210;-8.941
5446314.039;-45.598;-31.628;-35.465;-46.939;-31.851;-4.284;2.906;-2.086
5446314.047;-42.841;-27.120;-34.422;-43.139;-26.971;-3.353;2.459;6.482
5446314.055;-46.343;-30.212;-41.090;-44.256;-30.771;-14.044;-10.021;-1.974
5446314.063;-46.231;-31.404;-47.944;-45.002;-48.503;-17.807;-15.087;-10.505
5446314.071;-41.984;-27.455;-40.345;-43.176;-31.926;-13.858;-11.660;-11.846
5446314.079;-29.393;-16.652;-25.928;-33.192;-13.821;-1.304;1.229;-2.831
5446314.087;-24.922;-10.841;-23.283;-28.349;-8.717;9.760;11.735;4.061
5446314.095;-17.658;-0.894;-22.054;-20.303;-3.241;21.346;23.730;19.595
5446314.103;-24.289;-7.860;-26.487;-25.555;-15.609;16.876;21.495;15.832
5446314.111;-41.761;-26.561;-41.313;-46.790;-32.745;0.671;3.986;0.261
5446314.119;-31.553;-17.546;-40.047;-37.514;-24.587;10.505;8.866;16.354
5446314.127;-36.359;-22.314;-39.972;-35.614;-17.434;5.290;2.384;12.517
5446314.135;-45.709;-31.702;-49.509;-48.019;-30.659;-7.711;-12.703;-3.129
5446314.143;-37.849;-22.016;-46.045;-41.537;-29.095;-1.676;-5.364;3.204
5446314.168;-30.920;-13.672;-40.159;-33.453;-19.148;-2.608;-3.316;1.714
5446314.176;-30.696;-14.938;-40.084;-35.651;-19.334;-3.688;-2.757;-1.416
5446314.184;-16.242;-1.676;-25.816;-21.085;-7.860;12.182;13.895;11.586
5446314.192;-15.572;1.304;-28.238;-14.678;2.235;19.446;21.420;18.477
5446314.200;-20.713;-2.459;-39.116;-18.887;-3.725;19.148;18.440;23.842
5446314.208;-27.008;-8.866;-41.984;-23.432;-18.068;8.717;9.276;14.044
5446314.216;-23.507;-6.333;-38.035;-22.464;-17.919;-1.080;0.708;1.155
5446314.224;-27.008;-7.935;-42.580;-25.034;-11.101;-7.264;-8.270;0.708
5446314.232;-25.816;-6.892;-44.145;-25.630;-16.280;-4.061;-5.439;2.123
5446314.240;-38.557;-21.718;-56.736;-38.035;-21.160;-3.129;-7.451;-2.012
5446314.248;-51.521;-36.061;-69.477;-53.346;-30.138;-7.935;-12.890;-6.594
5446314.256;-55.097;-38.743;-71.824;-56.028;-30.436;-6.966;-7.935;-3.539
5446314.264;-47.572;-26.934;-69.886;-45.113;-26.114;1.118;1.378;3.539
5446314.272;-40.829;-20.601;-69.700;-38.482;-22.501;8.531;7.637;11.660
5446314.280;-45.337;-27.865;-75.810;-44.480;-26.561;13.411;9.537;21.420
5446314.288;-51.372;-33.230;-88.401;-48.541;-41.164;9.947;9.760;14.454
5446314.296;-45.337;-26.003;-85.868;-44.145;-24.848;11.809;14.380;7.264
5446314.304;-49.137;-30.622;-93.095;-46.752;-27.493;10.915;11.809;4.284
5446314.312;-41.723;-21.532;-91.232;-36.508;-25.593;22.016;21.569;13.746
5446314.320;-29.244;-11.623;-80.876;-24.177;-13.262;33.006;28.573;24.661
5446314.328;-24.661;-4.359;-80.056;-21.495;-8.941;31.255;23.991;30.138
5446314.336;-25.705;-5.811;-87.768;-23.209;-14.156;25.667;19.148;24.885
5446314.344;-35.204;-16.466;-92.238;-33.118;-29.765;9.388;5.178;9.537
5446314.352;-36.918;-21.420;-88.066;-41.574;-20.899;-5.737;-8.009;-1.267
5446314.482;-23.022;-11.250;-73.090;-28.349;-7.376;6.109;4.657;8.680
5446314.490;-12.256;1.416;-61.430;-15.050;-0.149;22.799;20.415;22.240
5446314.498;-8.345;13.448;-57.034;-6.407;-4.172;26.375;22.613;24.810
5446314.506;-17.434;9.276;-65.751;-12.927;-14.789;17.993;13.374;12.852
5446314.514;-24.512;-4.731;-77.412;-25.593;-27.046;4.210;0.857;-1.304
5446314.522;-13.188;12.107;-63.702;-9.574;-9.686;15.087;11.250;9.872
5446314.530;-1.155;21.942;-44.629;1.341;1.192;19.185;17.360;12.442
5446314.538;7.302;30.026;-33.788;6.892;18.626;27.455;24.103;27.940
5446314.546;2.757;26.971;-37.290;3.278;12.182;29.057;24.028;29.877
5446314.554;7.302;32.485;-32.820;9.649;10.729;37.886;34.086;31.330
5446314.562;-4.917;19.781;-44.331;-3.278;-0.075;30.808;26.934;20.340
5446314.570;-8.456;15.236;-46.492;-13.895;-8.345;28.759;24.773;21.458
5446314.578;-12.591;13.150;-47.907;-12.554;-5.476;20.601;16.987;17.434
5446314.586;0.410;25.555;-33.006;0.447;14.566;27.679;26.785;23.395
5446314.594;7.972;29.020;-17.770;5.066;19.707;33.043;31.665;27.306
5446314.602;-3.316;20.489;-25.369;-5.625;9.276;36.880;34.198;31.479
5446314.610;-3.800;23.022;-22.873;-3.800;14.678;40.047;38.296;32.894
5446314.618;-4.955;19.781;-23.581;-9.947;10.952;33.602;31.516;22.985
5446314.626;-0.596;19.893;-15.870;-8.345;9.574;38.110;36.769;27.642
5446314.634;-10.952;9.574;-23.134;-14.231;2.533;16.429;14.789;8.568
5446314.642;-26.859;-3.017;-35.837;-32.261;-9.723;3.353;0.000;0.671
5446314.650;-22.016;-1.341;-30.771;-33.341;-4.247;12.442;8.456;12.964
5446314.658;-50.887;-29.877;-60.834;-57.146;-35.912;-1.304;-4.545;-0.559
5446314.666;-59.716;-36.061;-68.769;-62.920;-45.896;-0.149;-0.261;-3.204
5446314.855;-60.946;-37.849;-67.689;-64.000;-45.113;0.484;-0.410;-3.651
5446314.863;-50.664;-23.879;-59.903;-48.801;-35.986;6.333;8.047;-0.969
5446314.871;-38.818;-13.039;-49.099;-40.755;-32.410;15.423;17.807;8.196
5446314.879;-48.429;-25.146;-56.550;-53.979;-31.702;18.850;20.489;8.866
5446314.887;-54.352;-33.155;-57.966;-56.066;-26.263;28.424;31.032;18.217
5446314.895;-52.340;-30.845;-56.103;-51.856;-33.341;29.542;31.702;21.122
5446314.903;-53.197;-28.946;-59.716;-56.773;-41.351;20.824;22.762;18.291
5446314.911;-50.962;-27.530;-51.707;-58.226;-30.026;12.927;20.601;9.760
5446314.919;-50.180;-28.349;-50.254;-57.742;-26.524;-1.788;7.078;-5.104
5446314.927;-49.062;-28.349;-53.681;-55.246;-27.157;-10.282;-0.745;-10.729
5446314.935;-32.336;-9.239;-37.290;-35.986;-15.050;0.708;9.015;1.714
5446314.943;-16.615;7.674;-17.025;-21.793;-3.390;11.548;20.005;11.437
5446314.951;-5.402;19.111;-0.745;-11.511;12.480;13.746;22.538;12.666
5446314.959;11.399;37.327;17.285;3.502;22.389;11.176;18.738;8.680
5446314.967;32.820;62.361;39.376;24.699;36.731;5.551;10.692;5.513
5446314.975;70.669;104.457;74.655;62.510;59.716;4.657;10.058;6.557
5446314.983;98.497;135.489;104.085;88.736;80.429;2.719;7.562;6.296
5446314.991;137.277;176.467;145.994;123.009;115.968;14.864;21.383;14.827
5446314.999;166.968;209.548;174.940;153.407;139.475;33.081;39.004;34.049
5446315.007;146.143;189.357;152.476;132.583;112.318;11.958;18.217;10.021
5446315.015;130.497;171.661;135.228;116.266;94.064;-0.522;6.072;-7.153
5446315.023;124.648;165.589;125.878;112.839;87.768;6.817;11.548;3.055
5446315.031;121.705;162.981;114.180;107.512;85.048;13.672;16.727;9.947
5446315.039;106.879;142.530;97.863;90.003;73.686;15.721;18.142;14.529
5446315.065;84.750;118.874;80.504;69.328;69.886;19.632;23.693;19.148
5446315.073;69.961;104.308;59.195;50.664;53.495;19.781;24.736;18.850
5446315.081;49.248;85.011;44.815;31.665;31.069;6.706;13.672;3.837
5446315.089;35.875;68.285;30.622;23.954;24.624;2.608;12.331;1.565
5446315.097;7.302;35.167;-0.559;-6.743;-0.149;-11.176;-0.745;-12.442
5446315.105;2.533;24.475;-7.451;-16.652;-3.241;-2.161;6.109;-1.006
5446315.113;-4.321;16.764;-16.801;-23.842;-8.494;0.969;7.413;11.064
5446315.121;-14.715;5.737;-28.573;-37.402;-19.073;-4.247;0.969;0.112
5446315.129;-21.979;-2.123;-37.253;-44.070;-31.888;-0.410;5.662;0.857
5446315.137;-16.056;3.017;-27.940;-36.731;-12.144;10.617;15.497;9.537
5446315.145;-25.555;-6.966;-33.602;-43.958;-14.491;4.917;8.754;0.931
5446315.153;-37.737;-19.260;-47.013;-54.538;-28.834;3.316;6.072;-3.017
5446315.161;-50.887;-34.682;-62.585;-67.614;-47.237;-1.043;2.310;-9.015
5446315.169;-57.258;-43.549;-67.651;-76.592;-50.217;-1.527;4.955;-14.342
5446315.177;-51.707;-38.370;-61.803;-69.477;-37.216;6.184;14.156;-2.459
5446315.185;-53.979;-43.511;-64.038;-71.451;-37.514;0.335;8.494;-5.215
5446315.193;-62.212;-53.272;-74.543;-84.154;-49.584;-5.141;3.092;-10.431
5446315.201;-64.783;-54.576;-80.802;-82.962;-55.023;2.198;8.643;0.149
5446315.209;-68.322;-56.401;-77.635;-82.925;-44.741;1.155;8.270;0.298
5446315.217;-56.289;-44.256;-65.118;-71.600;-38.370;7.115;14.640;8.009
5446315.225;-56.662;-42.766;-66.720;-73.202;-39.004;9.984;16.987;10.803
5446315.233;-64.895;-52.340;-78.157;-80.727;-42.394;4.284;8.717;4.172
5446315.241;-64.708;-50.291;-85.682;-75.065;-45.076;-0.745;2.235;-6.817
5446315.249;-40.121;-29.467;-53.458;-59.828;-27.306;9.537;12.405;-2.235
5446315.187;-40.755;-32.447;-55.246;-61.207;-34.124;6.184;8.978;-3.651
5446315.195;-39.078;-26.822;-55.432;-53.570;-26.673;10.133;12.740;4.172
5446315.203;-36.322;-23.581;-52.750;-47.572;-17.174;12.219;14.454;14.082
5446315.211;-49.099;-36.396;-68.285;-59.307;-30.734;3.465;5.029;6.817
5446315.219;-56.848;-46.566;-76.592;-69.477;-40.904;-2.570;-2.272;-2.235
5446315.227;-52.266;-43.139;-69.737;-67.763;-33.528;0.931;0.671;2.906
5446315.235;-62.734;-55.432;-81.509;-77.970;-43.847;-8.307;-11.921;-9.090
5446315.243;-58.413;-51.893;-79.013;-77.449;-42.357;-2.272;-5.364;-6.258
5446315.251;-52.750;-47.088;-74.543;-70.594;-40.643;13.374;14.305;9.723
5446315.259;-60.908;-55.805;-84.266;-76.182;-40.159;10.766;13.709;8.084
5446315.267;-70.445;-57.369;-94.734;-82.888;-51.558;1.639;4.843;-0.224
5446315.275;-67.651;-53.085;-89.817;-78.343;-46.156;3.241;7.786;1.006
5446315.283;-73.537;-61.058;-98.087;-83.782;-50.217;-5.700;-2.086;-11.325
5446315.291;-52.601;-42.133;-76.890;-64.932;-35.763;9.760;11.623;2.943
5446315.299;-46.715;-39.972;-75.139;-60.983;-33.230;9.835;11.623;9.947
5446315.307;-43.400;-37.700;-74.469;-65.900;-30.175;-3.576;0.559;-2.272
5446315.315;-33.118;-24.959;-71.265;-53.234;-21.085;-8.456;1.565;-8.866
5446315.323;-26.971;-20.415;-63.591;-44.778;-9.127;-5.551;8.531;-5.141
5446315.331;-25.034;-21.644;-69.067;-44.256;-11.884;-4.806;10.692;-6.109
5446315.339;-14.603;-7.451;-59.642;-33.490;0.037;11.921;26.934;9.686
5446315.347;-17.509;-10.245;-60.052;-35.167;-0.782;9.649;20.452;6.519
5446315.355;-15.236;-9.313;-61.467;-36.731;-3.092;9.611;14.454;6.519
5446315.363;-20.862;-14.268;-68.806;-41.611;-11.660;3.949;8.047;-1.341
5446315.371;-20.824;-12.517;-68.359;-43.474;-9.164;10.356;14.454;10.096
5446315.336;-18.477;-6.668;-70.110;-36.955;-7.674;15.013;20.899;18.738
5446315.344;-23.767;-16.242;-70.967;-42.766;-16.540;5.327;10.207;2.906
5446315.352;-19.707;-14.491;-67.316;-40.904;-1.751;10.580;15.013;4.619
5446315.360;-15.087;-6.966;-63.702;-36.918;-5.774;15.423;19.595;14.082
5446315.368;-17.881;-9.760;-63.963;-45.486;-14.119;8.978;12.927;6.892
5446315.376;-18.179;-11.772;-62.622;-42.804;-7.898;13.486;16.801;7.562
5446315.384;-26.040;-17.658;-65.528;-49.137;-10.543;5.178;7.302;-1.043
5446315.392;-15.162;-10.617;-52.117;-42.133;-4.359;1.378;5.327;-4.582
5446315.400;-11.958;-10.766;-42.878;-40.494;-2.608;1.527;7.786;2.384
5446315.408;4.880;10.021;-26.189;-23.730;20.899;23.991;30.100;32.410
5446315.416;-14.119;-3.166;-45.113;-37.849;0.447;11.288;17.732;10.766
5446315.424;-28.498;-23.581;-52.266;-57.295;-15.683;-4.284;-2.384;-9.611
5446315.432;-14.752;-15.125;-35.800;-45.151;-3.502;5.178;7.041;1.006
5446315.440;-9.499;-4.396;-29.579;-34.608;-0.559;8.382;11.101;5.960
5446315.448;-14.529;-4.806;-33.788;-36.545;-6.668;4.731;3.912;4.582
5446315.456;-23.171;-13.523;-43.362;-47.646;-14.231;3.800;4.172;6.855
5446315.464;-29.877;-18.664;-47.795;-53.942;-28.089;1.527;4.582;3.390
5446315.472;-47.237;-38.706;-54.538;-71.339;-34.757;-18.664;-12.964;-19.372
5446315.480;-37.998;-31.777;-39.153;-65.267;-21.309;-10.282;-2.906;-7.227
5446315.488;-32.336;-25.332;-32.000;-58.636;-12.964;-3.949;0.559;3.502
5446315.496;-38.557;-27.344;-45.300;-60.387;-19.707;-9.164;-7.935;-6.370
5446315.504;-37.402;-28.722;-36.955;-60.573;-22.724;-5.811;-3.390;-6.743
5446315.512;-32.410;-24.103;-31.814;-58.636;-23.358;3.651;5.513;1.267
5446315.520;-18.068;-11.325;-20.415;-43.102;-14.156;17.509;18.999;13.709
5446315.517;-7.898;-6.892;-8.158;-40.643;6.445;25.481;29.504;24.587
5446315.525;-5.178;3.017;-6.035;-37.625;-0.596;16.913;26.263;8.903
5446315.533;-20.154;-5.923;-15.721;-43.921;-15.646;4.284;15.385;-1.416
5446315.541;-25.555;-14.193;-21.420;-48.950;-17.695;-0.373;12.144;-3.688
5446315.549;-25.481;-19.148;-29.244;-54.874;-20.564;-0.782;10.058;-6.109
5446315.557;-28.722;-19.856;-30.994;-53.905;-26.375;4.619;8.978;3.688
5446315.565;-29.877;-17.248;-27.493;-54.725;-24.475;14.715;17.360;12.033
5446315.573;-47.050;-32.596;-34.906;-61.728;-22.575;11.735;13.970;6.109
5446315.581;-43.027;-30.138;-43.698;-62.957;-26.673;15.907;20.042;6.109
5446315.589;-36.471;-28.946;-33.863;-60.461;-26.301;24.401;29.355;17.025
5446315.597;-45.933;-42.580;-24.065;-75.884;-28.647;18.738;22.314;16.056
5446315.605;-55.358;-47.386;-41.798;-78.194;-43.288;4.917;11.474;-0.298
5446315.613;-47.274;-37.700;-35.316;-67.540;-29.467;3.651;11.474;-5.923
5446315.621;-30.063;-12.815;-17.099;-47.907;-8.494;23.879;30.249;12.852
5446315.629;-26.114;-7.078;-15.050;-44.070;-17.397;22.799;29.318;13.895
5446315.637;-21.458;-11.958;-18.254;-46.380;-14.193;15.423;21.569;9.462
5446315.645;-15.460;-2.496;-11.884;-38.482;-10.878;23.916;30.436;17.881
5446315.653;-23.618;-14.193;-18.962;-51.185;-19.781;21.979;26.859;17.323
5446315.661;-39.339;-35.428;-25.779;-60.163;-29.095;18.328;22.501;10.282
5446315.669;-14.640;-6.482;-3.166;-46.156;-7.674;18.850;23.693;15.050
5446315.677;-5.737;9.090;2.161;-39.227;-1.527;16.466;22.352;13.337
5446315.685;-19.483;-7.525;-9.909;-43.325;-7.711;10.021;14.454;6.184
5446315.693;-16.540;0.149;-6.557;-39.712;-13.895;9.052;13.560;5.104
5446315.701;-7.711;8.270;0.075;-32.857;-3.092;20.489;27.902;14.417
5446315.726;-6.855;7.749;9.574;-25.742;-11.884;24.289;31.739;17.956
5446315.734;-3.688;10.729;12.517;-25.518;0.894;25.146;29.951;20.452
5446315.742;-10.617;-0.149;7.041;-39.935;2.980;15.534;20.973;7.488
5446315.750;-21.979;-10.096;-4.433;-51.372;-9.425;6.966;11.846;2.198
5446315.758;-30.175;-15.944;-13.001;-56.289;-20.713;5.811;13.225;-0.708
5446315.766;-15.274;-0.633;-2.608;-39.227;-11.437;16.056;24.177;12.442
5446315.774;-16.578;-3.763;-5.923;-39.823;-14.789;12.256;19.297;12.591
5446315.782;-24.661;-15.907;-5.364;-51.782;-13.262;2.570;10.505;0.857
5446315.790;-22.650;-16.652;-1.453;-50.068;-12.591;8.047;14.044;8.121
5446315.798;-21.793;-13.001;-5.290;-50.589;-13.858;12.517;17.062;15.423
5446315.806;-26.897;-17.434;-9.537;-52.080;-23.060;4.508;9.984;1.676
5446315.814;-33.863;-25.779;-13.262;-61.840;-30.324;-2.831;4.210;-5.625
5446315.822;-36.955;-30.845;-18.068;-64.373;-35.837;-7.823;0.522;-6.407
5446315.830;-30.622;-23.879;-14.268;-56.364;-28.983;-7.004;0.596;-6.557
5446315.838;-26.673;-19.111;-20.042;-57.667;-34.682;-8.382;-2.794;-13.374
5446315.846;-17.434;-10.431;-5.178;-47.311;-13.970;2.384;5.178;-1.974
5446315.854;-9.276;-6.966;8.196;-42.506;-5.923;10.990;12.182;5.513
5446315.862;-1.155;1.229;17.621;-34.310;-2.347;19.744;20.787;12.927
5446315.870;9.127;15.199;26.710;-21.756;6.072;31.888;35.465;22.016
5446315.878;-10.952;-7.711;3.725;-40.010;-13.188;13.448;19.819;2.906
5446315.886;-29.765;-21.569;-19.707;-55.805;-35.428;-5.811;0.075;-13.933
5446315.894;-18.030;-11.213;-7.227;-45.635;-29.393;1.192;5.960;-7.860
5446315.902;-2.459;0.559;14.268;-32.820;-4.135;11.101;16.689;3.241
5446315.910;-2.459;-0.745;15.870;-31.032;0.969;6.035;10.133;5.811
5446315.935;-8.605;-9.574;7.302;-38.072;-10.021;-3.316;-0.559;-1.118
5446315.943;-5.886;-3.241;10.580;-31.702;-4.843;-0.522;5.215;1.229
5446315.951;-12.182;-11.921;3.204;-39.898;-10.021;-6.594;0.708;-5.327
5446315.959;-9.537;-7.078;4.284;-33.416;-10.543;-2.421;6.147;-1.714
5446315.967;-18.813;-12.852;-6.892;-37.104;-23.581;-8.084;-0.298;-7.823
5446315.975;-26.189;-18.738;-12.629;-45.076;-25.257;-13.225;-7.749;-13.970
5446315.983;-33.081;-27.977;-22.203;-54.576;-33.304;-16.168;-14.044;-18.217
5446315.991;-23.283;-18.850;-16.391;-45.113;-18.366;-3.465;-2.570;-5.327
5446315.999;-18.626;-14.640;-14.193;-39.153;-13.560;4.619;7.749;-5.327
5446316.007;-21.532;-19.372;-9.611;-36.657;-18.701;6.631;9.574;-6.482
5446316.015;-9.090;-4.731;6.296;-21.085;-5.327;16.168;19.558;5.066
5446316.023;-14.529;-12.331;-2.198;-25.705;-1.788;3.092;8.047;-9.649
5446316.031;-12.517;-7.376;-5.178;-20.750;-0.447;-0.559;3.949;-4.657
5446316.039;-1.304;6.035;2.980;-11.809;2.198;-2.868;-1.378;3.651
5446316.047;14.678;25.332;15.162;6.445;11.995;-6.445;-6.482;-4.172
5446316.055;40.792;54.501;39.525;34.794;36.880;-1.118;1.788;-6.855
5446316.063;71.190;89.966;69.067;65.155;62.026;3.055;8.307;-8.345
5446316.071;113.882;138.506;107.177;108.369;89.668;9.499;14.678;-4.172
5446316.079;151.023;179.484;143.424;146.106;120.625;16.652;22.724;8.419
5446316.087;176.243;206.716;166.595;169.836;139.102;12.293;18.589;5.849
5446316.095;185.259;217.594;172.779;175.014;139.549;9.239;14.156;2.794
5446316.103;182.539;213.012;171.885;164.323;138.357;11.176;13.709;10.245
5446316.111;189.357;218.153;178.553;175.908;150.912;21.532;23.842;18.515
5446316.119;173.748;199.005;159.405;161.640;132.360;14.044;16.950;2.682
5446316.042;160.970;194.237;138.171;151.955;117.533;18.701;20.489;6.892
5446316.050;147.447;181.869;122.748;144.131;103.824;21.681;24.512;11.697
5446316.058;132.583;156.350;117.011;124.276;87.768;12.778;13.821;4.470
5446316.066;106.692;134.297;87.470;96.448;62.808;-1.118;-2.757;-7.451
5446316.074;87.991;116.676;66.832;80.802;59.269;-3.241;-4.917;-8.680
5446316.082;71.079;98.683;54.501;69.365;50.925;2.608;0.745;1.639
5446316.090;68.992;95.405;53.234;69.551;49.435;17.732;16.727;20.824
5446316.098;64.485;86.427;48.913;62.548;41.313;18.403;18.254;18.105
5446316.106;46.752;66.794;30.436;43.213;27.530;5.141;2.794;-1.714
5446316.114;37.849;55.693;24.065;33.714;20.154;5.066;3.800;-4.508
5446316.122;28.275;43.958;12.554;22.091;8.307;3.353;0.596;-2.421
5446316.130;25.406;42.282;5.141;20.787;0.522;6.743;0.149;1.341
5446316.138;22.091;39.861;12.070;18.440;12.033;14.082;4.433;8.121
5446316.146;20.042;30.920;14.678;8.978;5.513;16.317;5.588;9.723
5446316.154;21.867;25.406;18.515;7.041;11.846;26.412;18.217;15.050
5446316.162;22.948;21.569;20.564;10.207;17.248;33.192;25.742;19.260
5446316.170;18.589;32.149;17.770;11.064;14.715;27.753;23.134;16.354
5446316.178;18.105;32.000;16.727;7.302;5.960;28.014;28.312;14.901
5446316.186;6.221;14.529;5.178;-7.935;-14.193;19.558;20.601;3.539
5446316.194;6.035;13.262;4.247;-6.668;-19.781;19.893;19.446;8.605
5446316.202;11.660;20.638;9.015;-3.427;1.937;17.025;16.391;9.909
5446316.210;28.647;33.155;29.989;11.064;19.372;30.138;29.057;28.163
5446316.218;4.619;7.376;14.417;-10.468;-6.407;13.970;12.890;11.846
5446316.226;-3.465;-0.745;5.588;-19.372;-16.876;11.884;8.307;9.201
5446316.192;-5.029;-2.235;-0.335;-22.948;-18.962;23.954;19.558;21.160
5446316.200;-2.980;3.427;-3.316;-13.299;-22.389;27.865;26.524;18.142
5446316.208;2.086;8.643;8.605;-5.290;-2.459;38.445;37.365;28.424
5446316.216;5.998;7.339;12.591;-3.763;4.098;41.835;38.855;31.628
5446316.224;-0.969;9.090;9.760;-9.760;-2.645;31.330;30.920;17.695
5446316.232;-2.868;0.335;16.913;-15.125;-2.868;25.705;26.561;14.678
5446316.240;-4.768;-0.782;10.617;-17.881;-8.978;20.638;22.948;6.966
5446316.248;-10.841;-4.545;6.221;-25.295;-11.101;19.334;22.128;11.697
5446316.256;-13.039;-5.923;5.513;-30.808;-14.603;19.185;21.644;17.807
5446316.264;-6.706;-6.370;14.305;-24.177;5.253;32.820;33.341;31.292
5446316.272;4.917;3.502;25.518;-14.752;9.090;36.657;35.875;33.230
5446316.280;-12.964;-10.878;4.955;-34.794;-11.511;17.285;13.970;13.709
5446316.288;-26.412;-27.604;-7.227;-51.931;-22.426;9.239;9.015;-0.261
5446316.296;-40.047;-33.155;-22.538;-50.217;-42.468;-3.725;-2.906;-14.082
5446316.304;-32.783;-28.647;-10.207;-42.617;-30.510;1.788;0.149;0.857
5446316.312;-25.108;-23.544;-3.204;-42.692;-17.770;8.829;8.531;11.474
5446316.320;-23.022;-18.291;1.453;-40.904;-16.354;15.236;16.838;14.156
5446316.328;-34.720;-32.373;-2.086;-54.911;-28.796;4.992;6.743;2.123
5446316.336;-30.920;-27.232;-1.565;-45.002;-23.060;8.233;8.121;3.986
5446316.344;-27.865;-25.406;-5.551;-41.723;-21.234;10.617;11.027;7.935
5446316.352;-34.049;-34.645;-11.772;-53.123;-26.524;1.229;1.118;0.149
5446316.360;-38.631;-37.141;-19.893;-55.432;-32.634;-0.484;-1.602;-0.782
5446316.368;-27.046;-21.122;-4.843;-35.428;-26.189;8.345;8.047;4.582
5446316.376;-27.306;-19.930;-6.370;-35.651;-28.759;3.912;5.104;-5.774
5446316.373;-20.415;-14.342;0.298;-28.796;-20.154;3.017;4.321;-5.662
5446316.381;-13.150;-10.915;7.004;-26.263;-7.264;8.196;9.611;0.820
5446316.389;-9.686;-3.837;1.602;-21.011;-9.127;21.979;23.320;19.222
5446316.397;-5.811;-4.694;4.768;-12.740;-9.686;24.438;25.332;20.973
5446316.405;-20.526;-15.683;-1.080;-34.533;-20.824;12.740;14.342;8.754
5446316.413;-18.850;-7.302;-3.017;-34.794;-22.389;14.491;17.695;13.970
5446316.421;-13.486;-3.278;-2.310;-26.859;-20.228;7.935;14.491;3.800
5446316.429;-23.469;-15.460;-14.827;-39.078;-29.169;-0.857;7.227;-6.966
5446316.437;-28.424;-23.283;-20.340;-40.643;-25.854;-3.614;1.639;-7.972
5446316.445;-18.477;-11.325;-7.637;-28.983;-18.291;10.841;15.460;7.227
