Timestamp,AFz,AF3,AF4,AF7,AF8,Pz,P3,P4,2024-04-18 12:22:53.303,fs=125
3028104.268;-79.796;-61.132;-89.966;-102.744;-59.418;-15.125;-13.560;13.225
3028104.276;-78.864;-67.614;-83.037;-96.709;-53.607;-7.637;-6.296;18.105
3028104.284;-55.619;-42.282;-53.868;-80.466;-22.575;-8.978;-5.066;15.721
3028104.292;-47.013;-31.553;-48.056;-75.996;-18.626;-7.525;-3.800;16.093
3028104.300;-48.354;-39.265;-48.913;-91.046;-19.036;-9.388;-7.115;12.517
3028104.308;-47.274;-40.680;-47.572;-87.991;-21.793;-18.701;-14.864;2.086
3028104.316;-58.748;-46.529;-57.258;-98.348;-36.508;-27.753;-25.928;-5.588
3028104.324;-70.818;-58.226;-69.179;-108.518;-38.221;-31.888;-32.596;-10.021
3028104.332;-58.152;-45.188;-58.115;-93.095;-27.046;-22.240;-22.911;-2.310
3028104.340;-54.725;-38.743;-53.197;-77.747;-35.949;-19.446;-22.575;-0.857
3028104.348;-64.373;-51.968;-60.536;-91.977;-33.043;-30.920;-36.806;-11.548
3028104.356;-56.177;-41.276;-56.922;-78.417;-23.767;-15.981;-22.203;-0.931
3028104.364;-42.804;-28.983;-48.093;-74.245;-24.363;2.868;-4.582;13.672
3028104.372;-46.082;-31.441;-46.343;-68.769;-35.949;-3.502;-13.299;6.780
3028104.380;-44.256;-30.622;-37.849;-56.773;-18.440;-3.129;-11.958;5.551
3028104.388;-54.128;-30.771;-46.864;-64.448;-31.069;-11.399;-19.260;-1.863
3028104.396;-60.201;-38.855;-56.997;-56.252;-40.755;-14.901;-21.458;-4.023
3028104.404;-69.775;-50.403;-68.396;-67.875;-50.180;-16.615;-24.475;-5.923
3028104.412;-76.219;-60.052;-78.306;-88.736;-63.367;-17.770;-27.232;-5.253
3028104.420;-74.580;-56.028;-78.008;-91.083;-69.961;-23.432;-32.485;-11.511
3028104.428;-66.273;-43.586;-63.144;-64.485;-49.062;-29.132;-37.961;-17.323
3028104.436;-73.612;-57.518;-64.969;-75.772;-56.922;-38.929;-49.546;-28.685
3028104.444;-70.222;-57.220;-61.654;-78.939;-50.068;-35.986;-47.870;-27.865
3028104.452;-64.224;-49.397;-56.066;-78.939;-44.182;-21.271;-32.447;-14.156
3028104.461;-33.006;-10.915;-27.865;-38.147;-22.054;-11.809;-21.644;-6.482
3028104.469;-7.451;20.266;-8.456;1.453;-15.646;-7.823;-17.099;-3.390
3028104.477;10.692;29.430;7.339;15.832;-18.962;-6.743;-17.732;-3.427
3028104.485;30.883;47.870;39.898;27.716;3.241;0.484;-12.629;0.894
3028104.493;54.389;72.569;64.895;53.793;22.277;10.207;-4.023;9.798
3028104.501;69.067;100.583;80.429;78.231;27.679;10.617;-3.837;9.425
3028104.509;75.027;106.692;84.192;84.862;27.232;8.047;-6.407;7.749
3028104.517;64.261;91.977;68.806;78.864;13.337;8.494;-9.239;9.350
3028104.525;42.245;65.528;48.615;51.595;-3.800;-1.900;-21.979;-0.857
3028104.533;49.546;75.474;61.579;58.189;8.419;8.717;-10.282;7.376
3028104.541;68.694;92.052;78.455;83.335;28.275;32.447;14.827;28.461
3028104.549;67.651;97.007;74.729;76.219;26.077;36.657;19.558;32.037
3028104.557;53.234;82.403;57.518;78.864;14.529;32.112;14.827;26.114
3028104.565;44.368;69.253;45.747;74.394;1.453;33.639;15.460;25.705
3028104.573;41.425;71.302;41.388;71.116;-16.578;38.296;17.062;29.244
3028104.581;40.978;67.651;49.472;69.924;-9.537;39.227;13.374;31.255
3028104.589;33.118;61.840;41.015;63.293;-6.109;30.436;0.969;23.842
3028104.597;20.117;46.082;25.071;40.196;-28.349;19.260;-12.629;16.280
3028104.605;21.085;53.532;22.613;50.291;-40.159;13.560;-18.924;14.827
3028104.613;26.450;52.340;31.702;53.607;-30.138;12.331;-15.199;14.491
3028104.621;25.705;48.093;33.118;50.180;-17.025;13.709;-7.860;15.721
3028104.629;38.557;66.906;42.133;73.127;-3.055;22.724;5.700;25.518
3028104.637;39.302;65.304;39.376;78.455;-17.807;20.675;5.476;22.464
3028104.645;32.298;60.238;36.992;71.116;-25.667;18.403;4.023;19.744
3028104.654;24.997;54.538;29.393;54.874;-29.020;16.764;0.186;19.707
3028104.662;28.796;55.730;33.937;66.198;-15.758;20.564;0.522;24.848
3028104.670;35.837;67.949;37.402;77.076;-15.907;25.555;4.768;32.894
3028104.678;34.980;64.410;37.774;85.831;-27.195;21.011;-0.782;29.132
3028104.686;17.025;41.574;23.656;66.683;-40.792;2.496;-16.987;9.574
3028104.694;13.635;33.118;21.048;46.492;-40.717;1.192;-14.864;8.605
3028104.702;35.390;66.124;42.245;74.878;-20.787;19.446;5.141;26.077
3028104.710;28.387;62.510;32.000;68.769;-26.897;15.832;0.708;25.146
3028104.718;15.423;42.804;22.538;62.101;-41.462;13.150;-3.017;23.581
3028104.726;24.997;55.134;34.198;79.907;-25.295;22.575;8.419;32.932
3028104.734;19.260;48.876;26.375;64.373;-29.393;23.767;11.735;34.384
3028104.742;6.743;35.726;14.827;51.297;-43.102;19.744;7.302;30.994
3028104.750;15.572;52.117;24.065;67.838;-30.398;6.519;-5.737;19.893
3028104.758;0.335;30.212;6.743;45.970;-41.611;-5.625;-16.615;9.127
3028104.766;-12.964;13.001;-5.104;26.450;-48.988;-12.405;-21.644;5.439
3028104.774;-24.475;0.894;-19.148;8.568;-55.730;-22.091;-30.324;-2.868
3028104.782;-28.387;-10.431;-24.214;-3.316;-58.450;-22.091;-31.702;-4.619
3028104.790;-28.163;-13.895;-26.263;-1.490;-60.238;-20.303;-30.696;-2.980
3028104.798;-44.145;-33.379;-40.941;-25.220;-78.008;-21.309;-32.969;-5.886
3028104.806;-64.000;-43.474;-62.250;-39.786;-93.915;-23.879;-38.408;-12.182
3028104.814;-66.906;-40.978;-65.491;-28.908;-94.548;-15.311;-31.590;-4.955
3028104.822;-56.922;-37.067;-50.813;-24.624;-79.088;6.296;-11.660;16.280
3028104.830;-59.530;-39.227;-54.464;-25.742;-76.778;3.986;-13.523;15.572
3028104.838;-60.722;-42.506;-56.438;-30.547;-78.008;-0.522;-13.448;10.170
3028104.850;-52.974;-34.496;-46.343;-9.239;-72.047;-6.184;-15.683;4.210
3028104.858;-55.805;-34.720;-46.007;-8.196;-69.924;-20.638;-29.728;-10.729
3028104.866;-58.971;-39.376;-48.019;-20.862;-73.537;-24.140;-34.571;-16.540
3028104.874;-41.686;-20.675;-35.465;-0.075;-60.350;-13.597;-24.624;-7.302
3028104.882;-40.159;-24.028;-32.261;-4.061;-64.299;-6.519;-19.148;-2.868
3028104.890;-51.521;-35.688;-45.560;-13.597;-75.437;-6.743;-20.713;-4.508
3028104.898;-48.950;-28.647;-39.041;-12.703;-74.022;-0.224;-15.274;3.539
3028104.906;-56.364;-35.204;-46.417;-8.717;-78.678;-6.706;-21.607;-1.937
3028104.914;-56.848;-41.164;-49.360;-5.141;-81.360;-6.855;-22.016;-1.341
3028104.922;-59.456;-40.717;-50.142;-18.515;-75.810;-11.548;-26.003;-4.210
3028104.930;-66.869;-41.984;-59.530;-16.727;-81.249;-23.693;-36.620;-15.199
3028104.938;-51.372;-26.040;-47.684;4.210;-74.208;-11.660;-25.183;-5.290
3028104.946;-50.552;-27.530;-43.102;-10.841;-70.706;-9.760;-25.034;-4.731
3028104.954;-56.401;-41.537;-47.050;-8.792;-76.443;-21.867;-38.370;-15.907
3028104.962;-53.905;-37.029;-46.790;8.084;-78.902;-23.395;-39.674;-18.366
3028104.970;-48.950;-24.550;-38.855;4.098;-68.322;-18.254;-34.347;-15.907
3028104.978;-42.133;-18.515;-35.055;19.446;-54.948;-11.362;-28.163;-9.052
3028104.986;-49.099;-29.244;-35.912;6.966;-63.777;-11.437;-29.802;-9.574
3028104.994;-49.509;-28.722;-37.216;10.692;-62.808;-8.605;-29.467;-5.774
3028105.002;-45.188;-20.266;-40.755;20.303;-71.153;-4.545;-26.152;0.708
3028105.010;-51.111;-30.436;-41.723;2.682;-77.374;-10.282;-32.410;-4.657
3028105.018;-55.470;-34.198;-45.560;2.086;-79.945;-17.323;-39.190;-13.597
3028105.026;-62.250;-42.096;-48.168;-2.943;-77.784;-24.401;-45.374;-23.805
3028105.034;-63.442;-40.866;-50.850;-7.711;-81.658;-23.656;-44.256;-24.997
3028105.031;-54.017;-31.441;-44.778;1.304;-76.145;-19.930;-39.674;-20.899
3028105.039;-42.431;-21.607;-34.161;23.954;-61.393;-13.858;-30.994;-15.832
3028105.047;-32.298;-17.025;-23.283;27.381;-49.733;-3.241;-18.999;-6.370
3028105.055;-40.196;-20.936;-28.200;15.497;-58.264;-4.992;-22.575;-7.264
3028105.063;-50.627;-28.051;-42.394;8.196;-76.443;-10.915;-30.175;-11.474
3028105.071;-57.593;-35.875;-46.566;-2.496;-84.005;-11.586;-32.149;-11.735
3028105.079;-72.271;-54.128;-60.089;-18.328;-95.814;-15.572;-37.737;-14.678
3028105.087;-63.516;-51.484;-53.979;-4.023;-81.211;-4.768;-28.014;-1.602
3028105.095;-46.641;-28.685;-38.259;18.515;-74.916;3.427;-20.303;3.390
3028105.103;-48.354;-20.117;-36.992;15.125;-73.053;-5.029;-27.679;-5.923
3028105.111;-65.565;-38.669;-59.865;-7.004;-94.287;-9.313;-31.404;-10.468
3028105.119;-63.367;-45.970;-57.332;-9.574;-93.915;-5.141;-26.114;-7.898
3028105.127;-44.629;-25.369;-33.900;14.938;-66.981;2.012;-18.962;-0.559
3028105.135;-45.784;-29.728;-36.359;14.007;-67.428;1.825;-20.042;-1.118
3028105.143;-57.071;-52.713;-55.246;6.594;-90.264;7.190;-16.205;4.284
3028105.151;-53.607;-38.110;-49.658;7.860;-96.448;10.021;-13.970;5.625
3028105.159;-43.325;-17.099;-38.780;21.569;-88.513;12.219;-10.356;5.923
3028105.167;-50.105;-28.983;-45.300;2.198;-87.582;6.407;-18.366;3.651
3028105.175;-55.805;-39.749;-49.584;-7.860;-91.866;2.682;-23.171;2.906
3028105.183;-55.470;-40.904;-49.099;8.792;-91.940;3.651;-19.670;4.843
3028105.191;-61.169;-44.517;-56.736;15.013;-96.485;-2.496;-24.587;-2.459
3028105.199;-66.347;-47.311;-61.840;3.055;-101.291;-7.078;-28.647;-5.625
3028105.207;-70.557;-48.801;-64.783;0.373;-106.059;-10.617;-30.473;-7.525
3028105.215;-71.153;-49.733;-66.310;-4.284;-102.259;-8.270;-25.406;-5.327
3028105.224;-61.356;-44.331;-56.364;2.421;-96.373;-5.960;-21.495;0.671
3028105.232;-60.312;-44.517;-56.475;14.082;-100.620;-13.709;-27.306;-5.364
3028105.240;-56.215;-42.170;-54.128;16.578;-94.920;-14.678;-24.922;-6.445
3028105.248;-61.691;-45.784;-60.722;5.625;-106.357;-19.632;-28.796;-8.084
3028105.256;-72.382;-56.513;-68.061;-3.763;-112.541;-28.573;-37.961;-15.423
3028105.264;-68.806;-48.131;-62.510;-1.490;-103.042;-25.295;-34.273;-12.629
3028105.272;-58.785;-39.972;-53.123;14.864;-91.195;-17.658;-27.083;-5.774
3028105.280;-60.052;-43.139;-56.513;17.844;-96.075;-14.231;-22.352;-3.614
3028105.288;-51.297;-32.596;-54.054;20.042;-97.081;-3.427;-11.437;7.004
3028105.296;-24.922;-8.717;-25.481;49.658;-83.968;-0.633;-9.350;10.766
3028105.304;-12.629;1.527;-2.682;47.609;-75.772;-11.399;-20.340;2.794
3028105.312;11.586;28.387;22.128;62.026;-44.219;-12.703;-20.303;0.522
3028105.320;33.826;48.392;40.606;97.416;-33.490;-5.662;-13.895;8.121
3028105.328;50.701;71.600;55.917;127.591;-28.387;-3.614;-12.480;11.586
3028105.336;62.287;93.207;69.141;145.473;-18.850;-3.539;-11.623;9.947
3028105.344;59.605;88.438;64.671;132.211;-27.455;2.943;-4.955;14.491
3028105.352;47.050;73.165;50.180;126.176;-43.809;5.029;-3.166;12.964
3028105.360;33.379;56.773;35.986;116.415;-51.297;4.135;-3.912;9.015
3028105.368;34.422;54.762;37.216;114.925;-37.812;8.121;1.043;15.572
3028105.376;35.278;61.505;39.637;112.653;-44.815;0.931;-6.929;9.239
3028105.384;36.210;54.352;37.402;113.510;-48.950;-1.639;-11.362;5.700
3028105.392;32.224;52.303;31.665;113.510;-51.223;-3.763;-12.554;1.863
3028105.400;21.234;45.449;22.948;110.641;-53.607;-5.588;-15.646;-2.198
3028105.408;20.489;46.194;20.154;93.803;-53.458;4.731;-8.568;5.066
3028105.421;17.695;42.878;16.205;101.738;-63.628;13.895;-3.017;10.505
3028105.429;16.019;37.551;18.068;100.359;-60.610;20.787;1.192;17.807
3028105.437;17.285;43.027;21.569;100.210;-59.083;18.962;0.559;16.503
3028105.445;19.334;42.468;24.624;109.561;-58.599;18.366;2.459;17.099
3028105.453;21.197;48.615;27.195;115.149;-55.060;15.795;4.359;14.342
3028105.461;22.762;47.088;22.948;104.681;-47.386;13.858;5.886;11.921
3028105.469;18.924;39.935;13.635;100.769;-63.591;14.044;4.694;15.572
3028105.477;3.017;24.214;5.625;91.121;-79.609;-3.092;-13.784;0.708
3028105.485;10.319;36.731;18.366;99.875;-50.291;-1.118;-11.176;-0.522
3028105.493;20.377;50.552;25.891;105.575;-41.202;12.890;4.321;10.356
3028105.501;20.638;48.541;26.412;102.073;-45.821;19.930;9.760;16.876
3028105.509;18.962;45.747;21.234;107.847;-58.636;22.724;11.362;18.999
3028105.517;10.021;30.510;13.746;94.138;-63.926;16.689;3.055;13.486
3028105.525;9.052;26.003;11.548;89.966;-62.287;9.835;-3.092;7.488
3028105.533;18.999;38.669;27.232;91.493;-45.076;9.239;-3.688;9.723
3028105.541;15.907;43.884;22.464;104.643;-54.277;5.886;-7.674;6.892
3028105.549;11.250;42.282;12.554;98.944;-57.220;8.419;-5.402;10.245
3028105.557;6.817;31.814;9.350;90.636;-58.673;21.048;8.047;22.016
3028105.565;-3.427;21.011;1.267;82.068;-75.512;8.121;-3.874;10.058
3028105.573;3.539;27.083;3.949;92.909;-68.620;10.729;-1.937;12.591
3028105.581;4.470;24.475;2.831;83.037;-70.147;24.922;10.766;27.269
3028105.589;-1.378;22.128;-1.565;70.743;-72.531;14.603;-1.229;19.595
3028105.597;2.123;25.555;5.029;78.790;-67.204;12.256;-1.304;14.901
3028105.605;3.129;28.051;-0.745;86.874;-70.371;13.188;1.900;15.236
3028105.616;-3.725;14.603;-5.513;76.741;-83.670;10.170;-0.931;10.282
3028105.624;-14.976;1.043;-9.984;64.224;-78.939;-3.576;-18.515;-0.410
3028105.632;-11.809;5.066;-5.960;62.920;-74.767;-1.341;-19.558;2.719
3028105.640;-5.923;14.342;-4.172;71.041;-73.873;-0.671;-20.750;2.794
3028105.648;-4.172;22.016;-3.465;71.600;-72.643;1.192;-17.136;3.204
3028105.656;-3.353;19.744;-2.123;86.315;-72.457;11.921;-4.284;11.139
3028105.664;-5.551;19.222;-6.966;82.180;-63.106;20.377;3.651;17.062
3028105.672;-11.548;9.909;-12.144;75.586;-64.746;24.587;5.886;19.893
3028105.680;-19.670;0.000;-12.517;55.656;-76.555;16.578;-4.359;13.635
3028105.688;-28.349;-7.376;-20.899;37.290;-88.997;5.029;-16.615;3.576
3028105.696;-30.026;-16.242;-24.214;36.657;-85.011;2.608;-21.867;2.980
3028105.704;-39.265;-25.108;-37.365;34.459;-88.066;0.671;-25.630;0.596
3028105.712;-36.582;-23.507;-32.559;49.397;-93.058;4.582;-22.650;3.204
3028105.720;-8.605;13.337;-0.522;79.311;-69.514;5.960;-22.687;4.172
3028105.728;-7.115;18.887;-5.737;85.086;-74.729;17.546;-10.617;11.213
3028105.736;-12.480;9.649;-12.442;71.488;-90.972;24.401;-3.800;13.374
3028105.744;-14.640;4.098;-15.572;72.233;-103.004;28.871;0.931;14.044
3028105.752;-13.635;0.335;-17.397;76.108;-112.243;34.384;6.519;18.775
3028105.760;-20.526;-16.168;-24.587;66.794;-122.041;31.032;1.714;14.380
3028105.768;-27.493;-12.666;-31.628;58.115;-131.279;20.675;-9.611;3.427
3028105.776;-29.840;-15.646;-36.769;64.336;-129.268;14.305;-16.429;-0.335
3028105.784;-28.647;-11.362;-30.063;60.461;-115.074;11.101;-17.136;-3.725
3028105.792;-19.073;-3.316;-17.993;78.268;-101.924;12.778;-11.325;-1.416
3028105.800;-23.395;-7.562;-21.867;79.051;-110.082;11.362;-12.033;-5.923
3028105.826;-28.163;-16.056;-26.561;78.157;-112.653;19.446;-4.843;-1.416
3028105.834;-17.621;-1.639;-21.756;79.274;-116.043;37.849;11.623;16.242
3028105.842;-29.802;-12.591;-32.037;77.412;-118.092;33.900;4.992;14.119
3028105.850;-39.674;-30.734;-39.749;56.066;-117.272;29.095;0.745;10.245
3028105.858;-41.202;-28.014;-40.904;53.011;-122.227;31.404;4.843;13.150
3028105.866;-33.267;-19.409;-28.685;75.288;-111.163;34.124;9.984;16.354
3028105.874;-35.167;-19.707;-35.204;68.061;-122.339;34.496;13.970;15.683
3028105.882;-47.758;-35.018;-46.715;49.397;-133.887;22.128;5.029;4.321
3028105.890;-45.039;-36.173;-39.041;45.598;-115.745;16.019;-1.751;0.484
3028105.898;-40.941;-28.871;-35.539;57.779;-108.182;15.087;-5.029;1.378
3028105.906;-38.184;-24.252;-34.608;67.763;-110.045;21.867;-1.080;8.494
3028105.914;-45.523;-33.975;-43.996;52.452;-118.501;20.191;-5.625;8.941
3028105.922;-43.251;-35.428;-41.015;50.738;-113.249;23.320;-4.917;12.666
3028105.930;-31.292;-18.328;-28.685;60.163;-105.351;24.363;-4.619;14.976
3028105.938;-35.428;-24.028;-33.230;50.887;-117.347;27.120;0.037;18.403
3028105.946;-34.049;-26.673;-33.751;56.624;-122.674;23.544;-1.043;15.981
3028105.954;-30.212;-26.524;-27.828;56.252;-109.635;25.034;3.576;17.695
3028105.962;-28.759;-23.246;-23.805;58.562;-97.491;22.165;4.359;13.374
3028105.970;-28.685;-33.528;-19.260;50.068;-87.693;20.936;5.290;8.829
3028105.978;-26.114;-19.111;-22.165;57.109;-88.587;20.489;7.972;5.960
3028105.986;-27.902;-19.148;-21.830;67.279;-92.573;18.589;7.488;3.725
3028105.994;-33.863;-26.785;-25.593;59.791;-105.612;20.154;6.594;3.837
3028106.002;-34.943;-29.355;-27.567;49.472;-115.372;30.957;13.225;13.933
3028106.010;-42.692;-42.766;-38.631;36.620;-110.269;35.278;13.337;20.340
3028105.990;-43.400;-43.772;-39.563;36.955;-99.130;33.863;10.543;20.899
3028105.998;-45.374;-43.511;-39.972;38.035;-102.967;28.759;7.525;18.813
3028106.006;-45.970;-42.953;-46.268;48.690;-112.318;24.363;4.917;18.440
3028106.014;-49.584;-42.468;-50.999;44.480;-111.870;12.368;-4.023;10.058
3028106.022;-40.717;-31.069;-38.408;49.695;-105.835;8.121;-3.353;7.711
3028106.030;-38.221;-36.247;-28.424;41.164;-92.499;3.688;-3.986;1.974
3028106.038;-35.092;-37.923;-28.983;43.586;-84.154;3.390;-3.614;-0.522
3028106.046;-35.949;-34.459;-36.806;41.611;-95.218;2.459;-7.413;-1.639
3028106.054;-42.357;-37.849;-38.520;39.078;-102.930;1.416;-9.835;-2.794
3028106.062;-44.852;-46.566;-44.405;36.322;-97.603;3.986;-8.009;-2.235
3028106.070;-52.229;-54.799;-51.484;19.856;-99.950;8.047;-4.619;0.112
3028106.078;-45.039;-45.523;-42.096;29.206;-96.373;16.168;4.359;9.350
3028106.086;-37.104;-30.771;-31.590;47.050;-90.338;21.160;9.499;15.721
3028106.094;-36.471;-32.037;-33.192;48.243;-83.782;20.713;8.121;15.609
3028106.102;-43.698;-41.127;-45.411;29.467;-96.783;14.640;-0.410;12.703
3028106.110;-40.568;-42.431;-41.537;31.143;-86.799;3.800;-13.299;3.204
3028106.118;-37.998;-35.167;-42.990;44.703;-83.931;-4.061;-21.160;-4.284
3028106.126;-35.986;-37.476;-36.843;33.230;-77.114;-3.837;-20.452;-2.757
3028106.134;-43.102;-39.749;-40.084;29.430;-90.189;-11.548;-28.089;-10.505
3028106.142;-35.241;-32.745;-28.275;34.198;-73.202;-7.376;-21.234;-7.898
3028106.150;-28.685;-25.965;-26.412;30.287;-70.967;3.651;-8.605;2.049
3028106.158;-29.691;-24.810;-28.796;41.761;-64.522;6.706;-5.923;5.066
3028106.166;-25.146;-26.487;-26.338;43.437;-56.215;14.864;3.912;14.342
3028106.174;-23.879;-21.830;-24.103;49.770;-67.279;2.496;-8.568;5.513
3028106.200;-25.108;-24.959;-23.469;35.502;-62.101;-9.909;-23.916;-2.049
3028106.208;-24.587;-25.369;-23.320;32.075;-59.344;-16.466;-30.398;-8.047
3028106.216;-23.022;-15.311;-23.879;44.256;-54.240;-33.937;-46.231;-22.762
3028106.224;-24.624;-16.205;-32.783;46.305;-58.562;-44.703;-53.905;-30.063
3028106.232;-26.003;-25.630;-31.590;40.643;-55.395;-47.125;-52.005;-30.734
3028106.240;-21.309;-22.426;-24.475;34.347;-48.913;-39.525;-41.723;-23.954
3028106.248;-27.120;-30.026;-27.418;18.813;-53.644;-31.702;-35.837;-17.844
3028106.256;-32.075;-35.428;-30.287;19.595;-56.475;-24.922;-31.143;-14.380
3028106.264;-30.436;-25.108;-32.000;23.991;-64.857;-15.832;-21.532;-8.941
3028106.272;-24.661;-21.905;-28.983;32.261;-58.450;-3.427;-9.276;0.931
3028106.280;-15.870;-11.437;-10.654;46.901;-29.244;-4.135;-9.090;1.304
3028106.288;0.782;2.719;2.570;54.091;-14.752;-6.780;-13.299;-1.639
3028106.296;-0.075;5.178;-6.258;51.111;-30.324;-23.544;-30.436;-18.552
3028106.304;-6.706;0.782;-11.772;44.256;-37.886;-37.514;-46.529;-30.585
3028106.312;-7.190;-2.235;-10.803;48.764;-42.468;-38.221;-50.180;-29.691
3028106.320;-9.164;-10.878;-10.766;48.727;-40.345;-32.857;-47.460;-27.381
3028106.328;-10.096;-7.190;-9.090;39.935;-20.601;-25.034;-40.568;-24.624
3028106.336;-15.572;-11.697;-15.236;28.834;-30.398;-14.901;-31.516;-17.695
3028106.344;-16.168;-14.752;-16.354;24.103;-36.471;1.751;-14.827;-1.788
3028106.352;-21.197;-17.323;-22.464;28.573;-37.067;4.843;-10.990;2.310
3028106.360;-26.971;-26.859;-27.753;21.346;-49.956;3.055;-8.158;-1.490
3028106.368;-15.907;-19.073;-16.280;27.753;-44.256;-7.674;-18.775;-12.591
3028106.376;17.844;27.530;14.827;58.413;-2.533;-4.657;-16.838;-10.952
3028106.384;40.457;52.042;32.708;90.897;12.442;-0.820;-14.082;-7.227
3028106.380;36.024;45.002;26.673;82.590;8.233;-11.250;-26.412;-17.285
3028106.388;27.977;33.453;25.257;72.457;-0.596;-25.928;-41.015;-28.312
3028106.396;14.007;23.320;12.964;61.244;-11.511;-37.402;-51.744;-39.116
3028106.404;9.574;17.472;9.835;50.180;-20.675;-38.370;-53.532;-45.523
3028106.412;18.626;21.644;19.334;49.174;-7.264;-26.189;-45.635;-35.651
3028106.420;17.062;21.644;11.958;61.616;-10.133;-13.225;-36.545;-22.575
3028106.428;2.943;7.190;3.688;45.188;-21.644;-12.219;-39.004;-19.409
3028106.436;4.098;11.511;6.221;49.584;-16.019;2.384;-24.438;-5.029
3028106.444;5.551;19.632;4.731;55.134;-16.652;0.112;-24.512;-7.041
3028106.452;7.339;17.211;8.270;51.484;-17.956;-7.786;-29.132;-15.609
3028106.460;16.503;25.071;15.460;53.272;-4.619;-2.049;-19.856;-12.368
3028106.468;20.936;26.114;18.813;54.799;-8.084;-4.582;-22.501;-14.156
3028106.476;19.968;20.713;18.366;43.660;-18.924;-5.625;-23.618;-14.901
3028106.484;10.207;18.664;8.941;35.912;-28.461;-11.474;-31.218;-18.068
3028106.492;6.594;9.276;7.525;29.244;-26.487;-14.193;-36.508;-14.976
3028106.500;-10.468;-14.752;-9.127;10.058;-31.181;-28.051;-48.876;-27.157
3028106.508;-12.778;-11.474;-10.468;2.794;-30.510;-24.661;-45.411;-26.487
3028106.516;-18.552;-18.887;-16.876;5.476;-43.325;-15.348;-37.029;-21.383
3028106.524;-21.048;-21.607;-18.030;12.033;-50.403;-6.445;-27.418;-17.658
3028106.532;-7.153;2.570;-3.874;37.588;-25.444;4.917;-14.678;-6.482
3028106.540;8.643;24.587;7.525;55.656;-14.119;15.385;-3.539;4.135
3028106.548;13.076;25.220;13.374;51.185;-13.635;13.299;-4.396;1.825
3028106.556;3.204;9.872;6.817;29.579;-16.838;-0.782;-18.291;-11.474
3028106.564;0.224;0.410;1.229;23.730;-24.177;-9.052;-26.226;-19.819
3028106.588;3.129;7.264;4.731;29.244;-23.246;-7.823;-25.220;-20.489
3028106.596;3.576;9.350;8.270;33.639;-22.426;-11.325;-28.051;-26.077
3028106.604;7.264;19.707;10.133;38.929;-18.813;-8.792;-24.363;-23.469
3028106.612;-2.682;4.657;-2.794;22.314;-27.195;-5.960;-20.415;-24.587
3028106.620;-10.617;-12.927;-15.274;4.135;-37.625;1.416;-17.323;-17.695
3028106.628;-12.144;-14.454;-16.876;6.929;-46.417;11.735;-9.350;-7.004
3028106.636;-14.342;-8.531;-12.927;-0.261;-41.388;15.311;-2.943;-3.353
3028106.644;-19.856;-14.417;-16.578;-2.310;-44.145;11.846;-4.061;-5.290
3028106.652;-23.767;-20.079;-22.538;4.284;-49.695;9.052;-6.557;-7.711
3028106.660;-20.824;-16.205;-22.501;4.917;-43.958;13.299;-3.427;-1.155
3028106.668;-18.701;-14.119;-19.073;4.284;-34.943;4.582;-15.087;-5.923
3028106.676;-12.144;-13.709;-11.921;19.521;-36.582;-3.502;-24.140;-13.448
3028106.684;-15.199;-15.236;-13.076;10.021;-38.147;-11.250;-33.006;-18.217
3028106.692;-17.285;-10.580;-16.615;0.931;-46.901;-16.578;-37.253;-23.730
3028106.700;-13.821;-3.427;-16.801;5.066;-42.133;-8.307;-27.493;-17.770
3028106.708;-9.611;-7.153;-13.001;10.058;-41.649;4.433;-13.299;-6.370
3028106.716;-16.801;-13.486;-18.738;13.821;-44.629;6.668;-11.697;-5.737
3028106.724;-27.679;-17.323;-35.018;3.986;-58.562;2.906;-17.770;-6.817
3028106.732;-37.178;-28.089;-37.365;-7.674;-56.215;-0.671;-21.867;-6.482
3028106.740;-45.300;-39.563;-41.649;-26.934;-52.266;-4.210;-24.103;-9.127
3028106.748;-41.164;-35.539;-42.506;-17.434;-56.028;-2.608;-19.632;-4.508
3028106.756;-39.116;-33.192;-39.525;-10.394;-64.522;-12.405;-25.630;-13.113
3028106.764;-39.600;-37.476;-34.682;-17.621;-55.693;-25.034;-36.955;-26.897
3028106.772;-34.533;-29.430;-29.542;-2.347;-58.487;-27.344;-37.849;-30.138
3028106.771;-30.734;-24.922;-24.401;-4.061;-46.641;-26.114;-37.402;-31.367
3028106.779;-24.922;-20.191;-20.675;-12.703;-30.510;-23.916;-38.818;-28.685
3028106.787;-21.942;-17.583;-21.718;-3.763;-28.796;-20.526;-37.625;-23.805
3028106.795;-20.787;-24.661;-18.664;7.562;-35.912;-10.170;-27.791;-10.841
3028106.803;-32.634;-27.567;-29.281;-3.353;-50.440;-8.047;-23.693;-8.419
3028106.811;-43.325;-28.871;-36.098;-10.282;-58.152;-10.058;-21.271;-9.872
3028106.819;-48.690;-39.376;-44.107;-16.801;-57.891;-10.841;-18.291;-9.872
3028106.827;-53.830;-43.251;-46.529;-20.638;-56.438;-17.397;-22.203;-15.385
3028106.835;-55.693;-41.947;-48.801;-18.440;-51.633;-22.873;-25.816;-22.203
3028106.843;-50.999;-34.980;-45.300;-11.623;-52.154;-25.928;-28.238;-26.524
3028106.851;-37.625;-24.624;-29.765;-6.370;-42.245;-26.710;-28.387;-26.710
3028106.859;-16.689;-3.427;-9.462;9.052;-24.997;-22.985;-25.965;-20.638
3028106.867;-5.290;3.614;1.080;13.709;-17.658;-21.718;-26.263;-19.893
3028106.875;0.894;5.662;8.307;26.450;-16.913;-14.864;-20.005;-14.156
3028106.883;13.821;28.536;21.458;50.031;-8.121;-2.943;-8.456;-5.029
3028106.891;25.854;43.921;34.049;50.478;2.682;4.917;-1.900;3.129
3028106.899;43.251;69.998;48.466;87.693;9.835;5.327;-3.539;6.184
3028106.907;46.864;75.251;50.440;101.216;3.763;6.668;-0.969;7.302
3028106.915;49.025;73.127;51.782;93.579;9.984;4.247;-1.192;6.258
3028106.923;54.128;84.452;56.289;117.794;16.280;1.565;-2.272;3.166
3028106.931;61.095;92.871;64.224;129.603;29.728;-2.682;-5.402;-0.112
3028106.939;58.785;85.607;64.336;107.586;27.083;-1.565;-5.439;2.421
3028106.947;47.907;76.927;52.862;96.448;18.999;-9.388;-15.534;-3.874
3028106.955;37.104;63.702;34.533;82.105;-3.688;-15.013;-18.962;-8.978
3028106.950;22.836;39.861;21.160;68.024;-4.619;-17.695;-17.993;-12.778
3028106.958;17.732;35.800;14.789;60.461;-10.021;-12.331;-8.605;-9.164
3028106.966;5.811;27.791;-0.112;38.818;-29.504;-7.227;-1.639;-3.241
3028106.974;1.602;21.048;-4.731;33.975;-27.083;-3.763;5.625;2.049
3028106.982;-1.527;13.225;-8.531;37.402;-27.679;-7.413;5.551;1.378
3028106.990;-2.645;12.703;-10.803;35.167;-36.955;-8.978;6.780;0.373
3028106.998;-4.470;14.342;-11.846;29.765;-32.112;-12.740;3.725;-2.682
3028107.006;-0.782;11.176;-6.743;29.318;-33.192;-12.480;2.831;-1.006
3028107.014;-1.192;11.027;-4.135;32.187;-22.687;-17.956;-4.731;-6.296
3028107.022;-8.680;1.304;-11.362;19.819;-25.630;-24.289;-11.846;-11.362
3028107.030;-10.096;-5.178;-11.101;8.382;-27.567;-25.369;-14.305;-12.591
3028107.038;-18.738;-9.499;-22.240;3.129;-35.539;-27.902;-16.205;-13.597
3028107.046;-29.169;-22.836;-33.230;-5.811;-42.766;-33.267;-20.415;-15.236
3028107.054;-35.353;-27.008;-41.462;-7.004;-45.747;-34.533;-19.968;-17.211
3028107.062;-33.826;-21.048;-40.010;2.719;-41.835;-34.869;-18.850;-14.864
3028107.070;-30.547;-20.601;-31.106;-1.043;-38.221;-30.920;-12.890;-9.947
3028107.078;-26.263;-12.740;-26.748;0.075;-30.845;-27.791;-8.717;-6.631
3028107.086;-29.095;-16.168;-29.802;-4.731;-33.155;-32.634;-14.491;-9.686
3028107.094;-28.051;-20.973;-25.444;-1.863;-31.218;-33.788;-17.621;-11.101
3028107.102;-25.183;-23.469;-23.842;9.499;-30.585;-35.726;-19.409;-10.543
3028107.110;-24.587;-13.076;-28.349;9.686;-36.024;-30.845;-14.752;-5.290
3028107.118;-23.283;-10.990;-20.936;4.210;-26.189;-26.003;-9.537;-0.745
3028107.126;-29.504;-26.636;-24.699;-8.084;-16.838;-29.840;-12.815;-4.098
3028107.134;-39.637;-30.212;-36.694;-6.296;-26.822;-36.098;-17.546;-8.903
3028107.146;-40.270;-30.473;-39.525;-1.676;-41.239;-37.588;-17.583;-9.201
3028107.154;-34.571;-19.409;-32.149;-3.949;-28.983;-36.731;-17.434;-6.557
3028107.162;-35.986;-28.014;-36.284;-7.451;-29.728;-37.812;-20.303;-7.488
3028107.170;-39.153;-37.290;-32.969;-22.314;-36.620;-41.537;-23.060;-12.703
3028107.178;-35.875;-24.140;-29.393;-7.637;-20.899;-42.208;-23.767;-14.789
3028107.186;-32.075;-24.438;-31.628;0.261;-18.179;-37.178;-17.993;-11.437
3028107.194;-28.685;-22.389;-27.940;1.639;-16.056;-30.547;-10.654;-6.221
3028107.202;-28.498;-23.879;-23.656;-4.880;-16.764;-34.794;-15.758;-8.978
3028107.210;-29.095;-19.930;-33.118;-1.751;-24.065;-39.451;-20.266;-12.070
3028107.218;-28.610;-18.142;-27.530;-4.321;-19.185;-39.078;-20.377;-10.505
3028107.226;-37.961;-29.542;-37.774;-8.978;-26.934;-42.208;-21.979;-13.709
3028107.234;-38.780;-33.826;-37.700;-6.072;-28.387;-36.545;-14.827;-10.356
3028107.242;-41.425;-32.559;-38.333;-18.217;-36.992;-31.516;-10.096;-5.513
3028107.250;-44.815;-31.479;-44.294;-19.111;-41.015;-30.473;-9.909;-3.316
3028107.258;-28.536;-18.291;-22.985;-7.488;-14.231;-36.247;-16.689;-7.600
3028107.266;-16.615;-8.605;-10.543;5.439;11.437;-33.751;-16.093;-5.215
3028107.274;-12.554;-5.476;-5.364;1.267;6.519;-33.043;-14.864;-3.725
3028107.282;-13.486;-5.513;-5.849;2.272;3.539;-32.485;-12.666;-0.671
3028107.290;-15.572;-6.929;-8.419;-6.445;-5.476;-26.450;-6.407;5.029
3028107.298;-21.867;-19.409;-12.442;-15.944;-13.411;-26.822;-8.717;3.278
3028107.306;-25.705;-19.036;-16.764;-23.954;-4.508;-32.485;-15.162;-3.204
3028107.314;-21.830;-12.480;-18.254;2.533;-4.619;-25.146;-7.302;-0.075
3028107.322;-20.973;-13.523;-16.242;6.407;-3.763;-22.836;-4.433;-1.341
3028107.330;-20.638;-9.425;-16.727;1.825;-3.800;-25.705;-5.104;-3.986
3028107.341;-20.005;-15.236;-16.727;-3.017;-3.390;-27.120;-5.811;-6.370
3028107.349;-15.646;-13.188;-12.107;-10.543;-5.849;-25.034;-3.204;-3.204
3028107.357;-16.838;-5.402;-15.162;2.645;0.931;-23.916;-2.310;-0.671
3028107.365;-20.750;-10.096;-14.827;4.731;1.043;-25.630;-2.421;-3.166
3028107.373;-23.320;-18.179;-15.311;-10.170;0.037;-28.498;-6.035;-5.886
3028107.381;-22.054;-19.595;-16.615;-7.972;-2.496;-28.089;-6.780;-6.072
3028107.389;-22.352;-18.775;-21.681;-0.298;-10.431;-31.963;-9.574;-9.276
3028107.397;-16.205;-0.969;-13.262;13.486;0.298;-31.851;-7.711;-10.319
3028107.405;-19.036;-6.966;-10.133;-0.596;6.296;-32.410;-10.729;-11.176
3028107.413;-26.897;-22.128;-20.526;-22.352;-9.537;-35.353;-15.087;-12.703
3028107.421;-25.146;-21.532;-24.140;-8.717;-8.196;-30.920;-9.425;-9.574
3028107.429;-15.013;-11.139;-11.995;6.743;0.559;-25.071;-2.682;-3.576
3028107.437;-17.844;-6.407;-14.342;8.829;0.708;-28.871;-8.121;-6.817
3028107.445;-26.077;-14.491;-23.395;-3.353;-12.778;-32.037;-14.044;-8.270
3028107.453;-33.341;-25.071;-28.871;-18.924;-15.534;-37.327;-21.830;-12.405
3028107.461;-35.726;-25.928;-31.441;-21.569;-12.517;-39.786;-23.358;-17.211
3028107.469;-24.028;-16.168;-19.595;-9.909;-4.545;-29.989;-12.107;-8.419
3028107.477;-15.385;-8.605;-8.009;5.364;14.603;-23.060;-4.582;-3.204
3028107.485;-21.234;-17.136;-17.919;-4.061;-2.980;-25.593;-7.562;-8.494
3028107.493;-14.789;-11.101;-13.709;-0.298;4.508;-15.125;0.298;-1.229
3028107.501;-20.526;-13.560;-17.323;-6.147;-9.350;-10.543;3.055;0.671
3028107.509;-26.114;-15.646;-22.948;-9.239;-11.101;-15.385;-1.900;-4.694
3028107.517;-29.467;-23.246;-22.873;-12.927;-1.527;-15.460;-4.545;-4.992
3028107.525;-31.479;-29.095;-23.916;-22.352;-7.898;-16.093;-5.998;-4.023
3028107.535;-32.298;-32.559;-26.301;-16.578;-11.250;-23.581;-13.858;-6.706
3028107.543;-30.175;-27.753;-22.687;-10.617;-3.874;-24.922;-15.944;-5.513
3028107.551;-29.691;-21.495;-24.252;-13.635;-5.327;-22.985;-14.827;-2.496
3028107.559;-29.691;-24.587;-24.326;-19.856;-4.880;-24.103;-15.721;-4.657
3028107.567;-30.398;-28.163;-22.613;-21.607;-0.596;-25.295;-16.652;-6.258
3028107.575;-30.324;-27.679;-25.034;-16.689;-4.992;-26.152;-18.664;-5.588
3028107.583;-36.620;-33.304;-26.897;-30.398;-7.823;-30.063;-23.022;-8.456
3028107.591;-38.743;-35.688;-32.522;-29.281;-12.852;-28.796;-20.191;-7.041
3028107.599;-40.196;-37.178;-37.141;-37.849;-21.085;-27.716;-15.199;-8.456
3028107.607;-29.877;-22.575;-28.275;-19.036;-16.093;-26.934;-10.915;-8.382
3028107.615;-19.446;-5.886;-18.179;2.347;-0.671;-26.822;-8.717;-7.041
3028107.623;-19.521;-9.649;-18.030;-5.178;2.496;-31.851;-12.703;-10.096
3028107.631;-22.314;-21.048;-16.354;-14.640;3.986;-36.508;-16.652;-11.176
3028107.639;-23.097;-24.103;-15.385;-19.036;1.155;-37.253;-17.993;-11.921
3028107.647;-19.222;-9.947;-13.895;-6.072;-7.525;-39.190;-21.607;-13.113
3028107.655;-19.222;-6.557;-14.342;-1.937;-1.416;-41.984;-26.077;-14.901
3028107.663;-25.965;-18.366;-20.899;-21.048;2.608;-41.164;-24.848;-14.231
3028107.671;-30.957;-26.263;-25.108;-26.524;-4.657;-40.121;-23.395;-12.964
3028107.679;-29.430;-29.691;-19.968;-22.836;-4.582;-36.396;-18.477;-11.735
3028107.687;-31.516;-31.777;-20.862;-24.587;-9.686;-37.253;-16.205;-15.236
3028107.695;-28.200;-21.793;-18.924;-19.372;-7.674;-38.333;-14.044;-17.211
3028107.703;-23.134;-6.966;-18.664;-11.101;-7.078;-35.949;-9.127;-14.901
3028107.711;-21.383;-13.337;-20.787;-10.058;-6.035;-36.843;-10.207;-14.268
3028107.719;-21.197;-8.605;-20.899;-7.302;4.731;-42.319;-18.179;-17.844
3028107.731;-15.646;-9.425;-13.448;-3.390;7.264;-41.164;-20.154;-15.162
3028107.739;-16.689;-17.323;-12.144;-18.254;1.229;-41.910;-22.724;-13.411
3028107.747;-14.789;-11.139;-7.451;-18.962;9.388;-40.270;-19.073;-12.703
3028107.755;-13.448;-13.448;-3.427;-21.830;11.586;-34.012;-12.144;-7.525
3028107.763;-9.164;-1.006;-3.092;-4.433;9.984;-32.149;-10.766;-6.929
3028107.771;-13.076;-2.310;-8.568;-6.221;9.835;-32.037;-12.666;-8.196
3028107.779;-11.548;-2.533;-3.614;-9.574;14.082;-27.120;-9.649;-5.141
3028107.787;-10.394;-2.608;-2.794;-13.895;12.144;-32.037;-14.454;-9.090
3028107.795;-6.631;-0.633;0.373;-11.809;3.204;-33.639;-16.466;-8.680
3028107.803;13.746;22.538;26.114;10.505;34.533;-38.818;-22.165;-12.666
3028107.811;30.771;36.247;42.655;20.638;54.911;-39.749;-23.581;-12.927
3028107.819;45.337;50.850;53.085;31.330;66.049;-32.634;-15.050;-5.886
3028107.827;56.885;66.645;70.408;44.592;73.500;-23.618;-6.966;0.000
3028107.835;64.597;79.758;81.621;53.681;88.103;-13.970;1.192;5.625
3028107.843;76.182;92.573;91.754;62.138;103.526;-6.855;7.190;10.021
3028107.851;74.878;90.115;91.605;60.275;115.223;-2.868;8.047;13.970
3028107.859;70.706;78.455;90.487;54.725;112.951;-2.012;6.817;15.683
3028107.867;72.494;90.823;92.536;49.397;114.925;-2.906;6.258;14.342
3028107.875;76.219;84.825;98.199;51.036;116.266;-0.708;9.649;16.950
3028107.883;72.755;79.386;96.597;39.227;129.454;-14.193;-3.166;7.600
3028107.891;55.544;66.869;81.956;17.472;128.970;-32.671;-21.830;-6.631
3028107.899;39.041;42.766;62.697;-5.029;107.028;-35.316;-24.028;-5.774
3028107.907;19.297;16.429;39.265;-28.051;79.758;-35.986;-24.475;-8.456
3028107.915;-2.049;-11.139;13.597;-57.258;53.123;-33.975;-22.426;-11.399
3028107.912;-13.448;-20.377;6.370;-62.287;59.493;-25.779;-14.864;-7.488
3028107.920;-18.291;-19.036;1.490;-55.060;66.049;-16.764;-7.451;1.192
3028107.928;-31.069;-35.241;-14.454;-69.216;50.142;-14.529;-8.605;5.960
3028107.936;-46.827;-50.478;-31.777;-91.046;37.439;-15.013;-12.368;5.215
3028107.944;-49.546;-57.220;-36.731;-102.036;29.802;-18.813;-17.434;6.035
3028107.952;-53.421;-58.115;-37.737;-102.744;23.358;-25.816;-25.108;1.751
3028107.960;-51.633;-56.140;-38.520;-93.430;16.801;-29.430;-28.834;-1.304
3028107.968;-52.489;-66.049;-37.961;-98.683;28.536;-37.700;-34.422;-11.399
3028107.976;-51.521;-66.683;-35.800;-93.281;35.129;-43.735;-39.041;-21.160
3028107.984;-50.515;-56.513;-38.221;-88.178;30.436;-44.145;-39.674;-25.816
3028107.992;-47.274;-48.131;-40.382;-79.535;27.642;-28.573;-24.363;-16.391
3028108.000;-50.925;-51.744;-43.772;-78.864;23.693;-17.211;-14.417;-9.164
3028108.008;-59.195;-58.562;-53.570;-93.542;12.442;-17.732;-14.715;-10.133
3028108.016;-70.147;-76.368;-66.087;-111.908;-3.278;-18.179;-13.411;-8.866
3028108.024;-68.881;-74.878;-62.473;-93.877;-0.484;-18.924;-12.890;-5.253
3028108.032;-62.548;-70.445;-55.060;-88.029;12.182;-17.956;-11.660;0.820
3028108.040;-63.330;-67.316;-59.828;-96.187;0.261;-21.718;-15.534;-1.863
3028108.048;-66.720;-66.087;-63.702;-93.915;-7.376;-30.212;-25.220;-11.176
3028108.056;-68.322;-68.992;-58.971;-88.140;7.898;-34.869;-31.330;-16.987
3028108.064;-69.737;-74.729;-63.181;-96.411;5.290;-33.416;-32.522;-16.540
3028108.072;-73.016;-81.435;-67.465;-113.696;-0.037;-25.183;-27.157;-10.841
3028108.080;-53.197;-57.630;-46.566;-84.974;11.064;-14.491;-16.503;-2.980
3028108.088;-29.132;-32.000;-29.095;-53.495;21.309;-0.708;-2.421;7.004
3028108.096;-21.681;-24.401;-17.248;-50.515;18.701;-1.490;-3.912;2.161
3028108.104;-11.474;-5.402;2.496;-42.990;43.735;1.937;-0.671;3.800
3028108.112;-10.133;-3.316;2.012;-43.288;44.666;5.551;1.863;4.582
3028108.120;-9.984;-6.855;-4.284;-36.284;39.674;8.568;4.880;6.817
3028108.128;-8.829;-8.605;-8.643;-23.320;36.992;9.499;4.843;9.611
3028108.136;-9.052;-7.711;-6.035;-29.206;36.843;8.456;4.470;8.866
3028108.144;-7.488;-4.247;-6.184;-33.714;42.729;9.164;5.811;9.313
3028108.152;-5.178;2.161;-0.857;-23.022;38.743;8.866;4.135;9.499
3028108.160;-3.390;4.172;3.614;-27.083;41.053;11.921;6.631;13.262
3028108.168;-0.484;3.017;2.198;-28.573;46.790;14.566;9.909;15.683
3028108.176;-1.378;1.192;1.118;-21.011;43.511;18.366;15.981;15.125
3028108.184;-3.502;2.719;-6.668;-14.603;36.843;24.773;26.040;21.569
3028108.192;-20.117;-14.380;-20.340;-38.892;25.630;18.403;19.781;17.285
3028108.200;-25.854;-16.242;-22.650;-40.829;20.452;14.603;14.789;14.976
3028108.208;-22.687;-15.646;-22.240;-36.433;24.289;15.348;14.156;20.377
3028108.216;-20.824;-16.391;-17.360;-36.657;20.042;9.015;8.456;18.068
3028108.224;-8.978;-0.596;-9.127;-16.317;29.728;3.614;3.055;16.019
3028108.232;-1.341;4.508;-2.123;-18.589;39.749;-3.763;-5.178;11.809
3028108.240;0.037;1.080;5.364;-26.748;51.334;-11.362;-13.076;4.433
3028108.248;4.284;13.150;8.829;-11.250;52.825;-8.643;-9.649;6.892
3028108.256;-3.241;4.359;-0.149;-17.248;46.864;-8.345;-8.643;5.551
3028108.264;-17.509;-17.993;-13.560;-36.731;27.455;-8.009;-7.078;6.370
3028108.272;-20.750;-16.205;-16.093;-35.800;20.489;-3.874;-1.751;8.792
3028108.280;-7.898;-1.565;-2.570;-18.701;29.802;-7.264;-5.327;5.178
3028108.288;-11.027;-4.172;-9.798;-22.277;19.483;-5.439;-3.353;8.084
3028108.300;-18.850;-18.217;-18.403;-29.542;2.310;-2.198;0.969;10.133
3028108.308;-27.940;-24.550;-31.255;-32.559;-14.976;-3.204;2.570;9.462
3028108.316;-38.259;-41.425;-41.686;-42.394;-23.134;-7.488;-0.745;4.619
3028108.324;-48.392;-53.048;-52.080;-49.174;-33.453;-9.723;-2.831;-0.782
3028108.332;-48.429;-47.460;-52.750;-49.360;-34.384;-9.686;-2.123;0.671
3028108.340;-53.719;-52.117;-57.593;-49.472;-46.492;-10.170;-1.378;1.751
3028108.348;-57.220;-49.435;-61.505;-45.188;-41.053;-12.405;-3.725;-0.410
3028108.356;-59.903;-52.229;-63.479;-47.721;-41.127;-10.431;-2.645;0.782
3028108.364;-60.946;-57.518;-66.385;-44.443;-40.308;-12.368;-4.619;0.075
3028108.372;-60.461;-53.756;-63.069;-49.286;-40.010;-14.491;-8.158;-1.229
3028108.380;-58.748;-53.793;-59.716;-53.905;-40.978;-8.494;-4.247;3.278
3028108.388;-56.662;-58.934;-58.971;-46.529;-38.408;-3.912;-1.118;7.004
3028108.396;-61.207;-61.579;-62.212;-50.068;-51.744;-9.425;-6.743;0.931
3028108.404;-64.746;-63.516;-67.875;-53.011;-43.772;-15.162;-10.654;-6.333
3028108.412;-66.124;-63.330;-67.241;-49.211;-34.235;-17.434;-12.070;-9.462
3028108.420;-68.285;-59.865;-69.700;-52.601;-38.370;-17.509;-10.580;-9.723
3028108.428;-64.373;-60.908;-68.769;-53.570;-43.325;-11.660;-4.582;0.112
3028108.436;-62.399;-69.328;-64.597;-57.518;-42.692;-7.078;1.863;6.817
3028108.444;-63.591;-61.914;-67.316;-48.503;-40.568;-14.901;-4.582;0.484
3028108.452;-57.928;-53.383;-62.697;-46.417;-40.233;-18.999;-9.499;-3.576
3028108.460;-59.269;-62.808;-60.387;-56.922;-41.872;-13.895;-4.321;-0.969
3028108.468;-58.040;-50.925;-60.871;-53.160;-38.482;-8.605;-0.298;2.608
3028108.476;-54.352;-51.521;-53.085;-44.331;-22.836;-4.321;2.943;6.109
3028108.484;-59.120;-57.667;-55.917;-32.447;-32.894;-5.811;-0.633;5.849
3028108.509;-62.585;-59.977;-64.149;-42.692;-42.394;-7.376;-5.588;6.445
3028108.517;-61.505;-52.899;-63.181;-43.064;-26.934;-5.662;-6.929;8.456
3028108.525;-70.482;-64.708;-69.141;-56.513;-40.084;-5.588;-6.743;7.749
3028108.533;-52.415;-51.595;-50.813;-46.156;-33.416;-12.591;-10.505;-1.676
3028108.541;-37.402;-38.110;-37.290;-30.100;-27.791;-12.442;-10.915;-1.751
3028108.549;-18.887;-19.893;-16.205;-12.591;-9.872;-7.860;-9.350;4.172
3028108.557;1.453;2.384;5.290;1.639;9.462;0.484;-3.204;11.995
3028108.565;9.723;7.264;8.680;7.115;16.205;7.190;4.135;19.372
3028108.573;10.282;5.476;9.723;7.600;15.236;6.035;5.029;17.993
3028108.581;4.917;5.737;7.562;-1.006;5.849;5.476;6.817;12.033
3028108.589;1.527;1.751;1.751;-1.416;6.333;7.339;10.356;11.101
3028108.597;0.559;-2.719;5.402;-0.782;13.597;12.666;14.268;17.919
3028108.605;-3.949;-0.857;3.316;3.278;14.603;9.947;8.270;17.397
3028108.613;-11.995;-1.751;-8.158;-2.123;13.188;1.490;-0.931;11.660
3028108.621;-11.958;-7.302;-10.915;-8.307;8.829;1.118;-2.608;9.499
3028108.629;-5.327;-1.304;-2.570;-0.373;4.396;6.668;2.645;11.511
3028108.637;-3.427;-1.043;-6.035;16.391;-5.364;13.486;7.302;16.019
3028108.645;3.688;8.084;3.837;16.652;2.533;15.795;7.935;17.509
3028108.653;0.820;10.431;7.525;9.649;20.340;11.511;4.582;11.437
3028108.661;-4.359;-1.863;0.447;-7.674;10.543;9.723;2.608;7.935
3028108.669;-5.625;-3.278;-5.998;-3.465;3.278;7.376;1.453;5.923
3028108.677;-1.155;-0.708;-3.614;9.760;16.652;6.035;2.943;5.178
3028108.685;2.384;-1.937;-3.763;11.213;-0.782;8.419;6.147;8.605
3028108.693;7.041;9.723;8.643;15.832;2.347;11.362;6.892;13.188
3028108.691;7.339;13.746;11.735;12.293;25.891;12.107;4.843;16.838
3028108.699;8.084;10.505;5.476;8.419;20.079;16.615;6.333;20.973
3028108.707;1.043;1.304;-1.304;3.241;12.890;16.913;3.465;17.211
3028108.715;-4.880;-6.333;-1.825;-4.694;3.763;11.213;-2.608;8.456
3028108.723;-2.608;-5.774;1.080;3.725;2.645;2.682;-6.594;-0.745
3028108.731;4.098;7.376;8.009;2.086;19.111;0.745;-5.215;-2.012
3028108.739;6.035;12.554;8.121;7.823;26.114;2.533;-2.384;1.118
3028108.747;1.416;5.364;4.396;9.239;11.548;1.378;-3.576;-0.224
3028108.755;10.617;10.580;11.772;13.895;12.666;3.465;-1.527;3.465
3028108.763;18.142;14.193;25.593;17.285;32.447;3.353;0.447;2.682
3028108.771;17.583;9.052;26.301;8.121;34.086;3.278;3.539;1.378
3028108.779;12.182;13.150;15.050;2.794;19.819;5.700;6.109;3.800
3028108.787;12.852;21.495;16.540;2.421;23.767;8.792;9.052;9.201
3028108.795;17.844;19.819;22.016;14.380;29.989;13.299;12.591;17.509
3028108.803;14.715;8.680;14.938;12.256;19.297;12.629;10.096;17.025
3028108.811;8.941;3.725;12.927;13.001;18.105;4.023;1.527;7.190
3028108.819;13.262;16.876;18.030;11.586;33.788;4.359;3.986;5.662
3028108.827;13.672;13.784;23.097;4.284;28.834;3.651;6.072;2.906
3028108.835;15.646;14.119;21.495;6.482;30.696;3.912;8.456;2.570
3028108.843;15.572;14.082;15.236;17.323;24.289;-1.080;4.396;-2.310
3028108.851;12.442;8.605;13.746;15.646;20.638;-3.837;1.863;-3.949
3028108.859;16.429;12.964;20.787;8.978;32.447;-0.484;5.215;2.421
3028108.867;14.640;17.658;22.277;14.342;29.206;-5.290;-0.447;-0.522
3028108.875;7.749;9.649;10.803;2.123;18.999;-15.795;-10.058;-8.419
3028108.870;4.992;6.333;6.035;11.623;6.855;-21.905;-15.721;-11.995
3028108.878;5.104;2.608;8.568;-2.496;15.981;-21.085;-15.087;-10.170
3028108.886;6.445;2.272;13.635;-2.570;32.559;-16.764;-10.878;-4.992
3028108.894;4.470;0.410;11.921;-3.204;22.650;-17.211;-10.990;-6.519
3028108.902;8.270;13.113;7.935;6.668;10.356;-17.174;-9.052;-7.302
3028108.910;8.345;10.841;7.413;17.025;9.127;-19.707;-10.170;-10.468
3028108.918;4.992;2.645;12.219;-2.943;10.990;-25.108;-14.044;-17.248
3028108.926;3.912;5.700;9.760;-2.310;15.274;-26.524;-15.013;-17.621
3028108.934;5.290;0.633;11.623;0.447;14.268;-26.561;-15.646;-16.540
3028108.942;7.749;8.158;17.956;5.662;31.032;-29.579;-20.564;-18.291
3028108.950;8.419;12.778;15.460;-1.341;28.498;-26.822;-20.377;-14.752
3028108.958;9.723;6.445;15.348;2.459;18.179;-23.581;-18.403;-11.958
3028108.966;13.299;13.597;23.432;9.686;28.871;-20.154;-14.864;-7.637
3028108.974;6.817;7.264;17.583;-0.671;24.438;-24.959;-18.850;-13.970
3028108.982;6.147;3.837;16.019;0.782;13.150;-24.997;-19.893;-12.405
3028108.990;12.852;13.970;22.948;10.096;28.834;-14.529;-9.499;-1.825
3028108.998;8.196;6.706;11.809;3.278;26.450;-14.529;-7.749;-1.602
3028109.006;4.284;3.800;7.823;-2.831;20.377;-17.546;-9.723;-5.849
3028109.014;13.709;15.534;27.008;-2.347;31.218;-14.976;-7.637;-5.551
3028109.022;20.489;23.544;33.341;12.480;35.577;-17.658;-10.021;-8.643
3028109.030;18.179;17.993;24.997;15.423;26.561;-20.824;-13.486;-11.586
3028109.038;14.491;9.090;20.824;-1.080;21.644;-20.973;-14.044;-11.846
3028109.046;8.009;6.184;15.497;-6.370;18.589;-18.813;-12.219;-8.605
3028109.054;7.600;11.660;15.832;-3.353;24.736;-16.838;-10.170;-6.445
3028109.065;13.709;16.354;21.271;3.651;32.075;-11.809;-6.296;-0.633
3028109.073;13.299;14.603;18.924;4.955;22.389;-10.803;-5.886;-2.868
3028109.081;13.709;13.076;21.346;9.239;26.152;-11.027;-6.855;-4.247
3028109.089;11.735;16.317;17.323;5.178;26.226;-9.760;-5.774;-2.496
3028109.097;8.121;14.901;18.477;-0.745;26.487;-9.164;-3.800;-4.321
3028109.105;8.456;7.153;18.105;6.668;24.475;-8.158;-4.843;-2.608
3028109.113;8.494;5.104;16.429;1.453;21.160;-9.052;-7.674;-3.688
3028109.121;9.649;14.231;15.721;-2.272;21.793;-11.437;-11.213;-5.253
3028109.129;17.323;19.670;22.464;9.164;26.412;-11.288;-12.405;-2.868
3028109.137;18.552;21.309;23.395;8.717;29.877;-9.984;-12.293;-0.447
3028109.145;19.334;18.701;28.424;14.156;44.592;-9.649;-12.405;1.714
3028109.153;21.346;20.564;32.336;20.601;36.657;-8.680;-9.686;1.490
3028109.161;20.936;22.650;27.679;12.070;33.192;-3.092;-3.837;2.608
3028109.169;19.446;17.248;20.228;0.261;28.089;2.496;1.751;5.774
3028109.177;19.372;23.581;23.060;10.096;29.765;-1.863;-3.092;2.235
3028109.185;22.762;24.550;29.691;18.589;39.898;-3.204;-4.955;-1.006
3028109.193;20.564;13.858;27.344;10.133;39.414;-6.333;-7.413;-4.768
3028109.201;21.346;12.368;24.438;3.874;29.989;-12.480;-13.225;-7.451
3028109.209;20.862;17.993;20.824;3.912;24.140;-15.795;-15.832;-9.499
3028109.217;22.352;31.665;26.003;24.699;30.585;-13.076;-14.938;-7.115
3028109.225;18.515;22.650;21.271;15.236;19.781;-6.184;-12.033;1.155
3028109.233;11.325;9.872;15.199;-2.645;22.613;-5.811;-13.150;-0.745
3028109.241;9.164;7.190;16.503;-6.445;34.347;-3.539;-10.543;-1.527
3028109.249;9.760;4.880;12.703;2.906;34.645;-4.843;-10.394;-4.135
3028109.275;10.543;13.933;11.064;15.348;20.303;-4.880;-8.941;-7.041
3028109.283;12.219;17.993;16.727;9.350;20.042;-3.688;-7.711;-8.158
3028109.291;14.901;15.944;18.179;9.947;23.432;0.596;-5.066;-4.657
3028109.299;17.136;10.468;18.291;-0.298;31.926;7.339;-0.633;2.943
3028109.307;16.764;4.992;22.203;-7.823;31.814;8.121;-0.112;5.960
3028109.315;13.337;8.233;21.346;4.917;33.081;-0.410;-8.717;-2.831
3028109.323;13.113;17.583;14.491;14.901;29.653;-6.482;-14.864;-9.388
3028109.331;9.425;12.480;4.843;5.625;20.266;-6.519;-13.933;-9.909
3028109.339;10.245;10.654;13.039;-4.992;17.248;-2.831;-9.798;-6.035
3028109.347;14.603;14.082;20.154;0.075;27.642;1.416;-3.166;-0.224
3028109.355;13.188;10.729;17.695;6.892;28.983;0.931;-1.639;-0.447
3028109.363;22.985;21.085;25.220;18.217;30.771;5.513;5.737;3.837
3028109.371;26.189;26.524;26.934;18.664;33.677;0.894;3.763;-1.453
3028109.379;23.879;27.008;25.705;14.938;38.184;-2.235;1.416;-4.843
3028109.387;19.260;17.658;17.993;5.476;27.381;-1.006;-0.186;-0.857
3028109.395;17.807;12.070;17.472;6.482;28.685;-2.384;-4.359;-0.335
3028109.403;20.042;14.342;23.581;17.397;33.528;-7.264;-9.090;-2.310
3028109.411;21.234;25.854;26.561;6.407;37.253;-9.201;-9.760;-4.172
3028109.419;25.667;24.624;26.263;9.909;47.162;-3.986;-3.725;2.347
3028109.427;32.671;30.026;29.542;27.418;40.308;2.049;3.353;9.425
3028109.435;24.661;23.209;21.905;24.475;21.383;-4.843;-4.135;3.353
3028109.443;20.303;20.824;19.297;14.640;23.618;-5.215;-4.731;2.831
3028109.451;29.206;26.487;36.471;7.860;45.635;-0.373;1.416;6.445
3028109.459;26.301;28.387;30.436;2.682;55.693;-4.284;-0.484;3.465
3028109.469;24.252;25.705;25.816;24.922;44.852;-3.763;2.161;3.055
3028109.477;19.334;12.815;23.469;16.950;32.037;2.272;7.711;7.115
3028109.485;28.610;27.753;30.510;14.789;35.204;6.221;10.505;11.958
3028109.493;34.980;35.800;35.912;29.355;42.319;6.109;10.170;10.394
3028109.501;28.200;26.263;31.218;14.044;41.388;6.929;10.394;9.611
3028109.509;28.051;26.375;29.691;8.829;41.835;11.399;13.672;13.858
3028109.517;27.008;26.859;22.650;13.933;36.396;14.640;17.956;14.752
3028109.525;20.899;13.374;20.340;4.284;28.349;12.107;14.789;12.256
3028109.533;24.661;24.326;28.238;12.517;37.849;13.448;15.832;15.646
3028109.541;19.558;19.446;20.638;9.798;22.426;4.992;7.525;10.282
3028109.549;21.458;20.191;24.587;15.274;32.634;4.470;7.749;9.611
3028109.557;21.346;16.280;19.073;9.686;29.020;3.651;7.823;8.233
3028109.565;20.675;13.635;17.434;1.863;29.616;0.559;6.817;4.321
3028109.573;27.344;26.673;25.108;14.715;46.119;4.396;10.021;4.657
3028109.581;29.355;30.808;26.673;14.417;38.520;7.637;12.033;7.562
3028109.589;24.922;20.117;21.346;12.293;25.667;6.557;9.686;10.505
3028109.597;20.750;15.199;18.142;8.903;34.049;4.992;6.557;11.064
3028109.605;19.483;12.331;17.695;7.413;30.585;9.611;9.127;16.578
3028109.613;16.913;16.131;19.632;6.221;34.943;11.288;11.101;16.801
3028109.621;17.025;18.738;15.236;0.484;35.465;9.611;12.033;15.236
3028109.629;20.526;17.583;18.030;2.198;33.304;5.513;9.798;12.740
3028109.637;15.721;15.236;11.958;4.321;22.762;-0.149;4.247;5.439
3028109.645;18.850;16.466;18.999;2.272;22.911;1.490;7.264;6.855
3028109.653;26.263;19.744;27.455;20.601;38.259;6.966;14.640;9.537
3028109.651;27.716;23.097;26.114;15.199;30.808;9.201;18.366;8.941
3028109.659;32.037;30.063;31.292;16.056;47.460;9.462;16.242;8.456
3028109.667;29.244;23.358;30.547;17.993;48.727;5.662;9.276;5.402
3028109.675;28.908;21.756;29.989;6.780;39.153;4.619;6.892;7.078
3028109.683;24.997;24.810;21.122;13.337;28.722;5.998;5.811;9.798
3028109.691;22.985;20.340;20.079;12.293;33.230;9.388;7.935;12.666
3028109.699;22.464;21.122;23.618;9.164;39.674;13.001;12.368;14.938
3028109.707;12.070;11.325;11.586;-3.316;20.228;8.419;9.984;10.505
3028109.715;9.239;8.270;6.631;-1.229;14.976;3.800;7.376;4.955
3028109.723;9.798;9.015;8.605;2.533;16.205;2.384;6.631;1.974
3028109.731;14.752;11.250;13.895;-1.639;22.426;11.250;14.938;9.127
3028109.739;19.893;19.409;14.976;9.499;32.820;17.583;19.483;14.044
3028109.747;20.489;17.062;12.815;12.740;29.691;19.856;21.160;14.119
3028109.755;17.695;10.543;13.709;-2.235;23.991;20.340;20.787;15.534
3028109.763;15.087;13.523;17.360;-2.831;21.309;20.824;19.297;16.131
3028109.771;13.709;13.672;14.938;6.594;20.266;17.397;13.262;14.044
3028109.779;6.333;2.570;4.321;3.353;14.380;10.729;6.557;8.270
3028109.787;6.780;7.674;6.072;4.470;17.621;6.184;3.688;3.576
3028109.795;6.482;5.215;0.820;-0.708;8.531;3.614;3.278;2.012
3028109.803;12.703;16.019;3.837;-1.229;17.323;11.660;10.245;8.680
3028109.811;10.207;14.976;3.539;-2.980;22.389;12.033;9.947;7.898
3028109.819;8.754;8.494;4.992;-1.192;16.578;15.423;13.076;8.903
3028109.827;7.227;3.353;1.006;2.980;7.898;22.091;17.881;12.852
3028109.835;6.631;2.980;-1.304;4.210;7.078;23.916;14.678;14.827
3028109.830;3.204;-1.267;-3.129;0.633;10.729;21.271;9.201;11.474
3028109.838;3.465;0.931;-1.788;-8.531;11.660;15.534;3.017;4.768
3028109.846;10.207;1.714;6.966;-10.356;22.575;21.644;8.270;12.219
3028109.854;4.172;-3.316;-0.969;-22.016;9.499;17.099;3.316;7.413
3028109.862;5.104;9.052;0.298;1.825;5.811;12.219;0.186;3.166
3028109.870;9.164;15.050;6.296;14.976;11.586;17.174;6.966;7.264
3028109.878;7.004;2.868;1.267;1.453;15.721;22.687;14.715;10.803
3028109.886;12.703;11.101;6.668;0.596;22.575;32.187;25.705;18.924
3028109.894;12.256;10.394;10.580;-2.049;22.501;34.608;28.536;20.638
3028109.902;7.264;-0.261;6.743;-11.697;15.050;30.696;23.954;17.211
3028109.910;4.880;2.235;0.969;-13.225;2.570;28.536;20.489;15.907
3028109.918;9.388;7.190;4.545;-8.196;6.706;30.845;21.756;20.601
3028109.926;19.036;13.635;15.274;11.958;26.301;32.522;22.277;24.177
3028109.934;23.693;19.670;20.489;11.101;38.370;25.928;18.030;18.440
3028109.942;19.073;16.689;16.838;3.725;25.369;15.721;11.250;9.574
3028109.950;17.621;10.431;15.423;5.253;12.815;19.930;15.944;13.299
3028109.958;13.672;8.456;12.405;-4.545;17.285;22.240;18.291;14.938
3028109.966;11.921;11.288;10.170;0.447;15.795;21.234;17.062;14.156
3028109.974;10.841;0.708;5.476;-5.588;16.764;23.320;20.526;15.832
3028109.982;14.082;4.955;6.519;-5.253;19.073;29.020;26.189;21.942
3028109.990;15.870;16.019;11.660;0.559;17.360;24.773;23.991;18.999
3028109.998;18.254;17.062;16.242;15.534;21.793;16.317;16.503;13.225
3028110.006;21.905;18.701;18.887;9.090;27.493;12.740;12.256;11.586
3028110.014;26.040;22.724;27.306;5.178;31.553;12.480;11.958;13.039
3028110.025;26.636;19.148;26.189;13.821;33.639;9.909;9.425;12.033
3028110.033;23.767;18.179;18.738;11.660;25.667;12.852;11.846;11.511
3028110.041;28.126;23.432;29.504;9.127;38.370;25.332;22.650;21.346
3028110.049;24.401;14.789;20.191;2.831;31.888;33.788;30.920;28.089
3028110.057;21.793;21.495;24.028;14.827;29.616;30.324;28.014;23.656
3028110.065;27.157;26.226;28.312;12.703;32.075;22.277;21.867;16.503
3028110.073;30.212;24.885;27.902;9.462;36.359;21.197;22.911;16.093
3028110.081;31.106;22.985;29.355;5.066;39.414;21.085;24.214;16.950
3028110.089;28.163;19.893;25.146;-0.782;29.765;20.601;24.289;17.658
3028110.097;30.585;25.891;30.547;12.815;37.588;18.403;21.756;15.199
3028110.105;32.112;30.883;31.665;15.236;38.035;15.125;17.770;12.144
3028110.113;28.796;26.934;30.398;15.721;28.498;12.219;14.193;8.941
3028110.121;27.940;18.217;27.530;7.600;29.616;16.056;17.211;11.884
3028110.129;29.765;15.385;31.553;9.015;37.663;22.389;23.469;19.483
3028110.137;25.183;15.162;25.481;12.890;30.883;23.395;24.922;20.489
3028110.145;28.275;23.842;25.779;11.027;32.187;30.026;32.745;26.301
3028110.153;26.152;24.028;25.518;17.136;32.857;28.536;30.994;22.948
3028110.161;21.718;22.165;20.862;8.270;27.046;21.048;22.687;14.789
3028110.169;29.430;22.314;26.934;8.605;32.447;23.022;26.114;19.372
3028110.177;22.203;12.293;16.764;2.272;22.911;16.913;19.744;13.635
3028110.185;18.403;7.376;12.591;-5.439;18.775;14.380;16.429;10.878
3028110.193;24.140;22.091;20.042;13.486;20.750;13.635;16.615;11.176
3028110.201;31.106;27.865;27.195;22.836;34.235;17.770;20.936;15.907
3028110.209;27.344;21.495;24.475;14.231;27.493;23.320;25.667;19.558
3028110.248;23.246;16.354;18.626;7.041;18.068;30.473;32.075;23.544
3028110.256;23.842;13.858;17.062;4.806;23.581;33.081;34.384;24.475
3028110.264;26.599;24.736;17.583;20.936;22.352;31.926;32.447;21.458
3028110.272;31.143;32.000;22.948;24.885;25.332;30.622;30.957;21.234
3028110.280;33.006;27.195;28.387;11.176;31.441;32.037;33.490;24.624
3028110.288;25.667;19.073;24.699;6.333;27.455;24.587;28.610;17.844
3028110.296;23.022;10.654;22.091;9.499;32.224;15.497;20.117;11.101
3028110.304;14.082;1.639;10.058;-7.302;15.832;11.213;11.958;8.792
3028110.312;8.531;5.141;3.390;-11.213;8.605;14.417;10.803;12.107
3028110.320;11.846;13.113;5.662;3.465;17.174;22.240;16.540;18.924
3028110.328;10.766;14.231;8.047;3.465;10.803;27.455;20.750;22.575
3028110.336;10.058;4.880;7.860;-4.396;8.084;30.659;25.220;25.108
3028110.344;14.491;4.321;9.537;-2.794;12.852;33.490;30.398;25.220
3028110.352;15.572;9.201;8.009;-6.296;13.784;30.585;28.946;19.670
3028110.360;20.936;18.477;19.819;14.901;22.016;27.716;26.003;14.678
3028110.368;21.048;21.607;17.844;26.338;25.667;22.091;22.389;8.419
3028110.376;25.183;25.183;23.060;20.750;29.504;24.252;25.742;11.958
3028110.384;23.618;21.718;20.117;9.984;20.713;26.114;25.406;17.397
3028110.392;18.850;9.760;13.448;-8.345;11.437;25.146;20.415;20.638
3028110.400;15.311;11.027;11.846;-1.192;13.858;22.985;15.423;19.856
3028110.408;11.921;11.213;7.972;6.184;18.887;22.836;14.268;17.658
3028110.416;14.007;7.376;13.895;4.768;26.748;22.426;13.076;15.758
3028110.424;17.136;13.076;19.483;6.892;30.808;24.810;15.236;15.907
3028110.432;18.850;13.523;20.079;10.803;19.968;29.579;20.191;19.446
3028110.415;21.346;13.076;20.936;12.852;22.091;34.422;28.387;21.942
3028110.423;13.858;12.852;12.219;-0.298;16.987;32.559;27.791;17.732
3028110.431;14.678;16.131;7.153;-5.998;15.236;36.061;29.206;21.420
3028110.439;18.030;16.131;12.666;10.990;19.185;39.190;30.100;24.028
3028110.447;17.434;11.623;15.758;11.586;24.736;33.751;23.395;18.254
3028110.455;16.950;5.625;18.366;2.012;30.138;28.983;18.850;14.193
3028110.463;21.271;18.440;18.775;5.253;23.954;33.230;22.054;16.689
3028110.471;26.263;26.077;21.793;16.578;24.587;34.124;22.314;17.285
3028110.479;27.791;24.438;18.626;10.543;17.583;29.616;18.850;15.125
3028110.487;28.796;29.095;23.805;19.073;28.685;23.730;13.299;12.815
3028110.495;28.908;24.922;30.808;18.887;39.116;22.091;12.591;13.635
3028110.503;26.934;20.266;30.622;11.288;37.141;22.352;12.182;14.603
3028110.511;32.149;24.438;33.267;10.543;38.035;25.928;15.572;18.105
3028110.519;41.723;34.645;42.319;13.001;41.276;33.714;25.406;22.426
3028110.527;49.509;50.403;49.248;24.922;40.531;38.855;32.894;24.103
3028110.535;61.542;61.356;60.238;50.031;48.503;40.382;36.173;26.412
3028110.543;69.365;75.214;71.414;58.524;65.826;39.190;35.837;25.183
3028110.551;72.010;78.082;72.233;52.638;63.293;39.227;35.129;25.369
3028110.559;89.519;95.218;90.860;88.401;75.474;40.792;36.955;27.791
3028110.567;93.207;104.941;100.248;96.783;82.850;36.247;32.745;25.630
3028110.575;93.132;102.855;95.144;88.066;85.793;26.338;24.326;17.658
3028110.583;91.530;104.532;94.324;84.303;80.280;26.114;24.475;18.328
3028110.591;95.889;110.902;95.665;96.038;76.927;27.120;25.891;21.420
3028110.599;92.126;110.306;87.395;91.642;66.571;30.808;29.244;25.071
3028110.610;81.323;99.204;75.586;80.913;60.759;30.287;27.753;24.773
3028110.618;70.147;77.710;69.626;60.238;54.948;30.436;27.902;25.146
3028110.626;65.267;70.892;66.683;54.277;59.903;32.522;28.946;24.922
3028110.634;65.789;68.434;63.255;65.900;62.510;39.451;35.055;31.032
3028110.642;58.562;59.046;52.601;48.243;54.874;40.717;38.743;31.367
3028110.650;39.972;46.678;34.459;26.189;36.731;22.948;23.060;16.056
3028110.658;26.934;28.573;22.575;6.929;18.440;12.405;12.815;8.903
3028110.666;19.260;19.670;18.105;-4.955;17.248;12.890;11.548;9.723
3028110.674;23.730;26.934;17.621;5.998;13.523;21.271;18.403;18.515
3028110.682;22.836;19.483;11.995;8.866;10.915;23.954;20.228;19.185
3028110.690;27.344;24.922;21.234;15.832;16.987;24.661;22.948;17.211
3028110.698;36.769;39.265;36.061;25.667;37.625;26.785;25.891;17.360
3028110.706;36.024;34.980;33.043;17.434;36.396;21.793;20.638;12.144
3028110.714;43.325;40.010;36.247;26.040;44.554;17.211;16.093;8.941
3028110.722;52.415;55.805;47.237;36.545;48.317;21.011;21.271;13.150
3028110.730;55.283;60.648;50.738;43.698;47.088;24.252;25.481;18.664
3028110.738;52.936;57.742;48.317;50.813;45.672;19.558;21.681;16.950
3028110.746;48.354;54.985;45.374;38.743;47.535;8.792;12.964;5.215
3028110.754;55.134;58.822;52.750;43.325;60.983;9.425;14.789;6.221
3028110.762;65.044;69.775;65.453;43.735;65.714;9.015;14.752;6.184
3028110.770;79.088;92.350;77.561;70.147;75.772;9.425;13.001;7.600
3028110.778;103.004;121.705;103.824;110.418;87.209;20.266;21.942;18.217
3028110.786;113.584;128.038;113.435;125.058;94.846;26.040;26.487;22.389
3028110.794;121.668;137.910;116.229;128.411;101.291;27.120;25.257;25.742
3028110.791;125.691;145.398;121.295;130.944;113.137;32.969;29.169;32.037
3028110.799;133.105;157.319;126.623;135.750;119.284;40.904;38.594;37.588
3028110.807;121.221;139.996;113.435;116.155;96.150;33.192;32.857;27.679
3028110.815;107.400;123.121;105.090;111.572;89.258;21.532;21.569;15.348
3028110.823;97.528;111.572;94.436;106.134;90.525;16.950;17.844;9.984
3028110.831;83.707;100.993;78.343;87.135;79.982;14.268;16.317;6.035
3028110.839;73.537;84.303;65.677;65.751;62.771;22.203;23.730;14.827
3028110.847;61.207;72.271;49.509;53.979;43.996;26.748;27.008;21.383
3028110.855;46.976;51.409;39.525;43.139;32.410;18.775;19.111;13.560
3028110.863;44.256;47.907;38.594;33.937;31.143;18.068;16.689;11.437
3028110.871;41.462;44.703;29.989;19.483;30.510;23.246;19.148;15.758
3028110.879;40.010;40.606;30.100;17.248;34.086;25.891;19.483;18.701
3028110.887;34.869;35.577;28.759;14.640;24.065;23.320;16.689;16.466
3028110.895;31.367;35.502;22.762;26.114;26.971;22.948;14.938;14.864
3028110.903;27.083;26.599;15.795;21.309;19.930;19.521;12.442;12.666
3028110.911;20.638;15.721;13.374;0.559;15.870;15.907;10.617;8.717
3028110.919;18.030;15.609;11.511;-10.245;14.715;17.434;14.529;10.133
3028110.927;13.746;13.486;6.594;-8.084;7.860;19.521;18.030;11.399
3028110.935;4.843;-0.224;-0.112;-13.001;3.539;20.228;17.323;9.239
3028110.943;0.149;-1.714;-8.680;-16.205;-8.978;21.234;16.131;11.772
3028110.951;-2.049;-4.992;-8.866;-17.211;-5.513;24.959;17.844;16.168
3028110.959;-0.969;-1.155;-5.737;-21.756;6.035;25.295;15.683;13.709
3028110.967;2.757;0.633;-2.757;-16.429;11.101;29.244;18.999;17.062
3028110.975;-0.037;-0.596;-7.711;-13.113;-4.694;25.555;13.821;12.182
3028110.986;-3.092;-4.247;-8.047;-13.672;-3.763;22.575;10.654;8.680
3028110.994;-4.321;-8.084;-4.359;-25.220;2.049;24.587;13.299;8.531
3028111.002;-5.029;-7.004;-8.084;-17.919;-4.135;27.455;16.689;8.419
3028111.010;-4.806;-6.743;-13.262;-16.503;-5.588;30.175;21.085;9.947
3028111.018;-4.098;-8.792;-9.760;-18.403;-1.639;33.081;25.071;13.337
3028111.026;-2.049;-6.482;-5.104;-19.968;3.166;35.837;28.424;15.348
3028111.034;1.490;-2.235;0.112;-19.260;5.290;35.092;28.163;14.119
3028111.042;5.625;4.433;2.608;-5.141;5.476;31.814;24.922;11.511
3028111.050;11.995;12.666;4.247;0.857;8.680;33.230;26.636;14.827
3028111.058;6.184;4.843;-6.296;-8.605;4.098;31.739;25.071;14.603
3028111.066;0.037;-5.625;-5.811;-25.667;-8.270;30.510;22.240;15.758
3028111.074;-5.253;-8.196;-5.290;-27.791;-4.247;28.796;19.670;13.150
3028111.082;-3.874;-2.421;-7.227;-24.065;-0.261;27.753;20.824;10.654
3028111.090;-3.129;0.708;-10.207;-10.096;-3.576;28.200;23.432;10.468
3028111.098;-3.986;-2.831;-7.153;-8.047;2.682;28.946;25.034;8.829
3028111.106;1.229;0.596;-3.278;-17.919;1.900;32.932;28.573;14.380
3028111.114;5.364;-1.192;1.341;-11.697;0.559;36.173;31.590;19.409
3028111.122;9.313;9.164;4.321;0.596;4.880;36.396;32.485;21.644
3028111.130;3.278;5.066;-6.258;-5.700;1.751;30.510;26.859;17.919
3028111.138;-0.969;-1.751;-9.723;-13.895;-2.123;28.722;25.146;17.770
3028111.146;2.943;3.390;-4.135;-9.872;5.998;32.783;28.238;22.240
3028111.154;1.751;-1.937;-1.341;-13.113;12.442;31.777;27.828;21.234
3028111.162;1.341;-1.714;-2.608;-9.611;1.080;30.249;26.710;19.409
3028111.170;-0.075;-4.359;-2.682;-17.509;2.384;32.708;28.387;20.340
3028111.195;0.559;1.267;-2.235;-18.999;17.025;38.147;34.496;24.326
3028111.203;3.800;2.384;0.782;-16.093;16.689;38.110;35.428;25.406
3028111.211;4.768;3.949;2.496;-8.903;16.205;33.416;31.814;20.787
3028111.219;3.763;-2.980;-0.112;-15.162;3.949;23.879;22.091;12.517
3028111.227;13.039;6.631;13.672;-6.407;17.062;25.369;22.836;17.211
3028111.235;11.884;11.697;6.594;-8.419;17.844;23.730;21.420;15.348
3028111.243;13.113;10.207;7.860;-1.490;15.907;23.656;23.432;16.876
3028111.251;17.956;20.377;7.749;12.256;20.638;27.493;29.430;21.160
3028111.259;14.044;18.813;9.611;4.284;20.377;21.830;24.028;15.274
3028111.267;9.872;10.431;7.823;-1.192;11.735;18.328;19.073;11.958
3028111.275;-3.017;-5.364;-9.686;-7.153;1.118;16.056;17.025;7.004
3028111.283;-0.633;-1.639;-10.766;-13.858;1.676;22.091;23.060;13.374
3028111.291;3.055;6.221;-7.637;-5.253;3.017;24.252;25.183;15.758
3028111.299;8.903;11.213;4.172;2.086;13.113;23.171;22.538;15.162
3028111.307;13.150;12.256;9.686;-0.075;22.054;21.644;22.054;13.858
3028111.315;20.899;22.054;15.870;7.823;27.455;26.822;28.163;17.732
3028111.323;18.775;14.305;11.884;2.012;17.919;25.406;26.561;16.913
3028111.331;6.743;4.657;-0.261;-2.943;0.596;12.740;12.517;4.880
3028111.339;5.588;8.009;-8.233;-1.825;7.711;10.319;8.494;4.619
3028111.347;2.086;0.373;-10.207;-11.399;6.184;12.554;8.866;7.749
3028111.355;4.843;7.711;-3.204;-3.576;7.637;18.142;15.199;11.995
3028111.363;9.723;11.027;-2.608;4.098;5.066;21.160;20.936;14.529
3028111.371;14.752;19.222;4.470;7.339;15.087;25.071;26.822;15.348
3028111.379;15.125;16.876;3.725;3.576;10.617;31.926;34.831;19.036
3028111.375;13.560;13.299;3.465;7.004;12.517;33.975;38.184;20.713
3028111.383;10.431;5.066;4.843;-1.788;14.082;28.200;31.888;13.672
3028111.391;17.881;22.836;11.250;11.511;16.876;27.716;30.212;13.858
3028111.399;25.071;29.020;16.429;10.245;35.465;37.961;39.414;25.555
3028111.407;20.750;22.314;11.213;5.700;24.103;34.645;34.533;22.911
3028111.415;12.368;7.190;4.657;-0.261;14.715;24.289;23.954;13.486
3028111.423;7.786;2.198;1.751;-8.307;4.880;21.495;21.234;11.474
3028111.431;10.766;13.262;2.868;1.639;17.621;26.152;25.146;15.795
3028111.439;6.184;10.431;-1.006;1.267;12.703;26.189;24.177;13.895
3028111.447;3.241;1.267;-1.006;-10.468;5.290;30.808;27.753;16.727
3028111.455;-5.066;-16.280;-9.388;-28.126;7.451;31.479;28.461;16.317
3028111.463;-7.115;-16.131;-11.772;-23.544;-5.849;32.075;30.696;16.317
3028111.471;-2.384;-2.086;-3.725;-16.540;2.757;26.636;26.524;12.927
3028111.479;0.596;-1.192;-2.384;-7.786;13.560;19.297;18.179;7.302
3028111.487;-0.969;-1.714;-3.017;-18.664;9.499;13.895;11.399;3.204
3028111.495;4.508;0.745;-0.261;-9.649;2.794;17.025;13.448;9.760
3028111.503;2.272;-1.229;-1.416;3.539;2.310;17.658;12.219;11.213
3028111.511;-4.843;-4.917;-6.668;-22.985;3.576;18.999;12.033;11.511
3028111.519;-4.210;-9.574;-2.757;-25.965;9.872;22.128;14.491;11.884
3028111.527;-5.066;-7.860;-4.470;-19.372;4.172;20.750;15.050;8.978
3028111.535;-13.970;-18.291;-18.254;-22.799;-9.239;18.403;13.560;5.290
3028111.543;-12.182;-15.125;-15.683;-18.924;-6.668;18.515;14.082;3.353
3028111.551;-1.974;-6.929;-2.198;-22.501;9.164;22.650;17.695;7.898
3028111.559;1.825;-9.090;3.725;-19.521;11.064;22.203;16.317;7.339
3028111.571;-1.341;-5.029;-4.023;-18.775;-6.966;18.217;10.841;1.676
3028111.579;-1.080;1.527;-5.402;-8.307;6.258;23.209;13.486;4.917
3028111.587;3.166;-1.118;7.823;-6.072;21.942;31.143;19.968;11.660
3028111.595;-1.118;-8.121;2.459;-23.358;5.737;29.281;18.291;11.288
3028111.603;-0.969;-0.894;-5.178;-13.076;-9.872;28.126;19.372;9.537
3028111.611;2.868;3.465;-0.335;2.161;-1.863;26.971;19.707;7.637
3028111.619;2.570;-2.794;3.986;-3.427;14.827;25.555;19.670;6.817
3028111.627;1.676;1.416;0.037;-11.399;13.709;22.240;17.397;3.949
3028111.635;-2.645;-5.327;-2.012;-18.999;2.868;13.821;10.990;-4.396
3028111.643;-3.166;-0.522;-7.749;-7.562;-3.316;13.150;12.890;-5.960
3028111.651;2.421;3.204;-1.751;5.141;-4.619;14.901;14.529;-2.831
3028111.659;5.253;3.763;4.172;-6.817;11.250;14.082;12.852;-1.565
3028111.667;7.227;11.101;3.949;-8.084;16.652;15.944;14.640;1.006
3028111.675;11.474;10.356;6.519;3.204;9.947;20.526;18.328;6.706
3028111.683;18.291;12.852;17.360;11.288;17.658;25.444;23.656;11.548
3028111.691;16.131;17.285;17.583;7.562;11.213;17.546;17.546;5.290
3028111.699;15.795;17.211;17.695;6.147;17.472;19.632;19.521;10.021
3028111.707;5.104;3.055;0.186;-3.949;9.090;9.835;10.096;3.316
3028111.715;-3.614;-10.096;-8.605;-14.827;4.619;-3.949;-2.868;-10.021
3028111.723;-0.894;-3.912;-2.012;-16.913;3.390;-0.820;1.565;-8.196
3028111.731;-2.943;-5.253;-3.390;-19.483;0.447;-4.098;-1.602;-12.666
3028111.739;3.092;5.849;-0.112;-2.980;0.708;1.602;6.221;-6.706
3028111.747;5.066;2.049;1.155;1.043;6.594;6.817;11.846;-1.155
3028111.755;-0.112;-2.235;-2.831;-9.425;6.109;0.224;3.017;-7.004
3028111.751;1.043;0.596;3.688;-8.643;9.276;-0.410;2.831;-6.109
3028111.759;-3.129;-1.714;-0.708;-12.368;6.407;0.969;4.694;-5.625
3028111.767;-1.527;-4.359;-3.092;-17.732;-0.596;9.350;11.474;2.831
3028111.775;0.522;-0.969;-1.416;-10.245;-2.086;8.047;11.064;1.080
3028111.783;0.969;-6.668;-5.290;-5.290;-2.570;5.066;9.350;-1.937
3028111.791;-5.215;-11.660;-5.662;-15.609;-5.662;3.725;8.345;-3.427
3028111.799;-7.860;-4.284;-7.451;-16.503;-4.731;-3.166;2.347;-10.841
3028111.807;4.768;5.737;7.637;-7.004;14.827;4.582;10.356;-2.608
3028111.815;13.672;13.411;13.262;1.416;22.836;12.219;17.211;3.800
3028111.823;12.666;9.090;6.482;1.788;16.391;10.021;14.156;2.608
3028111.831;3.725;2.943;-0.484;-4.582;1.527;4.619;7.488;-2.049
3028111.839;-0.671;1.416;-5.327;-10.617;-10.990;7.302;10.468;1.490
3028111.847;-0.484;-2.123;-3.502;-8.754;-2.235;10.617;15.534;4.806
3028111.855;-1.974;-3.129;2.943;-5.253;12.405;8.792;15.013;0.633
3028111.863;0.149;-3.465;1.267;-3.837;10.692;12.778;17.583;4.061
3028111.871;-1.267;0.969;-4.545;-3.725;0.112;15.497;19.073;7.898
3028111.879;-15.870;-9.425;-16.727;-20.638;-18.515;5.215;8.829;-0.037
3028111.887;-11.809;-5.141;-10.654;-13.188;-3.353;5.737;10.356;2.086
3028111.895;-1.788;-2.496;-0.373;-3.763;2.645;8.754;15.050;4.657
3028111.903;2.310;-1.304;-1.341;-3.800;-1.229;8.643;14.491;4.768
3028111.911;0.112;-2.831;-5.029;-7.376;-1.937;4.172;9.350;-2.310
3028111.919;7.190;5.290;7.600;-1.639;12.591;6.594;10.617;0.224
3028111.927;14.268;16.131;14.864;10.207;31.665;10.915;14.231;5.439
3028111.935;14.976;16.131;20.377;16.317;26.226;11.250;15.311;3.874
3028111.945;12.703;11.027;12.703;9.462;17.397;5.700;10.878;-2.459
3028111.953;6.855;1.825;3.837;-10.729;9.388;3.763;9.649;-3.614
3028111.961;6.929;7.413;6.072;-8.717;6.258;7.451;12.778;0.261
3028111.969;16.131;19.670;11.958;18.999;15.683;20.824;24.401;13.225
3028111.977;9.164;7.302;9.872;9.574;13.895;19.595;22.203;12.666
3028111.985;-3.502;-1.006;-8.084;-7.264;-2.161;11.250;14.193;4.433
3028111.993;-6.147;-8.196;-7.711;-17.993;-8.158;7.488;9.760;1.863
3028112.001;-3.874;-6.445;-2.831;-17.397;-1.639;5.737;6.557;0.782
3028112.009;2.682;8.903;1.639;11.027;15.497;10.654;11.250;4.992
3028112.017;0.112;4.172;1.453;1.937;8.568;13.076;12.778;6.296
3028112.025;1.229;-3.055;2.533;-4.843;7.115;16.801;15.944;10.058
3028112.033;-0.261;-4.433;-3.688;-8.643;10.468;15.795;15.497;8.866
3028112.041;0.820;1.825;4.731;-7.115;11.325;13.337;15.348;3.166
3028112.049;9.835;11.064;11.921;-1.863;16.131;15.572;18.850;3.278
3028112.057;14.976;14.752;18.701;13.970;14.603;13.448;17.732;-1.043
3028112.065;16.801;20.489;18.626;16.540;25.108;8.605;13.523;-7.190
3028112.073;12.740;13.001;10.431;6.296;19.744;9.425;11.697;-3.651
3028112.081;7.376;6.780;3.614;-1.639;14.566;13.784;12.890;4.694
3028112.089;3.763;9.313;1.602;3.763;9.835;16.764;13.709;8.792
3028112.097;3.986;6.072;4.061;4.284;3.017;21.569;17.770;11.884
3028112.105;1.974;2.123;5.104;-0.261;9.052;20.415;16.503;11.586
3028112.113;3.316;-2.123;6.706;0.969;15.311;16.876;14.864;7.488
3028112.121;8.605;1.863;7.264;-4.470;5.066;16.913;15.236;7.190
3028112.129;9.611;17.323;12.405;0.969;19.260;14.417;12.778;3.390
3028112.145;5.215;11.027;7.153;8.829;16.354;15.199;13.746;3.502
3028112.153;1.229;7.376;-2.049;4.619;-10.431;18.440;17.919;5.066
3028112.161;8.419;17.807;4.508;13.486;-1.267;12.629;10.319;-2.980
3028112.169;-3.055;-5.737;-4.023;-12.964;6.557;12.070;6.631;-2.161
3028112.177;-20.415;-24.103;-22.426;-38.259;-5.253;11.995;1.974;-0.969
3028112.185;-30.547;-37.588;-34.012;-49.397;-17.248;13.225;0.224;1.974
3028112.193;-35.353;-37.923;-44.107;-50.440;-29.542;18.626;5.849;8.456
3028112.201;-38.147;-43.847;-49.584;-54.464;-41.910;19.930;8.307;8.382
3028112.209;-44.629;-57.444;-52.638;-66.087;-48.093;7.078;-3.055;-2.831
3028112.217;-42.617;-53.681;-50.440;-50.962;-39.972;0.261;-8.345;-6.855
3028112.225;-37.625;-41.313;-44.182;-41.910;-32.187;-1.453;-8.866;-11.139
3028112.233;-31.367;-35.241;-36.322;-47.721;-12.703;5.923;-1.341;-3.949
3028112.241;-32.112;-39.190;-36.992;-45.486;-20.079;9.015;1.751;-1.453
3028112.249;-32.783;-46.268;-36.061;-39.600;-30.808;4.359;-1.676;-6.668
3028112.257;-33.490;-39.190;-36.173;-48.205;-25.034;0.745;-4.396;-10.133
3028112.265;-40.047;-42.431;-44.592;-52.378;-27.977;-5.476;-10.729;-15.981
3028112.273;-41.761;-43.288;-47.795;-49.360;-36.284;-6.966;-11.921;-14.491
3028112.281;-38.892;-40.829;-50.329;-52.266;-41.351;-0.820;-3.837;-6.594
3028112.289;-40.494;-46.305;-43.251;-41.910;-33.192;-3.316;-2.608;-9.052
3028112.297;-43.027;-52.638;-45.560;-42.170;-21.979;-8.643;-5.774;-12.182
3028112.305;-41.798;-44.145;-49.248;-42.580;-41.686;-8.605;-4.508;-13.113
3028112.313;-26.599;-29.504;-36.247;-38.110;-24.885;0.224;3.353;-5.886
3028112.321;-24.214;-30.212;-32.894;-37.737;-13.411;0.671;1.863;-5.700
3028112.329;-21.011;-24.177;-27.753;-24.922;-9.760;3.241;3.614;-2.943
3028112.335;-21.383;-28.759;-27.381;-32.336;-8.941;6.817;6.370;1.192
3028112.343;-25.928;-38.408;-27.195;-34.645;-14.938;3.576;5.588;-3.874
3028112.351;-20.899;-25.146;-23.320;-29.355;-13.001;7.637;11.325;-1.155
3028112.359;-26.859;-31.069;-29.877;-30.734;-16.578;7.078;8.829;-0.075
3028112.367;-41.611;-45.337;-46.454;-42.394;-34.794;-1.304;-0.149;-4.359
3028112.375;-45.300;-50.850;-49.807;-50.589;-40.494;-0.745;-0.261;-1.565
3028112.383;-45.970;-51.036;-48.876;-51.148;-31.590;3.465;1.751;3.837
3028112.391;-45.970;-52.713;-54.054;-59.903;-35.092;5.513;3.576;6.370
3028112.399;-43.102;-50.589;-47.535;-58.375;-31.851;7.339;7.600;5.700
3028112.407;-36.284;-47.050;-40.419;-46.790;-21.793;10.654;14.156;6.519
3028112.415;-37.141;-45.374;-41.761;-34.273;-32.373;3.055;9.462;-1.043
3028112.423;-41.537;-49.397;-46.194;-43.660;-30.398;-5.625;-1.602;-8.196
3028112.431;-42.506;-50.142;-41.276;-56.252;-30.883;1.974;4.172;-0.410
3028112.439;-38.072;-43.809;-39.563;-51.036;-29.467;-2.384;1.974;-4.098
3028112.447;-33.155;-35.949;-40.755;-41.947;-23.954;-7.078;-0.782;-11.362
3028112.455;-34.980;-44.629;-40.531;-56.624;-24.959;-9.127;-3.017;-14.603
3028112.463;-38.184;-52.750;-37.402;-61.095;-25.332;-8.009;-5.215;-12.219
3028112.471;-43.437;-53.495;-48.317;-54.240;-38.221;-6.855;-6.184;-7.227
3028112.479;-49.882;-62.510;-61.616;-65.304;-45.374;-6.147;-7.115;-4.880
3028112.487;-45.113;-57.407;-49.733;-60.312;-38.855;-1.304;-1.788;-1.229
3028112.495;-39.786;-42.431;-42.990;-45.933;-28.461;0.745;1.974;0.559
3028112.503;-33.528;-44.219;-38.706;-47.311;-10.915;6.706;10.505;5.141
3028112.511;-30.026;-46.268;-36.582;-43.362;-28.089;16.168;19.521;13.560
3028112.519;-34.235;-40.419;-37.178;-37.812;-23.618;8.754;12.144;3.949
3028112.531;-36.396;-43.623;-40.904;-42.021;-23.246;2.645;7.376;-2.570
3028112.539;-34.422;-42.953;-39.861;-42.394;-26.636;0.708;5.104;-3.278
3028112.547;-43.809;-49.286;-46.976;-50.291;-25.444;-8.903;-4.210;-14.789
3028112.555;-49.248;-55.581;-55.023;-55.768;-42.096;-12.368;-6.855;-17.434
3028112.563;-51.297;-65.267;-52.787;-63.740;-44.890;-16.205;-11.511;-16.950
3028112.571;-52.340;-62.026;-52.191;-70.706;-31.218;-17.434;-13.970;-15.423
3028112.579;-49.546;-59.158;-51.968;-59.083;-39.116;-8.419;-6.445;-4.768
3028112.587;-48.690;-61.318;-52.489;-57.556;-34.682;-2.570;-1.155;-0.149
3028112.595;-43.176;-44.778;-47.237;-46.343;-24.214;-1.490;0.969;0.894
3028112.603;-44.219;-45.113;-49.509;-46.864;-27.381;-10.505;-5.215;-8.307
3028112.611;-44.405;-52.042;-50.329;-51.260;-33.528;-14.603;-7.376;-13.672
3028112.619;-38.259;-55.730;-44.443;-52.042;-29.057;-11.511;-3.912;-10.729
3028112.627;-36.731;-49.435;-32.261;-52.489;-21.160;-9.425;-2.980;-9.947
3028112.635;-31.367;-40.196;-31.032;-38.892;-16.466;-4.433;0.186;-4.433
3028112.643;-28.834;-31.926;-37.588;-33.975;-19.409;-0.037;4.731;-2.757
3028112.651;-35.241;-33.416;-44.927;-38.296;-37.402;-2.086;2.235;-8.047
3028112.659;-43.884;-54.203;-45.784;-50.366;-39.153;0.969;4.731;-4.247
3028112.667;-40.531;-49.807;-40.159;-49.546;-19.893;-2.570;-1.080;-6.706
3028112.675;-40.531;-38.967;-45.449;-47.050;-23.358;-7.376;-8.047;-8.382
3028112.683;-40.308;-45.262;-49.509;-49.882;-30.585;-5.662;-7.078;-4.731
3028112.691;-44.033;-47.684;-47.982;-54.464;-39.078;-9.127;-10.766;-7.041
3028112.699;-43.884;-51.707;-47.199;-56.289;-36.620;-7.898;-9.127;-6.258
3028112.707;-40.010;-57.034;-42.543;-58.264;-35.726;-5.104;-6.817;-3.539
3028112.715;-33.714;-47.982;-34.384;-56.773;-30.994;-6.557;-6.780;-5.886
3028112.711;-36.731;-40.196;-39.414;-46.231;-23.916;-15.013;-13.113;-15.199
3028112.719;-41.611;-48.093;-43.921;-46.790;-22.426;-13.895;-12.144;-16.317
3028112.727;-40.904;-48.280;-44.294;-54.650;-32.894;-8.903;-7.600;-12.666
3028112.735;-41.239;-42.543;-43.064;-47.386;-29.840;-9.872;-8.941;-15.423
3028112.743;-40.233;-51.633;-40.196;-51.297;-23.544;-9.425;-10.058;-12.554
3028112.751;-45.635;-50.887;-48.801;-61.840;-37.923;-6.296;-9.909;-5.886
3028112.759;-52.154;-51.856;-52.340;-58.599;-42.059;-8.345;-14.156;-7.413
3028112.767;-55.991;-58.673;-59.679;-61.132;-47.386;-8.643;-14.305;-10.356
3028112.775;-54.464;-54.948;-56.475;-54.277;-46.529;-3.502;-7.115;-8.158
3028112.783;-48.913;-51.595;-49.323;-52.564;-27.455;-3.166;-3.651;-8.680
3028112.791;-51.968;-59.567;-51.372;-58.264;-30.436;-4.210;-4.098;-9.164
3028112.799;-57.630;-63.777;-58.599;-69.067;-48.205;-7.674;-9.313;-12.144
3028112.807;-49.025;-57.928;-47.013;-65.006;-36.210;-0.484;-3.763;-6.407
3028112.815;-45.635;-50.850;-49.286;-48.280;-35.390;1.825;-3.427;-5.998
3028112.823;-44.741;-44.852;-52.564;-44.033;-32.634;-0.708;-5.178;-12.182
3028112.831;-37.104;-40.568;-40.121;-36.396;-23.358;8.531;5.104;-6.780
3028112.839;-41.164;-47.535;-41.984;-49.397;-32.932;2.608;-1.565;-12.666
3028112.847;-51.185;-59.828;-55.768;-70.110;-41.723;-4.619;-9.239;-18.217
3028112.855;-47.982;-52.229;-55.730;-51.744;-50.291;1.639;-4.210;-11.362
3028112.863;-41.761;-49.509;-44.256;-42.468;-38.110;6.072;-0.596;-4.061
3028112.871;-44.368;-51.484;-43.400;-51.633;-21.495;3.166;-2.682;-5.215
3028112.879;-47.348;-50.887;-47.050;-51.893;-25.295;-1.900;-5.476;-9.984
3028112.887;-47.795;-51.819;-53.644;-48.503;-42.208;-5.513;-7.451;-12.927
3028112.895;-51.558;-58.226;-55.954;-52.229;-51.595;-9.350;-11.027;-16.391
3028112.905;-44.629;-50.329;-51.074;-49.919;-46.529;-6.519;-8.084;-13.150
3028112.913;-35.092;-41.015;-39.525;-43.027;-21.569;0.373;-0.149;-6.706
3028112.921;-29.504;-33.230;-40.047;-26.077;-19.781;2.645;3.390;-3.725
3028112.929;-34.943;-41.127;-43.623;-39.935;-31.553;1.453;3.278;-4.433
3028112.937;-46.752;-52.378;-46.045;-46.752;-37.476;-8.531;-7.637;-13.523
3028112.945;-45.262;-49.509;-47.535;-46.305;-25.295;-17.844;-17.993;-19.521
3028112.953;-49.695;-58.524;-55.134;-59.009;-30.473;-13.523;-13.746;-15.311
3028112.961;-43.474;-54.017;-49.584;-54.948;-27.865;-14.603;-12.666;-14.454
3028112.969;-46.231;-54.352;-55.991;-61.467;-32.634;-21.979;-17.323;-21.160
3028112.977;-52.154;-69.961;-58.785;-78.976;-35.763;-21.420;-16.615;-22.613
3028112.985;-38.818;-57.630;-52.266;-61.877;-36.396;-10.990;-6.966;-13.895
3028112.993;-38.445;-44.815;-49.435;-56.773;-37.253;-11.176;-7.153;-14.417
3028113.001;-43.139;-53.123;-46.790;-46.194;-22.799;-15.236;-12.107;-16.727
3028113.009;-51.446;-68.247;-54.874;-62.585;-20.824;-19.856;-16.391;-21.569
3028113.017;-53.458;-69.067;-60.014;-75.176;-30.287;-19.893;-13.933;-20.675
3028113.025;-50.105;-61.020;-57.742;-77.151;-36.918;-18.403;-11.809;-14.678
3028113.033;-47.758;-52.936;-56.624;-47.982;-46.343;-25.742;-17.136;-21.458
3028113.041;-44.107;-55.544;-49.248;-47.199;-29.095;-25.854;-16.317;-24.773
3028113.049;-46.529;-58.934;-52.564;-55.023;-23.469;-20.862;-10.990;-20.750
3028113.057;-47.833;-63.479;-49.025;-67.279;-16.168;-12.927;-3.166;-13.709
3028113.065;-33.043;-45.523;-35.688;-51.260;-1.304;1.863;9.649;3.278
3028113.073;-41.202;-49.025;-49.323;-38.743;-21.793;-9.239;-2.533;-7.972
3028113.081;-51.968;-59.418;-61.393;-58.748;-35.875;-23.246;-17.025;-22.203
3028113.089;-49.174;-61.952;-58.264;-59.418;-36.247;-22.911;-15.944;-19.930
3028113.100;-44.890;-56.066;-48.913;-64.746;-19.073;-20.899;-13.299;-17.770
3028113.108;-39.600;-52.191;-44.033;-56.401;-9.947;-20.005;-9.313;-17.509
3028113.116;-37.216;-49.919;-44.778;-51.819;-11.921;-17.621;-5.402;-16.429
3028113.124;-36.210;-47.721;-41.649;-44.033;-16.615;-16.317;-6.147;-12.480
3028113.132;-34.049;-43.623;-39.302;-44.331;-6.258;-11.139;-3.986;-4.880
3028113.140;-38.743;-48.466;-46.901;-50.068;-21.160;-13.597;-9.835;-8.233
3028113.148;-37.476;-46.231;-47.423;-47.609;-22.501;-13.858;-10.356;-8.382
3028113.156;-38.333;-55.879;-44.778;-61.318;-8.121;-16.242;-9.798;-9.686
3028113.164;-34.384;-52.303;-36.210;-57.928;-2.719;-16.652;-10.170;-9.015
3028113.172;-30.287;-39.935;-31.739;-38.967;-7.972;-15.907;-8.978;-10.058
3028113.180;-26.934;-35.018;-26.412;-31.702;-0.335;-14.678;-8.233;-10.170
3028113.188;-32.671;-44.256;-39.265;-51.484;-14.380;-17.732;-13.411;-13.374
3028113.196;-32.149;-41.537;-38.706;-46.864;-10.170;-18.217;-13.821;-12.740
3028113.204;-29.765;-42.394;-34.645;-40.792;3.316;-18.813;-12.927;-12.442
3028113.212;-31.628;-48.280;-35.129;-50.440;-5.141;-15.497;-8.568;-11.623
3028113.220;-34.869;-44.703;-38.967;-49.397;-17.732;-16.913;-7.451;-15.646
3028113.228;-32.075;-41.351;-38.147;-41.723;-13.374;-15.609;-5.737;-15.274
3028113.236;-35.353;-45.076;-41.425;-53.123;-11.958;-14.752;-7.823;-12.144
3028113.244;-34.533;-41.388;-42.692;-39.712;-12.927;-13.784;-11.064;-6.482
3028113.252;-32.261;-43.660;-39.376;-35.577;-20.862;-9.350;-9.276;-0.894
3028113.260;-32.894;-44.443;-35.278;-51.036;-2.645;-13.113;-12.629;-7.190
3028113.268;-29.393;-44.927;-34.943;-53.495;-1.565;-15.609;-14.342;-8.903
3028113.276;-25.257;-40.233;-27.716;-42.692;-2.235;-13.486;-11.325;-7.525
3028113.284;-23.730;-30.063;-25.220;-26.263;-5.439;-10.841;-8.233;-7.823
3028113.310;-28.387;-34.869;-29.840;-31.218;-7.786;-12.219;-8.419;-10.580
3028113.318;-25.146;-34.720;-29.132;-39.153;-0.559;-8.866;-4.582;-7.972
3028113.326;-23.879;-37.253;-31.739;-37.402;-6.258;-5.290;-3.055;-2.980
3028113.334;-23.507;-35.428;-30.324;-37.514;-8.605;-6.035;-5.290;-2.868
3028113.342;-20.936;-28.014;-24.661;-23.320;5.849;-7.674;-5.476;-4.210
3028113.350;-15.981;-21.867;-20.564;-23.060;1.229;-5.215;-1.192;0.671
3028113.358;-20.079;-29.057;-27.046;-27.269;-5.476;-13.411;-9.276;-6.929
3028113.366;-23.805;-39.265;-30.175;-40.382;-9.835;-18.962;-15.944;-11.623
3028113.374;-29.095;-46.827;-32.187;-50.291;-18.552;-19.073;-16.950;-12.890
3028113.382;-26.226;-37.067;-33.230;-31.441;-11.288;-17.695;-15.385;-12.591
3028113.390;-25.705;-32.336;-32.261;-29.281;-13.448;-17.434;-14.789;-11.995
3028113.398;-22.687;-28.089;-30.771;-33.043;-9.239;-10.878;-7.711;-7.041
3028113.406;-21.681;-27.344;-29.616;-32.224;-2.235;-7.600;-4.619;-4.731
3028113.414;-21.085;-28.983;-27.269;-22.575;-6.631;-10.952;-7.153;-7.004
3028113.422;-22.836;-34.645;-34.384;-32.000;-15.050;-13.821;-8.494;-10.207
3028113.430;-24.624;-37.439;-37.402;-31.292;-28.387;-11.623;-6.855;-8.494
3028113.438;-24.848;-31.069;-32.336;-29.467;-14.007;-8.009;-6.147;-6.147
3028113.446;-20.340;-26.487;-24.810;-33.863;-12.107;-4.731;-4.843;-3.055
3028113.454;-9.015;-12.740;-17.062;-10.170;-3.316;2.347;1.006;2.235
3028113.462;-2.235;-8.233;-14.827;-5.774;-0.298;6.445;6.184;4.694
3028113.470;-12.405;-26.859;-23.730;-35.949;-23.842;-1.378;-0.782;-1.751
3028113.478;-16.354;-25.444;-24.177;-27.940;-7.451;-5.178;-5.215;-4.917
3028113.486;-17.323;-21.011;-28.312;-10.990;-9.350;-6.445;-6.407;-5.625
3028113.494;-16.056;-24.214;-27.642;-13.970;-10.543;-2.868;-3.427;-3.539
3028113.489;-19.073;-27.344;-33.379;-29.691;-18.030;-0.037;-1.490;-4.247
3028113.497;-21.532;-27.530;-33.416;-31.553;-28.573;2.310;-1.192;-5.737
3028113.505;-17.919;-26.301;-19.148;-25.220;-0.782;1.639;0.000;-8.829
3028113.513;-13.150;-22.091;-17.211;-14.678;-0.075;-1.863;-3.129;-11.772
3028113.521;-14.752;-19.707;-22.538;-15.460;-9.015;-7.674;-10.058;-15.274
3028113.529;-13.895;-23.246;-20.489;-24.922;-16.876;-10.021;-12.927;-14.640
3028113.537;-12.256;-20.005;-19.781;-19.334;-12.368;-8.903;-11.958;-12.517
3028113.545;-17.434;-24.624;-23.767;-28.722;-8.792;-12.703;-14.417;-16.652
3028113.553;-13.113;-18.589;-20.787;-15.609;-10.394;-9.723;-10.245;-13.486
3028113.561;-6.929;-12.927;-15.534;-13.411;-2.384;-5.029;-3.688;-9.127
3028113.569;-9.499;-14.938;-12.070;-17.285;-0.335;-9.574;-6.855;-14.082
3028113.577;-12.219;-20.750;-15.944;-16.876;-8.903;-9.462;-6.407;-14.678
3028113.585;-10.170;-15.013;-12.964;-15.013;-9.574;-5.774;-4.247;-10.021
3028113.593;-4.917;-11.660;-8.754;-14.789;2.198;0.112;0.484;0.373
3028113.601;-15.125;-24.699;-21.197;-18.105;-12.256;-10.394;-10.803;-9.276
3028113.609;-12.703;-26.301;-16.987;-13.709;-0.037;-11.623;-10.990;-11.958
3028113.617;0.037;-5.253;-4.731;-13.523;15.423;-3.874;-3.763;-4.657
3028113.625;0.484;-4.992;-6.519;-11.697;11.846;-4.210;-3.539;-6.892
3028113.633;-0.075;-8.158;-3.837;-4.210;3.316;-5.513;-1.639;-7.525
3028113.641;0.522;-10.021;-1.639;-3.539;-3.576;-11.735;-5.215;-12.293
3028113.649;3.912;-6.743;-0.335;-4.247;6.221;-14.417;-5.215;-13.188
3028113.657;12.703;0.596;8.382;0.782;17.546;-6.035;3.316;-4.955
3028113.665;4.023;-3.576;-1.006;-7.190;12.591;-9.649;-1.900;-10.692
3028113.673;2.198;-0.857;-9.388;-1.229;5.774;-8.829;-5.215;-8.233
3028113.669;2.533;-2.459;-6.445;3.576;5.141;-3.949;-1.378;-2.198
3028113.677;-6.072;-18.701;-7.227;-8.829;0.708;-6.482;-1.416;-4.731
3028113.685;-6.594;-16.354;-8.941;-7.562;-0.447;-9.723;-3.874;-8.643
3028113.693;-9.798;-18.403;-12.219;-15.683;-3.390;-9.760;-3.390;-11.176
3028113.701;-15.758;-27.232;-19.893;-21.644;-0.559;-13.076;-8.121;-14.007
3028113.709;-16.354;-26.040;-18.477;-20.973;-6.147;-16.056;-10.394;-15.497
3028113.717;-11.995;-18.030;-18.366;-14.976;-2.086;-17.732;-10.990;-15.609
3028113.725;-9.760;-22.762;-19.670;-17.211;-6.892;-15.274;-9.649;-12.219
3028113.733;-12.890;-30.287;-16.056;-20.117;-13.970;-12.033;-6.370;-7.637
3028113.741;-11.995;-18.887;-13.560;-22.501;1.714;-9.425;-3.800;-4.247
3028113.749;-11.437;-18.291;-16.689;-17.546;1.416;-0.708;3.874;2.533
3028113.757;-9.760;-18.850;-15.311;-9.276;-2.868;3.837;8.121;5.886
3028113.765;-12.890;-20.824;-19.372;-10.096;-4.470;-2.794;1.229;0.596
3028113.773;-19.558;-28.163;-31.590;-22.464;-12.107;-11.437;-7.004;-9.686
3028113.781;-16.317;-24.438;-25.705;-20.415;-15.460;-9.090;-4.992;-7.711
3028113.789;-5.923;-13.448;-12.070;-9.611;-5.029;-2.682;0.782;-0.857
3028113.797;-10.841;-15.572;-18.366;-13.895;-11.064;-9.723;-6.855;-6.557
3028113.805;-13.486;-23.171;-23.730;-7.823;-13.299;-14.417;-10.096;-10.505
3028113.813;-8.717;-15.162;-15.125;-1.639;3.688;-11.735;-6.370;-8.792
3028113.821;-5.364;-7.525;-12.293;-7.115;3.465;-7.004;-1.155;-3.204
3028113.829;-7.264;-17.732;-12.442;-11.250;0.335;-0.745;3.502;1.639
3028113.837;-10.654;-21.718;-16.131;-16.168;-4.098;-0.224;3.166;2.645
3028113.845;-10.096;-18.738;-18.999;-9.760;-3.427;0.112;4.806;0.969
3028113.853;-11.288;-13.746;-24.028;-1.937;-6.221;-1.453;3.614;-2.868
3028113.879;-6.370;-11.548;-16.354;-1.416;-14.901;2.198;7.562;1.341
3028113.887;-4.917;-11.623;-6.706;-3.092;-1.453;3.502;9.276;3.092
3028113.895;-8.978;-15.013;-14.976;-12.629;-3.017;-0.708;5.998;-1.378
3028113.903;-4.210;-9.611;-15.050;-3.912;-5.066;2.645;9.201;2.943
3028113.911;-11.995;-21.271;-21.569;-12.331;-9.090;-2.496;3.055;-1.192
3028113.919;-14.417;-27.940;-22.724;-20.638;-9.127;-8.866;-2.347;-5.960
3028113.927;-8.382;-15.013;-10.990;-16.391;4.880;-8.754;-0.820;-5.960
3028113.935;-5.439;-9.425;-10.207;-2.161;0.708;-10.282;-0.186;-9.164
3028113.943;4.061;-0.559;-2.570;11.958;3.055;-3.502;7.860;-1.676
3028113.951;5.327;1.118;-3.800;8.568;6.221;0.000;11.809;-1.378
3028113.959;-0.261;-6.519;-8.792;3.763;-2.272;-2.868;8.382;-4.172
3028113.967;-2.906;-12.666;-10.915;3.278;-5.551;-1.229;8.717;-1.229
3028113.975;-7.823;-17.472;-14.529;-9.015;-6.333;-6.594;2.347;-7.600
3028113.983;-10.692;-22.203;-17.583;-22.501;-8.643;-6.519;1.565;-8.233
3028113.991;-10.766;-19.707;-21.048;-9.201;-14.864;-2.682;5.439;-4.880
3028113.999;-5.737;-8.903;-14.678;1.080;-5.029;-1.751;7.749;-2.906
3028114.007;-3.055;-3.986;-5.476;6.594;2.682;-2.347;7.302;-5.215
3028114.015;-3.427;-5.811;-8.158;2.719;-3.129;0.410;8.456;-2.719
3028114.023;-4.321;-10.692;-11.399;-8.009;-7.190;6.519;14.156;3.465
3028114.031;-10.617;-24.363;-14.305;-10.431;-10.915;0.000;8.941;-4.955
3028114.039;-9.462;-15.125;-12.927;-1.192;-6.258;-2.421;6.743;-8.270
3028114.047;-10.431;-16.131;-17.285;-9.015;-7.227;-1.937;5.737;-8.419
3028114.055;-9.388;-13.746;-22.613;-6.221;-16.540;4.023;9.947;-3.204
3028114.063;-7.525;-13.523;-19.483;-4.247;-16.503;6.333;10.915;-0.373
3028114.074;-10.692;-12.480;-16.019;-3.651;-22.873;0.931;4.321;-4.917
3028114.082;-4.098;-9.686;-3.502;4.359;-0.298;1.751;4.098;-2.906
3028114.090;-7.153;-16.727;-7.935;-0.186;2.943;2.459;4.806;-3.092
3028114.098;-6.519;-9.239;-13.821;-1.192;-9.909;4.843;8.307;-2.459
3028114.106;-2.012;-5.513;-9.835;-6.035;-5.513;4.284;8.009;-2.719
3028114.114;-13.523;-17.285;-21.234;-19.781;-20.638;-5.513;-4.284;-11.809
3028114.122;-11.176;-13.895;-17.770;-6.892;-17.732;-3.800;-4.396;-10.952
3028114.130;-9.276;-16.242;-13.746;-0.820;-4.619;-0.559;-1.974;-8.866
3028114.138;-14.603;-27.381;-21.309;-11.995;-13.188;-2.868;-5.774;-9.611
3028114.146;-11.325;-22.314;-19.297;-11.697;-17.509;0.298;-2.421;-8.084
3028114.154;-12.964;-22.240;-17.397;-11.958;-12.927;2.570;-0.633;-10.990
3028114.162;-8.792;-11.846;-12.890;-12.852;-7.600;10.207;4.880;-5.476
3028114.170;-10.058;-12.256;-13.113;-13.299;-12.219;9.984;2.757;-4.731
3028114.178;-13.709;-22.240;-17.025;-15.721;-20.415;4.731;-3.092;-7.786
3028114.186;-10.878;-17.881;-14.044;-4.247;-16.466;1.825;-6.109;-9.313
3028114.194;-9.649;-19.670;-10.915;-1.788;-7.227;-1.900;-9.090;-12.852
3028114.202;-4.061;-18.142;-6.743;-2.384;-1.304;2.533;-3.539;-8.158
3028114.210;-1.825;-6.184;-5.960;-3.763;-4.806;2.347;-3.129;-7.451
3028114.218;-1.192;1.192;-8.494;-0.671;-5.923;-1.900;-5.513;-12.293
3028114.226;-2.533;-7.451;-10.803;4.284;-8.307;-4.582;-5.327;-17.732
3028114.234;-2.980;-14.342;-10.505;-9.984;-1.341;-3.651;-3.874;-16.987
3028114.242;2.719;-6.780;-1.714;4.172;4.619;-3.278;-3.800;-13.113
3028114.250;0.373;-10.096;-4.582;5.849;1.267;-6.370;-5.700;-17.174
3028114.258;-5.625;-15.162;-11.548;-0.782;-6.109;-14.268;-13.039;-21.756
3028114.255;-4.061;-2.198;-9.090;2.719;-10.356;-16.987;-14.529;-21.309
3028114.263;-4.806;-7.488;-5.513;3.092;-4.433;-18.068;-15.087;-22.799
3028114.271;-4.768;-13.374;-6.929;-1.788;-2.533;-14.938;-12.517;-20.638
3028114.279;-3.316;-14.305;-9.201;-2.310;-1.490;-7.115;-4.396;-13.970
3028114.287;-1.639;-15.870;-8.568;-5.476;-7.115;-2.310;2.533;-9.388
3028114.295;-2.086;-7.637;-4.098;5.700;-4.433;-3.614;2.347;-12.182
3028114.303;2.421;-1.490;1.714;17.583;2.868;-4.582;1.304;-14.231
3028114.311;3.800;-3.166;0.000;6.929;3.390;-5.215;-0.969;-13.337
3028114.319;-2.049;-7.898;-7.525;-7.190;-2.868;-9.052;-7.004;-13.746
3028114.327;-1.453;-6.445;-6.370;-0.671;-2.384;-11.474;-9.835;-13.523
3028114.335;3.576;0.745;1.229;13.746;3.800;-11.884;-7.823;-13.709
3028114.343;7.786;1.639;9.164;14.156;7.749;-9.649;-3.278;-14.305
3028114.351;5.923;-9.537;1.118;5.700;4.731;-5.849;0.782;-10.878
3028114.359;3.763;-4.582;0.149;1.863;-0.037;-9.127;-3.539;-15.199
3028114.367;6.668;6.780;3.353;13.784;9.574;-11.250;-6.557;-17.136
3028114.375;7.376;5.700;-0.708;11.809;8.196;-11.139;-6.147;-14.529
3028114.383;-0.708;-12.815;-6.892;-1.490;-7.674;-18.328;-12.442;-20.675
3028114.391;4.433;-3.986;-0.559;6.035;3.763;-19.968;-12.442;-22.911
3028114.399;6.594;0.857;0.410;10.207;6.445;-17.099;-8.233;-21.718
3028114.407;8.531;-0.708;4.694;6.966;7.637;-11.399;-1.453;-16.280
3028114.415;14.082;6.109;7.525;13.039;11.511;-5.290;3.539;-9.798
3028114.423;8.643;3.017;3.129;12.368;6.855;-13.746;-5.066;-17.583
3028114.431;0.596;-4.806;-0.820;7.190;2.384;-25.928;-19.185;-27.306
3028114.439;4.135;-5.551;1.490;6.631;8.792;-22.091;-17.248;-23.283
3028114.450;7.525;-3.800;4.359;10.654;10.058;-14.119;-11.995;-16.578
3028114.458;9.350;3.651;2.272;11.288;8.494;-10.431;-7.786;-13.784
3028114.466;5.327;-1.267;0.484;3.465;-4.731;-15.721;-11.101;-20.452
3028114.474;4.768;-2.943;-2.645;0.447;-4.917;-20.005;-14.529;-24.959
3028114.482;9.723;-0.894;6.519;4.098;6.370;-18.217;-11.809;-24.028
3028114.490;18.626;7.227;16.131;14.901;18.179;-11.809;-3.800;-14.715
3028114.498;24.065;22.091;15.013;33.677;26.003;-14.901;-8.680;-14.566
3028114.506;13.486;9.984;7.115;24.252;12.033;-23.358;-20.228;-21.681
3028114.514;9.350;3.278;11.176;10.543;10.766;-25.891;-23.320;-22.687
3028114.522;11.623;4.582;13.299;12.293;7.823;-23.022;-20.117;-22.128
3028114.530;16.019;10.468;10.058;18.813;9.760;-13.113;-8.941;-15.050
3028114.538;16.727;11.027;11.660;15.534;14.566;-8.978;-4.210;-14.007
3028114.546;8.717;0.037;6.184;6.445;8.419;-14.827;-10.878;-21.048
3028114.554;13.113;3.017;7.898;9.649;0.782;-13.709;-10.990;-17.099
3028114.562;13.188;7.078;8.792;13.523;13.076;-21.346;-17.919;-22.501
3028114.570;7.711;-1.490;3.427;14.044;-3.316;-27.120;-23.954;-28.796
3028114.578;8.419;-6.445;5.402;7.823;2.459;-26.189;-22.426;-26.785
3028114.586;13.411;8.307;12.405;13.746;17.509;-25.332;-22.426;-24.997
3028114.594;13.411;8.643;11.586;13.635;13.411;-25.146;-23.805;-22.165
3028114.602;7.376;-2.235;1.043;5.662;7.637;-27.195;-24.214;-23.730
3028114.610;5.811;-5.253;-2.757;0.447;2.421;-26.859;-22.501;-24.661
3028114.618;6.706;4.880;-0.447;15.572;0.969;-24.624;-20.489;-25.742
3028114.626;10.580;5.774;9.909;17.509;8.047;-18.217;-15.013;-24.065
3028114.634;21.383;9.015;20.675;18.254;24.661;-3.837;-0.149;-10.356
3028114.632;15.721;6.594;11.511;13.486;13.150;-4.582;-2.868;-10.431
3028114.640;13.709;4.284;12.368;12.629;13.188;-7.860;-8.941;-12.182
3028114.648;9.090;2.459;1.825;10.841;3.129;-10.431;-13.486;-11.586
3028114.656;1.825;-8.158;-2.272;10.543;1.155;-17.434;-19.707;-15.907
3028114.664;3.092;-7.637;2.831;10.766;10.133;-18.962;-19.856;-15.274
3028114.672;4.843;-1.304;2.682;6.706;8.792;-14.976;-15.162;-15.087
3028114.680;4.694;-1.602;2.384;3.129;4.098;-12.368;-12.480;-16.913
3028114.688;5.886;-7.115;0.894;-8.680;-2.794;-6.668;-6.147;-14.044
3028114.696;3.390;-5.588;-3.092;9.649;-5.960;-4.731;-6.370;-14.007
3028114.704;4.210;3.241;-5.811;23.581;-11.511;-1.900;-5.886;-12.405
3028114.712;3.576;-7.488;0.484;-2.347;-0.447;1.155;-3.427;-10.729
3028114.720;8.047;-6.929;10.319;0.484;16.429;2.794;-2.012;-8.456
3028114.728;11.139;1.155;8.158;14.976;9.947;2.421;-3.688;-8.270
3028114.736;4.470;-1.974;-3.763;8.680;-5.662;-7.972;-13.635;-17.472
3028114.744;8.233;0.596;-2.161;13.374;-16.876;-9.872;-14.640;-17.807
3028114.752;11.250;0.894;4.433;14.938;4.470;-8.307;-13.448;-16.987
3028114.760;14.529;8.941;9.462;16.168;11.288;-3.614;-9.201;-14.938
3028114.768;14.789;6.780;10.133;8.717;7.339;-1.118;-5.476;-14.901
3028114.776;9.574;-4.433;1.639;1.788;1.714;1.416;-4.210;-12.927
3028114.784;4.768;-10.319;-5.253;-2.086;-10.766;2.272;-3.614;-12.331
3028114.792;10.990;2.608;5.811;11.213;-3.837;0.969;-1.080;-12.666
3028114.800;23.730;17.285;19.595;31.106;19.521;6.184;5.625;-6.258
3028114.808;24.177;14.603;16.354;26.971;16.503;5.178;4.619;-5.849
3028114.816;17.509;4.061;12.331;12.405;2.161;-1.416;-1.118;-11.101
3028114.838;18.850;11.474;11.548;27.865;7.674;-8.643;-7.451;-16.764
3028114.846;13.486;5.923;3.576;15.646;-0.671;-12.405;-12.293;-19.595
3028114.854;14.342;3.688;8.754;11.325;-1.974;-10.245;-10.431;-16.131
3028114.862;15.944;4.247;13.560;13.113;20.228;-8.382;-6.892;-15.274
3028114.870;5.960;-4.433;2.310;5.737;5.439;-9.872;-8.307;-19.521
3028114.878;12.554;7.413;3.278;22.762;-1.006;-7.823;-7.376;-16.131
3028114.886;21.346;14.715;14.789;28.908;11.884;-3.763;-3.166;-8.829
3028114.894;14.976;7.488;11.660;14.827;7.004;-8.568;-7.451;-10.468
3028114.902;6.333;0.075;1.974;6.258;-5.625;-9.313;-6.557;-12.219
3028114.910;5.402;-3.427;1.937;5.178;4.396;-16.540;-12.442;-19.222
3028114.918;7.749;-5.104;9.649;5.066;16.764;-22.165;-17.509;-21.160
3028114.926;2.719;-7.786;4.135;3.651;6.035;-21.756;-17.360;-19.632
3028114.934;-1.714;-9.462;-3.912;-7.451;-1.937;-22.352;-18.142;-20.154
3028114.942;-5.178;-17.732;-12.293;-18.924;-8.717;-19.222;-15.870;-17.062
3028114.950;4.396;-5.625;-5.737;-1.863;-12.554;-11.288;-8.643;-11.586
3028114.958;10.915;1.304;9.350;-0.224;6.296;-8.270;-5.662;-9.649
3028114.966;10.356;-0.708;6.482;-5.439;19.558;-8.643;-6.370;-12.666
3028114.974;12.703;5.178;4.917;13.597;11.884;-9.723;-7.637;-12.778
3028114.982;11.809;-1.565;7.860;10.766;13.076;-10.394;-8.196;-12.778
3028114.990;4.172;-9.350;4.657;1.416;7.376;-17.285;-14.007;-20.601
3028114.998;7.004;-0.373;4.247;6.147;2.384;-18.924;-15.870;-21.085
3028115.006;4.508;-8.717;-1.974;0.112;4.210;-19.222;-16.429;-20.340
3028115.014;3.166;-12.070;-5.029;-10.319;-4.433;-16.540;-13.895;-15.460
3028115.022;8.456;5.998;-1.341;2.123;-7.674;-12.591;-10.431;-11.250
3028115.021;1.304;-4.284;-0.745;7.190;1.416;-16.801;-17.136;-17.025
3028115.029;2.459;-9.127;-0.782;0.224;-5.998;-11.995;-14.007;-12.405
3028115.037;9.984;1.043;5.998;4.098;8.009;-4.023;-5.327;-5.886
3028115.045;12.554;4.470;9.798;10.394;15.572;-2.272;-1.676;-5.588
3028115.053;9.574;-5.960;6.407;2.645;7.674;-1.937;1.043;-3.278
3028115.061;2.608;-10.505;-2.421;-1.341;-3.055;-3.763;0.969;-4.843
3028115.069;6.147;2.347;0.596;7.339;6.594;-7.078;-1.453;-6.855
3028115.077;9.350;5.104;4.061;10.505;6.780;-10.543;-4.098;-11.139
3028115.085;7.525;0.000;-2.496;3.539;-4.172;-13.411;-5.364;-13.597
3028115.093;13.262;1.043;6.706;4.172;11.325;-10.692;-1.974;-10.096
3028115.101;14.603;-4.396;12.778;0.969;15.423;-8.903;-0.857;-9.462
3028115.109;11.548;-3.725;5.923;4.545;5.066;-4.247;2.831;-6.035
3028115.117;4.582;2.310;-1.565;10.692;-4.992;-7.302;-3.204;-7.935
3028115.125;-3.874;-14.007;-9.090;-4.806;-1.267;-11.697;-10.580;-11.362
3028115.133;-4.023;-17.062;-8.903;-7.376;-6.631;-9.462;-8.233;-10.319
3028115.141;0.298;-11.288;2.272;-5.290;7.674;-6.557;-5.849;-10.021
3028115.149;1.341;-7.525;3.092;0.410;6.817;-5.551;-4.396;-9.388
3028115.157;-0.373;-7.860;-0.857;-1.974;1.192;-4.657;-2.831;-7.935
3028115.165;-1.900;-11.288;-4.023;-4.172;-1.118;-4.508;-2.906;-6.706
3028115.173;-4.843;-11.027;-14.715;-5.774;-13.001;-7.115;-4.843;-11.064
3028115.181;-5.998;-16.876;-11.399;-3.129;-13.597;-10.580;-7.562;-15.050
3028115.189;2.310;-9.127;2.384;2.943;9.723;-22.091;-20.191;-23.954
3028115.197;-3.427;-14.529;-4.917;-12.815;3.055;-20.303;-22.762;-20.638
3028115.205;-17.360;-29.840;-22.091;-30.734;-19.185;-15.832;-21.532;-18.552
3028115.216;-24.922;-37.327;-32.820;-35.018;-36.135;-12.666;-18.179;-17.062
3028115.224;-26.934;-44.182;-32.559;-38.929;-32.969;-11.884;-16.876;-17.099
3028115.232;-22.016;-38.482;-22.277;-29.020;-25.034;-9.537;-13.597;-14.976
3028115.240;-19.334;-32.820;-19.968;-26.561;-22.985;-9.052;-11.288;-14.231
3028115.248;-16.987;-28.610;-16.242;-12.070;-9.798;-12.293;-13.150;-17.434
3028115.256;-14.454;-22.538;-21.234;-17.956;-18.701;-10.282;-11.325;-16.391
3028115.264;-6.482;-5.104;-10.133;-3.502;-12.219;-4.321;-5.066;-13.150
3028115.272;-4.433;-10.058;-8.792;1.714;-2.943;-3.092;-4.992;-12.293
3028115.280;-7.451;-18.924;-13.411;-8.009;-9.499;-5.662;-10.580;-14.082
3028115.288;-16.131;-27.716;-24.885;-16.391;-25.742;-9.090;-16.801;-16.615
3028115.296;-21.234;-29.914;-23.209;-25.369;-36.284;-10.617;-20.862;-18.775
3028115.304;-28.163;-40.792;-27.120;-34.496;-31.777;-12.852;-23.134;-23.916
3028115.312;-25.555;-35.688;-30.771;-27.120;-32.708;-7.711;-16.168;-21.122
3028115.320;-21.122;-25.220;-26.599;-16.950;-22.464;-6.557;-11.995;-21.718
3028115.328;-17.434;-23.097;-21.905;-13.225;-22.911;-5.774;-9.909;-22.091
3028115.336;-9.835;-19.297;-13.523;-13.597;-14.715;-4.992;-8.829;-20.340
3028115.344;-4.619;-17.732;-9.090;-9.425;-12.107;-4.172;-9.388;-18.552
3028115.352;-2.645;-13.746;-7.823;8.941;-18.589;-6.184;-13.113;-18.589
3028115.360;0.075;-5.439;-6.296;5.215;-12.442;-3.763;-12.517;-16.913
3028115.368;-2.496;-10.878;-4.470;-8.680;-4.545;-4.731;-15.460;-17.770
3028115.376;-6.780;-13.560;-6.557;-16.205;-1.751;-5.923;-16.615;-16.987
3028115.384;-16.056;-26.748;-17.770;-19.483;-18.664;-7.860;-17.025;-19.893
3028115.392;-18.142;-31.739;-22.389;-18.030;-26.785;-5.104;-12.554;-16.689
3028115.400;-10.468;-23.022;-14.454;-8.419;-20.973;3.241;-4.098;-8.605
3028115.410;-3.986;-18.254;-3.427;-1.192;-14.417;5.104;-0.261;-8.754
3028115.418;-0.373;-10.766;-1.267;6.407;-0.745;2.012;-0.112;-11.399
3028115.426;6.557;0.857;-0.410;6.780;4.619;-0.596;-1.937;-10.654
3028115.434;-3.017;-14.454;-9.388;-9.872;-16.466;-9.686;-12.182;-17.285
3028115.442;-7.674;-17.248;-14.491;-0.112;-26.338;-7.376;-10.133;-14.603
3028115.450;-5.700;-19.446;-6.333;-2.682;-7.823;-3.241;-7.227;-9.760
3028115.458;-7.413;-20.526;-3.390;-3.688;3.949;-8.047;-12.629;-12.964
3028115.466;-11.735;-23.134;-10.990;-8.531;-16.801;-9.276;-14.305;-15.087
3028115.474;-6.519;-22.277;-8.047;-10.505;-14.566;-4.359;-7.860;-9.723
3028115.482;-3.986;-21.122;-10.766;-4.768;-14.603;-4.247;-5.439;-9.872
3028115.490;-6.929;-21.383;-13.486;-11.250;-19.670;-4.582;-3.763;-10.692
3028115.498;1.416;-7.376;-2.608;4.657;2.049;-1.267;1.825;-7.339
3028115.506;8.382;-3.539;2.868;15.646;8.419;-0.820;1.378;-7.227
3028115.514;6.631;-9.611;1.006;7.525;-10.431;-3.166;-2.794;-8.568
3028115.522;13.709;2.682;13.746;18.179;5.923;1.006;0.559;-4.210
3028115.530;18.850;4.545;16.391;18.626;13.895;5.700;5.476;2.533
3028115.538;8.270;-7.115;3.986;7.302;0.224;1.304;0.857;-0.149
3028115.546;1.565;-11.250;1.863;-4.023;-1.676;-5.327;-5.588;-8.233
3028115.554;3.241;-8.792;5.066;6.519;4.657;-5.811;-4.843;-7.711
3028115.562;1.267;-9.574;0.745;2.533;6.445;-6.929;-5.662;-9.350
3028115.570;2.384;-11.548;0.820;5.923;1.416;-4.061;-3.390;-5.960
3028115.578;4.768;-9.201;3.688;8.382;0.708;-1.788;-0.633;-3.465
3028115.586;5.960;-2.943;1.341;12.480;0.186;-0.969;-0.596;-3.912
3028115.594;6.780;-3.837;1.118;12.517;-5.141;1.565;3.166;-4.508
3028115.590;11.064;1.714;4.359;19.968;1.863;6.855;7.935;-0.559
3028115.598;7.749;0.224;1.751;7.898;3.502;3.688;4.061;-1.788
3028115.606;9.947;-0.671;7.041;8.345;13.560;1.080;1.714;-1.900
3028115.614;8.158;-1.639;4.917;15.460;10.170;-0.335;0.559;-2.608
3028115.622;5.960;-3.092;5.253;11.139;-0.410;-0.373;0.484;-2.347
3028115.630;9.835;6.817;6.631;12.182;0.894;5.104;5.998;2.049
3028115.638;15.683;9.947;11.623;10.803;7.562;12.405;11.139;8.419
3028115.646;7.972;-6.519;4.619;3.353;-8.270;5.774;4.694;2.049
3028115.654;9.574;2.347;9.760;15.534;4.023;3.390;3.092;-2.049
3028115.662;24.438;21.271;21.271;31.777;18.515;13.746;14.380;9.052
3028115.670;21.383;18.850;17.211;27.828;11.101;11.027;13.188;7.302
3028115.678;12.256;5.998;6.519;20.042;5.737;3.316;4.843;0.075
3028115.686;12.815;5.923;7.451;17.360;5.439;3.912;3.241;2.012
3028115.694;13.709;10.990;11.437;18.887;13.448;3.949;2.608;0.708
3028115.702;12.778;7.451;10.207;17.285;2.310;5.662;4.508;1.304
3028115.710;7.600;-4.657;6.258;9.462;1.639;3.204;2.496;-1.788
3028115.718;5.215;-1.900;2.235;3.017;3.204;3.576;3.465;-3.427
3028115.726;8.605;2.421;9.276;4.545;1.602;9.350;8.792;3.539
3028115.734;10.058;2.123;12.182;12.666;12.740;12.964;10.729;6.370
3028115.742;13.635;8.084;11.586;27.269;11.101;14.193;10.766;7.413
3028115.750;15.907;4.657;12.182;17.509;12.480;19.819;15.944;12.182
3028115.758;9.127;0.782;7.600;7.227;5.253;17.323;13.560;10.505
3028115.766;5.439;2.459;-0.745;11.399;-8.419;15.311;11.623;9.239
3028115.774;2.868;-3.465;0.857;12.256;-5.029;7.562;4.321;-1.192
3028115.800;6.706;0.708;8.382;8.568;6.482;1.788;-0.782;-4.731
3028115.808;10.766;6.519;14.231;9.760;6.668;3.725;1.080;-2.049
3028115.816;17.621;10.915;20.377;18.775;14.827;12.629;9.872;6.817
3028115.824;12.070;5.886;11.548;19.297;8.978;10.803;7.227;3.129
3028115.832;7.041;0.969;5.178;13.448;2.943;5.402;0.000;-3.166
3028115.840;8.084;0.931;5.998;17.211;-5.402;5.066;-0.410;-2.868
3028115.848;7.786;-0.335;7.451;18.440;1.639;4.508;-1.751;-4.470
3028115.856;11.586;2.980;11.884;16.391;7.488;6.780;0.782;-3.614
3028115.864;13.635;1.453;10.654;17.583;1.043;11.623;4.657;-0.708
3028115.872;4.731;-7.898;1.304;1.676;-4.619;5.290;-1.676;-8.792
3028115.880;5.513;-1.118;1.527;12.182;2.086;6.855;-0.782;-6.892
3028115.888;11.288;9.239;6.482;21.942;-0.224;13.933;4.657;-1.192
3028115.896;17.583;8.345;14.752;27.567;4.917;23.507;12.815;7.115
3028115.904;13.672;7.451;10.245;21.756;-1.341;22.128;10.729;6.296
3028115.912;4.284;-0.708;2.459;20.862;-13.262;15.534;3.800;-0.559
3028115.920;6.668;-4.098;7.935;15.274;-6.855;16.652;5.700;2.496
3028115.928;8.419;-2.235;7.674;4.917;-1.080;15.534;7.786;1.229
3028115.936;9.388;0.186;6.407;5.588;2.868;9.499;4.023;-4.806
3028115.944;10.617;9.723;4.917;18.477;-6.668;7.227;2.235;-3.614
3028115.952;4.284;3.502;-0.782;20.266;-13.076;4.768;-1.267;-7.115
3028115.960;7.823;-1.006;7.376;13.411;-4.284;6.407;-0.410;-4.470
3028115.968;9.872;-0.186;14.454;15.646;8.047;5.960;0.559;-3.390
3028115.976;11.548;6.519;13.970;23.618;7.264;6.631;3.465;-3.353
3028115.984;14.268;13.113;9.425;36.433;-0.075;8.307;6.147;-0.261
3028115.981;17.136;13.672;13.635;25.667;1.006;8.233;5.253;0.969
3028115.989;11.027;7.600;7.413;13.374;-3.092;3.017;-2.831;-3.204
3028115.997;5.066;-3.427;5.178;8.605;-9.239;2.943;-3.316;-3.837
3028116.005;5.923;-0.782;4.359;18.962;5.215;-0.335;-7.041;-6.445
3028116.013;17.919;14.864;17.844;35.353;12.480;3.986;-1.416;-2.310
3028116.021;21.309;13.150;23.730;27.679;8.829;7.227;2.719;0.745
3028116.029;17.472;7.637;20.452;19.632;9.015;-1.453;-4.508;-4.955
3028116.037;16.168;8.009;16.913;22.277;7.153;-6.072;-8.084;-7.339
3028116.045;15.348;7.860;17.472;19.260;0.224;-7.153;-8.792;-6.668
3028116.053;18.738;13.597;17.285;27.232;12.554;-2.794;-5.290;-1.229
3028116.061;14.715;10.468;9.574;18.552;12.703;-4.433;-7.339;-3.427
3028116.069;21.234;15.609;18.254;24.289;13.672;3.241;1.006;4.061
3028116.077;26.226;24.997;21.830;38.370;7.637;7.078;6.147;5.253
3028116.085;29.430;22.575;27.493;39.078;19.483;5.402;4.433;1.900
3028116.093;36.098;27.269;40.829;41.425;32.447;8.345;7.227;6.035
3028116.101;26.561;15.125;28.163;28.759;19.968;2.459;1.229;2.161
3028116.109;15.609;12.368;12.219;25.928;8.568;-7.004;-7.749;-6.333
3028116.117;11.399;10.803;11.884;23.693;3.800;-11.995;-10.803;-10.543
3028116.125;12.256;5.811;11.101;19.111;8.531;-10.096;-7.227;-7.674
3028116.133;21.644;17.397;20.266;27.381;9.388;-3.725;0.857;-1.453
3028116.141;20.936;18.477;26.003;32.037;12.219;-8.792;-3.837;-8.456
3028116.149;17.397;14.789;21.271;28.014;12.964;-8.494;-3.688;-9.686
3028116.157;20.526;15.758;21.569;27.418;12.740;-1.453;2.459;-4.247
3028116.165;24.959;17.993;27.381;40.792;21.905;-0.075;3.166;-2.049
3028116.174;24.922;15.460;27.530;41.425;22.352;-0.447;1.900;-1.453
3028116.182;12.890;7.115;14.603;23.991;1.006;-5.700;-4.359;-5.737
3028116.190;11.921;9.276;17.583;22.352;2.161;-7.302;-6.221;-7.264
3028116.198;6.966;4.061;12.591;16.131;6.519;-1.118;-2.570;-1.974
3028116.206;21.532;26.636;22.016;43.549;16.354;8.307;6.407;7.190
3028116.214;27.455;31.665;30.622;50.589;11.958;3.614;2.682;1.229
3028116.222;20.005;20.564;27.232;35.502;12.368;-2.868;-2.310;-5.774
3028116.230;17.583;11.735;26.301;25.220;14.342;-3.129;-2.496;-2.459
3028116.238;14.044;9.798;20.787;24.736;6.258;-6.147;-4.843;-5.588
3028116.246;13.150;14.007;16.987;23.954;4.806;-10.841;-8.680;-11.362
3028116.254;13.746;14.380;15.236;23.805;2.645;-9.537;-7.302;-9.313
3028116.262;14.268;14.156;18.962;34.310;1.155;-4.955;-3.278;-6.557
3028116.270;14.976;12.182;16.280;23.730;-0.186;1.267;1.192;-0.745
3028116.278;11.288;13.225;10.319;18.999;-5.327;1.751;0.000;1.639
3028116.286;9.798;15.236;14.678;27.604;5.104;-5.774;-9.090;-5.253
3028116.294;17.025;19.372;25.220;39.637;13.001;-4.396;-8.531;-3.316
3028116.302;10.282;5.886;15.013;23.805;-7.339;-3.465;-7.637;-1.825
3028116.310;7.749;1.825;13.523;19.148;-13.746;-6.333;-8.307;-4.992
3028116.318;14.193;17.099;19.856;30.287;7.786;-5.737;-5.737;-4.843
3028116.326;16.391;16.801;17.807;30.026;13.858;0.037;-0.373;0.335
3028116.334;21.085;23.842;23.246;33.267;1.267;8.568;5.849;7.860
3028116.342;18.217;19.222;24.550;23.767;8.196;9.872;6.519;8.531
3028116.350;10.356;12.554;13.411;21.122;-1.416;4.247;-0.224;3.390
3028116.358;9.462;12.480;13.076;25.854;1.416;3.986;-1.043;1.416
3028116.371;2.906;3.949;9.388;20.191;-6.072;-1.043;-7.115;-4.470
3028116.379;3.129;-0.075;10.021;8.978;-6.333;0.633;-5.402;-3.837
3028116.387;4.135;-0.373;9.388;9.909;-4.359;2.421;-3.092;-2.570
3028116.395;8.680;5.774;12.442;16.056;2.272;1.267;-4.135;-2.719
3028116.403;9.425;14.417;12.480;18.515;2.831;3.166;-2.235;-2.272
3028116.411;4.508;9.462;6.966;27.567;-12.331;1.043;-4.731;-3.316
3028116.419;6.594;9.090;10.654;24.773;-11.958;2.272;-4.619;-1.527
3028116.427;12.480;11.474;17.881;26.636;11.437;8.382;0.410;3.688
3028116.435;12.852;15.609;14.566;29.989;1.788;8.792;-0.075;2.272
3028116.443;7.525;4.545;7.488;16.727;-14.827;6.892;-3.353;-1.267
3028116.451;12.740;12.740;17.285;22.314;-4.806;4.135;-4.843;-5.290
3028116.459;18.775;24.959;24.810;37.402;9.239;5.364;-2.459;-5.476
3028116.467;15.683;15.870;19.334;33.192;2.123;10.282;0.335;-2.272
3028116.475;12.480;12.480;17.881;26.710;-1.267;12.144;1.676;-2.533
3028116.483;11.586;8.978;17.509;22.724;9.686;15.348;5.066;-0.969
3028116.491;7.972;7.786;10.021;22.650;-11.027;9.760;-0.112;-7.227
3028116.499;15.795;19.409;20.191;21.048;4.806;10.803;1.527;-5.700
3028116.507;16.317;18.738;18.328;28.573;5.998;9.723;1.639;-7.153
3028116.515;6.631;7.786;10.803;12.629;-8.680;1.118;-6.855;-16.913
3028116.523;6.817;8.345;15.423;12.890;-1.825;3.353;-4.582;-15.534
3028116.531;13.001;11.958;22.575;32.894;8.233;9.015;0.000;-8.866
3028116.539;17.770;15.013;24.773;36.545;7.562;12.070;2.272;-1.825
3028116.547;20.787;25.555;25.183;41.053;8.047;12.293;2.645;1.863
3028116.555;15.721;22.352;21.271;34.682;2.906;5.849;-3.949;-6.184
3028116.550;3.427;5.849;8.829;4.843;-10.580;-1.490;-10.356;-14.566
3028116.558;9.090;9.090;10.915;14.752;-7.898;6.147;-0.559;-6.482
3028116.566;16.540;15.497;20.936;35.092;10.841;8.084;2.943;-3.166
3028116.574;12.703;10.096;21.718;24.326;15.013;4.135;-0.633;-7.562
3028116.582;20.117;16.466;24.922;27.493;17.844;9.090;2.533;0.484
3028116.590;20.899;18.366;24.624;25.593;12.554;8.196;1.229;1.974
3028116.598;12.629;9.835;17.174;18.813;0.708;-0.559;-7.935;-4.917
3028116.606;7.153;4.284;13.225;13.933;-11.437;-6.892;-13.523;-9.984
3028116.614;8.829;7.674;20.862;14.119;11.362;-12.144;-18.068;-16.280
3028116.622;13.337;13.225;20.079;23.656;14.752;-10.170;-13.933;-13.374
3028116.630;14.901;12.144;17.136;26.561;1.900;-2.161;-4.582;-7.935
3028116.638;15.274;18.068;15.460;26.673;0.484;2.608;0.186;-6.035
3028116.646;17.956;21.271;18.701;27.046;7.488;6.147;4.582;-2.719
3028116.654;26.748;28.647;36.620;36.024;25.406;12.405;10.394;3.688
3028116.662;24.177;26.934;30.845;40.121;24.252;10.841;7.190;4.768
3028116.670;17.881;19.073;21.346;38.445;13.709;6.184;2.570;0.708
3028116.678;14.342;19.446;18.738;21.495;7.488;0.261;-1.490;-2.794
3028116.686;9.872;11.623;15.423;15.832;4.061;-6.594;-7.972;-8.158
3028116.694;4.508;3.092;13.635;10.282;0.410;-8.568;-10.766;-10.692
3028116.702;12.219;10.915;23.134;15.646;12.405;-1.825;-4.545;-3.576
3028116.710;22.762;24.289;30.622;32.634;28.871;7.562;3.874;5.215
3028116.718;15.013;16.540;20.117;28.983;12.033;0.037;-2.347;-4.284
3028116.726;18.440;21.979;24.959;26.226;10.729;2.570;1.416;-2.682
3028116.734;19.148;21.718;23.209;23.656;4.768;4.396;3.017;-1.788
3028116.760;18.440;14.529;24.512;24.475;11.213;4.619;1.416;0.224
3028116.768;20.862;20.452;30.100;30.100;14.715;11.288;7.004;8.047
3028116.776;20.117;22.650;28.946;33.863;14.119;12.815;9.909;9.984
3028116.784;12.107;13.970;16.838;19.856;7.004;7.674;6.929;4.359
3028116.792;12.666;17.323;17.285;26.822;-0.745;5.886;5.737;1.267
3028116.800;10.170;12.182;16.466;17.695;1.751;2.719;1.229;-1.527
3028116.808;5.439;4.545;12.219;15.721;1.676;-2.980;-5.290;-7.264
3028116.816;13.672;18.366;17.956;24.103;8.605;0.596;-1.527;-3.092
3028116.824;18.217;22.314;20.415;25.220;9.537;6.929;4.694;4.545
3028116.832;18.403;23.581;22.724;36.806;10.729;8.605;5.104;4.023
3028116.840;19.446;17.211;24.401;38.706;9.686;12.554;9.015;6.035
3028116.848;16.242;18.515;23.022;29.653;5.774;12.629;9.686;6.519
3028116.856;11.697;17.509;21.569;23.171;9.239;4.582;3.800;0.000
3028116.864;16.578;26.822;22.426;24.326;9.462;6.258;5.253;2.608
3028116.872;8.680;17.807;12.815;20.042;-2.086;0.559;-3.055;-3.427
3028116.880;3.092;9.127;8.792;11.697;-3.129;-3.465;-9.239;-5.849
3028116.888;3.390;7.302;10.245;17.434;0.447;-2.980;-8.717;-4.247
3028116.896;14.827;19.111;19.670;38.035;10.170;4.955;0.820;4.023
3028116.904;14.342;16.242;22.501;26.189;6.482;2.794;-1.639;2.198
3028116.912;9.723;11.586;21.383;14.529;9.350;-5.588;-11.101;-9.425
3028116.920;15.758;26.897;18.887;28.498;9.127;-0.075;-4.582;-4.210
3028116.928;17.509;28.461;20.489;30.287;3.465;3.576;1.080;-2.086
3028116.936;19.595;23.358;27.046;33.192;11.809;2.347;-0.559;-2.570
3028116.944;21.234;27.232;27.679;35.837;21.681;10.580;5.588;5.327
3028116.941;14.678;19.111;20.228;20.787;5.737;16.093;7.562;10.058
3028116.949;1.155;3.017;13.970;0.708;0.000;3.837;-7.227;0.261
3028116.957;-0.671;2.943;14.827;2.496;5.625;-3.241;-13.523;-6.445
3028116.965;3.241;12.331;12.368;23.432;-2.608;-6.817;-15.832;-11.884
3028116.973;2.757;5.811;8.009;28.163;-10.580;-3.912;-12.107;-10.803
3028116.981;6.743;10.692;17.323;6.855;3.166;-0.335;-10.170;-8.270
3028116.989;14.417;20.377;24.773;5.700;18.068;4.582;-7.264;-2.831
3028116.997;12.815;19.819;18.552;24.699;6.221;4.582;-7.935;-3.688
3028117.005;8.456;8.866;15.236;21.532;-3.874;10.021;-2.459;1.229
3028117.013;7.749;10.282;13.076;10.878;-1.714;10.505;-1.527;4.061
3028117.021;9.760;20.005;22.165;21.085;15.013;8.754;-3.800;3.204
3028117.029;19.632;25.555;32.820;28.349;26.114;16.168;2.496;12.033
3028117.037;8.047;6.407;17.695;4.992;9.425;9.499;-4.880;4.023
3028117.045;3.055;4.880;8.643;0.931;-10.692;5.327;-11.064;-0.596
3028117.053;7.190;14.082;14.156;8.456;-1.490;3.725;-13.709;-1.602
3028117.061;3.316;2.533;11.213;0.298;-9.649;1.676;-14.715;-7.190
3028117.069;3.986;-0.224;13.523;0.708;-5.066;2.421;-15.274;-8.680
3028117.077;5.402;12.405;16.429;5.104;-0.037;2.123;-16.280;-10.803
3028117.085;6.594;14.305;14.193;7.115;3.017;4.061;-13.709;-9.537
3028117.093;7.078;8.196;13.411;-1.676;-4.806;7.078;-10.617;-6.706
3028117.101;8.643;13.635;11.995;15.274;-7.302;12.442;-8.680;-4.470
3028117.109;18.626;27.008;23.544;35.465;-1.229;22.054;1.155;0.894
3028117.117;24.401;29.393;30.398;32.447;9.760;24.997;4.843;2.384
3028117.125;18.477;28.275;22.799;23.097;1.416;15.907;-3.092;-6.892
3028117.135;12.554;21.979;13.001;16.689;-5.849;10.394;-7.823;-8.121
3028117.143;15.944;23.581;24.587;20.973;10.245;13.188;-6.109;-5.104
3028117.151;24.326;29.504;37.514;31.255;20.936;23.283;3.055;5.290
3028117.159;21.420;26.338;30.808;27.530;16.056;23.916;4.172;3.949
3028117.167;29.095;33.863;32.894;39.414;20.377;33.453;14.342;12.554
3028117.175;13.709;21.011;17.807;19.707;-1.825;18.142;-0.857;-2.310
3028117.183;11.362;16.391;22.277;19.073;8.158;13.337;-5.513;-5.662
3028117.191;13.299;19.260;23.022;26.226;12.554;14.789;-2.421;-1.751
3028117.199;15.460;22.314;22.054;25.332;10.058;16.764;1.527;2.645
3028117.207;9.649;14.827;17.472;14.976;2.757;3.390;-11.697;-9.537
3028117.215;13.672;21.495;16.950;27.008;10.096;8.196;-6.370;-4.768
3028117.223;16.131;20.750;22.389;12.442;17.993;14.566;-0.894;0.633
3028117.231;32.373;41.872;35.614;37.812;24.848;33.751;18.105;16.578
3028117.239;33.565;47.386;38.743;60.573;22.501;31.441;16.876;14.566
3028117.247;20.713;28.089;33.379;45.113;20.862;15.981;3.502;2.831
3028117.255;17.583;23.656;23.544;28.461;7.786;9.686;-1.304;-0.931
3028117.263;13.262;23.544;18.701;25.779;2.012;3.092;-5.886;-5.811
3028117.271;27.306;33.714;36.396;36.098;37.216;15.572;7.302;8.494
3028117.279;25.034;32.336;32.522;28.461;25.630;11.809;1.378;5.402
3028117.287;21.830;30.920;28.387;33.602;19.856;8.494;-2.645;2.272
3028117.295;31.032;39.898;38.296;45.076;24.922;17.360;7.972;12.144
3028117.303;40.829;49.211;49.211;55.917;34.794;23.060;16.987;19.856
3028117.311;30.883;33.192;43.139;41.761;32.857;9.015;3.725;5.625
3028117.319;31.963;35.688;42.245;37.141;35.316;3.465;-1.341;-1.192
3028117.330;51.707;63.591;58.115;64.932;50.105;14.752;11.548;8.084
3028117.338;49.584;65.900;55.693;68.881;49.658;10.021;6.706;2.310
3028117.346;40.978;54.128;48.019;57.034;39.823;9.499;2.049;3.278
3028117.354;31.441;36.247;36.508;32.187;22.314;5.923;-2.719;-0.410
3028117.362;52.936;54.576;57.891;45.262;43.474;32.522;23.656;25.891
3028117.370;28.461;34.533;33.677;42.729;21.569;10.431;1.304;4.657
3028117.378;42.990;49.323;50.366;57.817;51.819;21.420;12.629;17.323
3028117.386;45.188;54.389;52.340;55.768;45.486;18.366;10.766;14.082
3028117.394;24.848;34.422;29.728;34.310;20.787;-5.215;-13.784;-6.929
3028117.402;-1.080;7.488;11.101;10.021;10.766;-35.912;-46.454;-38.370
3028117.410;13.895;21.048;26.226;31.255;29.020;-21.681;-31.777;-23.991
3028117.418;34.720;37.216;42.990;42.059;31.777;4.582;-3.986;3.874
3028117.426;4.210;6.333;11.921;14.901;-1.006;-21.011;-27.418;-24.959
3028117.434;7.972;18.440;18.254;21.383;10.468;-9.909;-17.025;-12.442
3028117.442;13.858;23.954;26.971;19.521;28.312;-4.917;-10.133;-7.860
3028117.450;2.421;11.176;12.219;13.746;11.548;-21.756;-27.418;-24.438
3028117.458;5.364;7.935;12.405;11.213;4.023;-25.034;-34.720;-25.928
3028117.466;2.794;-0.075;11.474;-0.969;7.562;-27.567;-37.402;-29.542
3028117.474;5.104;2.868;8.419;-3.800;1.974;-21.048;-31.218;-21.681
3028117.482;8.978;14.603;16.578;11.288;0.745;-21.197;-29.355;-24.848
3028117.490;13.672;22.575;30.659;23.246;32.522;-20.377;-28.685;-24.512
3028117.498;18.887;24.177;30.659;15.348;33.230;-11.660;-18.515;-12.927
3028117.506;4.880;7.935;12.405;0.447;2.123;-19.222;-26.152;-20.675
3028117.514;2.794;3.353;12.591;-7.302;8.792;-16.652;-25.332;-17.397
3028117.511;-4.806;-7.898;3.353;-19.707;5.625;-22.762;-30.957;-24.922
3028117.519;1.378;0.633;11.884;-9.201;9.909;-17.025;-26.710;-18.850
3028117.527;-4.396;-4.396;7.749;-16.876;8.009;-24.997;-35.614;-25.965
3028117.535;-9.499;-15.125;0.522;-33.751;4.806;-27.791;-37.923;-30.920
3028117.543;0.559;-10.058;8.941;-22.799;7.264;-20.303;-29.393;-23.544
3028117.551;14.044;12.666;20.638;-1.863;11.064;-14.640;-23.916;-20.154
3028117.559;20.750;31.739;25.518;24.736;9.649;-13.001;-22.762;-19.632
3028117.567;22.799;28.722;29.430;21.160;20.377;-4.657;-13.448;-11.139
3028117.575;20.303;23.879;35.688;-0.708;43.958;-9.276;-18.701;-15.981
3028117.583;33.565;34.794;48.243;9.798;50.329;2.831;-7.674;-3.017
3028117.591;20.638;14.529;32.671;-7.004;35.018;-4.992;-15.683;-11.213
3028117.599;-2.310;-7.562;5.662;-17.248;0.745;-25.555;-37.700;-30.771
3028117.607;-2.086;-3.539;3.092;-9.574;-15.125;-20.713;-34.906;-25.518
3028117.615;1.080;2.235;7.488;-12.740;-1.118;-15.162;-31.032;-23.395
3028117.623;4.172;6.780;10.356;-20.340;0.186;-12.219;-28.759;-21.644
3028117.631;14.976;18.701;24.959;-1.416;24.363;4.284;-12.256;-5.588
3028117.639;15.385;20.601;26.412;2.161;29.467;20.824;4.135;9.127
3028117.647;7.674;11.884;15.050;-10.990;9.649;12.144;-3.986;-4.396
3028117.655;54.762;55.693;62.399;31.553;49.435;40.159;23.320;20.899
3028117.663;75.549;76.406;85.346;44.256;62.883;39.190;18.813;22.911
3028117.671;92.946;98.459;105.463;62.697;69.812;22.724;-0.224;6.892
3028117.679;104.867;109.896;121.891;83.782;98.161;8.903;-14.454;-11.623
3028117.687;135.042;131.167;152.625;95.144;128.895;23.283;-2.719;4.098
3028117.695;170.432;173.301;187.941;121.742;141.412;41.164;13.784;22.203
3028117.704;185.519;210.330;207.163;151.135;162.125;38.594;14.380;10.952
3028117.712;194.237;216.626;214.204;164.360;174.940;39.190;15.385;9.872
3028117.720;200.234;215.285;219.792;160.038;175.685;41.835;17.993;13.113
3028117.728;199.229;216.886;220.388;163.652;183.843;45.411;22.016;20.266
3028117.736;202.172;211.895;222.884;161.082;183.508;47.870;24.736;24.401
3028117.744;213.981;221.208;236.332;162.795;188.835;63.293;38.370;37.998
3028117.752;195.429;206.381;216.402;154.898;168.309;56.103;28.573;30.436
3028117.760;181.049;191.070;200.979;134.557;143.014;39.898;13.672;11.362
3028117.768;179.410;196.025;197.068;140.555;133.328;50.366;26.077;17.993
3028117.776;195.391;208.020;213.645;157.729;160.038;67.987;44.480;33.900
3028117.784;195.466;205.971;211.336;156.052;160.746;66.869;43.400;34.347
3028117.792;190.102;204.928;201.277;159.256;148.714;69.067;44.964;39.786
3028117.800;158.399;167.973;171.252;124.052;109.896;49.882;24.587;20.526
3028117.808;131.503;138.469;143.275;96.336;78.715;27.120;1.714;-6.035
3028117.816;135.489;148.378;144.094;103.042;90.525;36.322;11.101;4.694
3028117.824;127.517;134.818;135.303;91.121;71.377;41.388;18.738;11.884
3028117.832;130.422;135.079;138.581;95.516;72.382;50.180;31.143;23.097
3028117.840;128.485;131.503;135.079;100.732;83.223;49.621;33.192;26.450
3028117.848;129.864;138.357;133.328;98.720;83.409;52.489;36.471;31.851
3028117.856;104.755;107.698;107.512;79.237;56.177;37.327;20.117;15.236
3028117.864;78.790;83.521;79.572;51.707;28.387;21.309;0.857;-1.714
3028117.872;84.043;88.252;86.203;46.007;28.498;32.634;12.070;8.084
3028117.880;76.629;78.715;82.403;34.645;35.278;27.865;10.431;1.788
3028117.888;93.989;97.342;97.342;73.537;59.269;50.478;33.379;25.183
3028117.899;76.443;83.968;80.168;56.401;33.230;42.282;24.587;16.131
3028117.907;94.473;101.104;94.660;72.755;54.054;64.820;47.684;41.351
3028117.915;77.598;89.034;76.778;55.842;38.780;46.566;31.106;27.604
3028117.923;41.574;43.027;38.892;6.557;-5.327;13.076;1.118;-7.153
3028117.931;49.584;51.297;44.107;19.632;0.782;21.607;11.846;3.353
3028117.939;63.665;67.689;65.155;41.686;24.959;30.771;21.569;15.832
3028117.947;62.324;63.851;67.949;39.749;33.230;23.246;12.703;12.442
3028117.955;72.829;72.941;79.088;49.323;49.360;35.353;26.226;24.773
3028117.963;69.626;68.843;70.892;38.147;37.886;38.072;31.404;24.401
3028117.971;88.550;94.362;92.164;65.379;55.693;54.911;50.403;39.898
3028117.979;82.552;87.507;84.639;59.977;52.862;47.535;42.021;34.682
3028117.987;37.253;42.170;34.161;14.380;0.596;14.044;7.153;1.527
3028117.995;49.472;51.893;52.415;21.830;13.933;17.397;11.921;1.155
3028118.003;60.126;61.579;65.342;37.216;33.565;27.455;22.314;14.976
3028118.011;53.123;50.329;55.172;22.538;12.927;26.859;21.234;18.030
3028118.019;60.014;56.438;63.181;23.097;31.665;36.992;27.828;28.759
3028118.027;67.204;73.761;67.465;43.996;40.121;40.904;29.132;38.818
3028118.035;55.209;60.350;54.613;33.453;34.757;27.679;19.073;20.824
3028118.043;35.502;41.164;36.992;17.546;-3.092;8.829;6.631;-4.731
3028118.051;40.829;45.598;46.268;11.325;11.474;13.001;9.947;-0.112
3028118.059;39.637;37.774;43.549;9.127;9.313;16.205;12.368;4.880
3028118.067;48.392;42.953;51.148;19.334;18.328;23.954;18.179;16.168
3028118.075;54.985;59.530;63.144;31.702;35.316;31.032;24.065;25.220
3028118.083;28.498;35.539;36.024;13.225;4.806;10.543;4.508;6.184
3028118.109;35.353;37.402;40.345;8.792;7.451;19.297;14.454;14.938
3028118.117;33.155;31.441;41.425;0.186;12.666;16.578;14.789;9.760
3028118.125;45.970;37.886;52.527;5.700;22.948;28.163;27.195;21.197
3028118.133;46.939;35.763;55.693;7.078;19.819;25.965;27.083;18.291
3028118.141;57.928;48.131;65.267;26.785;34.198;29.989;32.857;22.911
3028118.149;27.195;18.179;32.596;-1.453;2.608;-2.906;-0.410;-6.258
3028118.157;33.304;29.728;38.855;6.631;8.382;-0.596;0.373;-4.023
