Timestamp,AFz,AF3,AF4,AF7,AF8,Pz,P3,P4,2024-05-16 11:47:01.533,fs=125
5445241.040;-9.760;-14.603;0.261;-17.583;-12.890;-11.846;-3.017;-4.582
5445241.048;-6.221;-10.692;0.745;-15.385;-12.368;-7.674;0.708;2.943
5445241.056;-5.513;-11.064;2.794;-17.546;-9.909;-7.115;-0.037;3.278
5445241.064;-0.931;-5.662;7.488;-11.586;-6.333;-5.476;0.522;3.800
5445241.072;5.886;1.825;14.119;-5.029;-0.596;0.745;6.333;8.605
5445241.080;3.800;0.261;11.027;-4.657;-3.688;-1.080;4.992;2.049
5445241.088;4.917;0.969;11.586;-4.061;-3.166;-1.453;6.668;0.633
5445241.096;9.052;1.192;14.752;-5.849;0.894;-5.662;4.098;-2.608
5445241.104;9.276;0.186;15.274;-8.605;2.161;-4.545;4.396;0.075
5445241.112;4.955;-3.092;13.150;-9.164;0.075;-6.482;1.900;-2.347
5445241.120;1.080;-5.886;8.196;-11.511;-5.998;-3.651;4.172;4.359
5445241.128;0.261;-5.625;5.811;-11.362;-9.425;-3.539;4.657;4.023
5445241.136;4.359;-0.745;9.872;-5.513;-5.998;-1.416;4.768;4.508
5445241.144;5.551;-0.335;12.778;-4.135;-0.708;-1.788;4.582;2.533
5445241.152;9.574;3.427;19.856;-2.235;7.376;-2.272;5.439;3.949
5445241.160;25.406;17.770;32.373;10.245;15.385;-0.149;8.978;5.290
5445241.168;45.672;41.611;50.887;34.086;29.169;-0.335;9.835;0.969
5445241.176;73.388;73.835;80.951;63.591;52.825;2.943;14.007;4.880
5445241.184;106.357;110.418;111.833;93.766;76.257;2.347;15.497;4.470
5445241.192;138.991;146.031;142.567;123.866;101.030;1.341;15.646;0.484
5445241.200;162.087;171.922;163.727;148.527;116.341;7.190;18.217;11.586
5445241.208;170.805;184.812;169.314;160.486;119.619;5.066;14.231;9.350
5445241.216;177.175;191.405;173.412;165.738;123.307;4.619;13.597;10.505
5445241.224;176.840;190.213;172.593;165.328;123.233;6.258;15.013;13.486
5445241.292;161.715;174.604;157.878;150.874;111.833;9.015;16.242;17.248
5445241.300;148.825;163.317;141.300;139.996;99.577;15.721;22.985;14.715
5445241.308;132.397;146.776;123.903;124.760;86.538;21.942;29.095;17.174
5445241.316;114.627;127.144;105.202;108.033;70.818;23.730;29.318;22.687
5445241.324;96.336;107.326;85.384;90.003;55.321;19.930;25.667;19.483
5445241.332;75.996;85.048;67.838;70.706;43.213;11.362;15.050;12.442
5445241.340;55.209;62.585;45.151;49.546;23.581;0.894;1.527;5.588
5445241.348;44.703;50.068;34.198;37.886;14.380;-7.935;-5.439;-2.831
5445241.356;43.064;45.449;34.235;32.261;16.280;-12.144;-7.190;-1.639
5445241.364;42.692;45.262;31.181;32.112;15.423;-14.007;-7.637;-0.596
5445241.372;39.414;39.637;27.232;27.791;14.938;-14.342;-8.270;-5.960
5445241.380;41.090;39.451;27.679;29.989;17.211;-4.917;-1.714;1.751
5445241.388;39.451;37.849;28.424;27.940;16.876;0.596;4.172;5.327
5445241.396;32.485;30.734;21.867;20.638;11.511;-1.490;3.763;0.075
5445241.404;29.504;27.418;17.844;16.764;8.717;1.080;5.849;-0.186
5445241.412;23.656;20.228;10.952;11.511;3.539;-0.484;4.359;0.298
5445241.420;21.160;16.987;8.158;9.649;0.820;-2.868;2.794;-4.694
5445241.428;19.483;14.864;5.625;8.531;-0.633;0.447;5.104;-3.316
5445241.436;14.715;9.798;0.596;4.508;-2.012;1.937;6.557;0.186
5445241.444;15.944;11.884;1.565;5.998;-0.373;6.631;12.517;11.995
5445241.452;7.860;4.247;-5.439;-4.359;-5.364;-3.241;6.482;-2.980
5445241.460;1.192;-2.272;-10.654;-9.835;-10.543;-10.468;1.192;-7.376
5445241.468;5.104;2.310;-9.499;-3.986;-11.027;-7.041;3.204;3.614
5445241.476;-0.782;-3.651;-16.056;-11.921;-16.652;-11.884;-2.608;-4.992
5445241.490;0.857;-1.751;-15.423;-9.350;-14.305;-10.021;-2.086;-6.780
5445241.498;1.602;-1.006;-13.560;-8.978;-11.474;-3.725;1.490;-2.310
5445241.506;-2.049;-4.619;-13.374;-11.958;-11.884;0.298;1.676;2.235
5445241.514;-4.694;-6.743;-14.268;-14.007;-14.715;1.155;2.123;0.410
5445241.522;-2.235;-4.694;-13.076;-13.225;-13.113;5.253;7.264;5.662
5445241.530;4.284;0.931;-6.706;-6.109;-5.811;7.041;11.921;8.009
5445241.538;5.588;0.894;-3.316;-5.327;-3.129;4.992;11.437;4.880
5445241.546;-1.565;-6.929;-7.562;-12.629;-7.562;-1.676;3.874;1.155
5445241.554;-4.694;-8.792;-6.743;-16.838;-9.649;-6.370;-1.751;-3.092
5445241.562;2.235;-2.868;0.037;-10.021;-5.141;1.378;5.737;3.986
5445241.570;7.972;2.049;4.098;-4.545;-1.341;11.176;14.268;11.139
5445241.578;9.686;3.539;5.215;-2.645;1.825;8.717;12.182;8.084
5445241.586;9.574;4.657;7.376;-0.559;2.868;7.227;10.692;7.413
5445241.594;7.562;2.161;7.898;-2.496;0.708;9.313;11.772;12.182
5445241.602;6.966;0.373;7.078;-3.874;-1.825;7.525;11.660;10.282
5445241.610;-1.118;-7.264;-1.788;-12.070;-11.139;-1.751;5.402;-3.092
5445241.618;-7.004;-11.139;-7.488;-16.168;-17.621;-5.364;3.725;-6.929
5445241.626;-8.047;-10.096;-8.084;-15.274;-19.446;-3.390;5.253;-1.304
5445241.634;-7.637;-9.090;-8.568;-12.554;-19.185;-1.639;5.178;-1.527
5445241.642;-4.023;-8.158;-3.874;-12.703;-16.019;3.539;6.929;5.774
5445241.650;-8.307;-13.001;-5.998;-18.515;-18.589;7.711;8.456;7.674
5445241.658;-12.033;-16.019;-7.786;-21.160;-20.675;7.451;10.617;4.247
5445241.666;-6.445;-10.431;-1.751;-15.460;-14.752;8.978;14.119;7.674
5445241.674;-0.857;-5.327;4.396;-10.841;-10.245;7.786;14.342;6.817
5445241.654;1.080;-3.166;4.917;-11.474;-10.654;3.092;9.835;1.155
5445241.662;-1.565;-6.482;1.304;-16.205;-14.193;1.974;8.009;0.037
5445241.670;-1.751;-8.680;3.465;-17.323;-11.809;-0.037;6.072;0.037
5445241.678;1.565;-4.321;6.855;-13.448;-8.792;1.974;9.313;4.582
5445241.686;5.104;0.745;9.537;-7.488;-8.233;5.886;13.523;9.835
5445241.694;-4.433;-7.898;1.080;-16.540;-15.646;-0.484;7.264;-3.949
5445241.702;-0.820;-5.551;5.625;-16.913;-10.356;1.527;7.078;-1.416
5445241.710;3.614;-2.272;7.078;-14.156;-9.164;0.745;5.625;-0.782
5445241.718;-0.782;-5.886;2.496;-16.019;-13.411;-1.416;3.725;0.149
5445241.726;0.112;-3.316;4.098;-10.878;-11.809;-1.080;3.390;2.123
5445241.734;0.559;-4.098;5.886;-13.895;-9.723;-1.155;3.166;-0.112
5445241.742;5.402;0.596;10.394;-8.978;-5.253;5.066;9.313;7.004
5445241.750;3.576;-1.602;8.680;-10.766;-5.551;3.278;10.468;1.751
5445241.758;-4.321;-9.499;0.596;-18.366;-12.107;-3.763;4.172;-3.912
5445241.766;-11.474;-17.881;-5.066;-28.908;-19.409;-9.388;-2.049;-4.917
5445241.774;-12.480;-18.664;-7.041;-28.834;-21.122;-13.374;-7.823;-5.700
5445241.782;-10.915;-19.111;-7.898;-31.218;-21.830;-14.640;-8.829;-8.754
5445241.790;-8.009;-17.323;-4.657;-30.659;-18.924;-14.640;-7.078;-10.356
5445241.798;-8.643;-18.440;-2.831;-31.106;-16.317;-12.778;-4.657;-7.637
5445241.806;-16.317;-26.971;-7.898;-38.520;-20.452;-17.062;-6.445;-17.434
5445241.814;-13.597;-24.512;-7.115;-33.639;-19.409;-9.835;-1.676;-6.258
5445241.822;-12.815;-22.762;-9.350;-31.665;-20.862;-9.015;-1.974;-6.072
5445241.830;-9.462;-18.403;-7.637;-28.722;-19.036;-4.955;0.373;-1.192
5445241.838;-7.600;-15.423;-3.800;-25.369;-18.552;-2.272;2.310;2.347
5445241.817;-1.639;-10.133;2.049;-21.085;-12.778;5.625;10.468;10.543
5445241.825;2.161;-7.302;7.004;-19.409;-6.296;13.039;18.589;13.225
5445241.833;3.576;-7.227;7.711;-20.340;-5.364;14.938;19.111;12.778
5445241.841;7.525;-3.800;9.239;-14.827;-2.794;16.615;20.042;14.082
5445241.849;8.978;0.112;9.984;-11.958;-0.931;14.864;22.128;6.445
5445241.857;8.047;0.931;10.319;-10.356;-2.533;10.617;19.521;4.806
5445241.865;11.623;3.390;14.640;-7.749;2.794;12.070;20.452;11.586
5445241.873;11.511;1.751;13.076;-9.127;2.868;8.866;16.689;8.196
5445241.881;6.817;-3.688;6.333;-14.715;-4.284;5.402;11.511;5.737
5445241.889;8.829;-2.533;5.253;-13.448;-3.800;8.419;11.660;10.841
5445241.897;6.966;-3.614;6.482;-14.715;-2.868;5.402;8.047;9.090
5445241.905;0.261;-8.494;0.484;-19.893;-7.786;-2.645;2.757;-0.671
5445241.913;1.341;-5.849;-1.118;-18.105;-8.345;0.745;8.196;2.310
5445241.921;5.849;-0.373;2.570;-10.878;-3.614;7.823;14.901;8.643
5445241.929;1.937;-5.625;-0.373;-14.752;-6.817;5.253;8.866;6.817
5445241.937;1.863;-5.886;-0.298;-17.248;-6.706;5.402;7.004;8.456
5445241.945;3.241;-3.800;0.782;-15.758;-4.843;2.682;5.700;7.451
5445241.953;3.092;-4.768;-1.416;-16.950;-6.966;3.651;6.743;7.488
5445241.961;3.502;-5.364;-4.247;-18.366;-8.792;6.221;8.382;8.605
5445241.969;1.080;-6.109;-8.307;-18.775;-11.809;7.339;6.892;11.139
5445241.977;4.321;-2.794;-2.906;-15.125;-7.115;12.405;12.517;15.050
5445241.985;1.788;-5.327;-5.923;-18.105;-10.356;8.382;10.170;7.376
5445241.993;-5.998;-11.995;-14.380;-24.810;-18.664;1.304;4.657;-0.708
5445242.001;-6.817;-13.784;-17.807;-24.959;-21.458;-4.694;-2.012;-3.614
5445241.952;-1.751;-8.009;-12.554;-18.254;-14.678;-8.456;-5.551;-7.823
5445241.960;4.359;-0.745;-5.476;-12.144;-7.972;-5.513;-2.347;-5.923
5445241.968;7.227;0.969;-4.657;-10.356;-7.674;-5.700;-1.974;-5.290
5445241.976;13.299;6.221;-0.373;-5.327;-4.172;-1.788;2.868;1.416
5445241.984;20.415;13.188;6.407;0.037;2.533;-0.447;4.172;1.565
5445241.992;21.867;16.131;8.196;1.229;5.290;-3.986;-1.304;-1.192
5445242.000;21.942;17.099;7.860;1.192;6.072;-7.264;-4.172;-2.496
5445242.008;25.369;19.968;8.345;2.831;7.115;-4.247;-0.149;0.633
5445242.016;20.415;14.901;4.955;-2.235;4.619;-7.004;-1.788;-2.906
5445242.024;18.366;14.305;0.671;0.447;1.676;-5.215;0.186;-3.092
5445242.032;17.509;15.683;-2.682;3.949;-1.565;-3.874;1.043;-0.224
5445242.040;13.523;13.709;-5.998;2.459;-5.215;-6.035;0.149;-3.949
5445242.048;11.548;11.772;-7.190;-0.112;-4.470;-3.837;0.671;1.900
5445242.056;13.858;14.380;-1.676;5.588;1.602;-1.714;0.373;4.172
5445242.064;26.859;28.871;12.740;16.801;13.262;-1.527;0.224;-2.980
5445242.072;47.125;52.787;31.851;39.898;25.481;4.470;6.370;2.943
5445242.080;75.363;82.552;67.018;66.571;60.275;5.178;6.706;7.637
5445242.088;114.441;119.656;111.610;91.493;99.614;0.633;2.608;2.384
5445242.096;146.218;153.109;148.192;116.415;132.173;2.272;4.172;6.743
5445242.104;173.412;180.788;180.081;133.179;160.448;5.625;6.594;11.474
5445242.112;188.686;193.901;199.191;138.171;176.616;4.768;3.166;9.462
5445242.120;201.687;204.630;218.488;142.790;195.466;8.531;5.141;10.990
5445242.128;206.865;208.206;225.268;143.908;200.383;14.752;10.915;16.913
5445242.136;204.705;208.244;220.574;148.527;193.305;17.621;15.348;17.695
5445242.146;196.770;198.930;214.539;140.108;186.488;19.222;16.168;19.222
5445242.154;190.325;192.299;206.418;135.899;176.281;15.572;15.832;12.517
5445242.162;179.671;181.906;192.411;130.162;162.274;13.337;17.211;10.282
5445242.170;160.411;161.715;171.550;110.790;145.696;7.711;11.362;7.525
5445242.178;141.189;140.481;155.047;90.487;132.471;6.966;5.513;11.176
5445242.186;123.680;120.401;140.667;72.308;120.476;9.537;4.917;12.182
5445242.194;108.369;104.457;124.387;58.860;106.469;0.335;-3.837;-1.080
5445242.202;94.809;91.977;109.114;50.031;91.121;-1.229;-4.955;1.378
5445242.210;81.398;80.056;93.915;41.798;75.251;2.533;-1.900;11.437
5445242.218;73.761;74.655;84.825;40.196;66.608;3.651;1.155;5.215
5445242.226;67.279;69.365;74.841;38.072;56.103;-0.671;-0.745;-0.447
5445242.234;60.536;61.840;66.794;33.937;50.105;-6.668;-7.711;-5.886
5445242.242;51.595;52.191;57.593;24.363;42.953;-6.594;-9.499;-6.407
5445242.250;40.457;39.525;47.050;15.050;34.235;-7.376;-10.207;-10.543
5445242.258;32.857;30.436;40.159;6.780;28.759;-7.302;-9.835;-14.640
5445242.266;27.753;24.289;35.614;2.198;25.295;-1.863;-5.774;-6.035
5445242.274;21.905;17.993;29.951;-0.186;21.420;-0.149;-2.235;-3.278
5445242.282;15.609;11.474;27.083;-5.178;19.222;1.714;0.671;-0.037
5445242.290;14.231;8.047;26.003;-9.760;19.372;-0.857;-1.341;-6.482
5445242.298;17.323;8.605;30.361;-11.474;24.512;1.937;1.080;-3.427
5445242.306;13.895;3.912;27.642;-15.944;24.028;-3.688;-4.470;-6.258
5445242.314;6.557;-1.304;19.073;-17.285;15.274;-9.015;-12.070;-6.258
5445242.322;2.943;-3.204;14.864;-18.552;10.505;-5.960;-7.451;-5.998
5445242.330;1.974;-5.178;10.356;-20.117;5.886;-3.129;-3.204;-4.396
5445242.329;0.410;-6.668;10.654;-20.415;4.396;-4.172;-2.198;-6.892
5445242.337;-8.009;-15.311;1.863;-27.679;-2.943;-9.798;-6.258;-15.497
5445242.345;-17.621;-24.252;-5.513;-36.359;-7.413;-10.394;-8.643;-13.560
5445242.353;-22.501;-29.132;-11.548;-39.674;-12.554;-5.737;-5.551;-8.903
5445242.361;-26.785;-34.161;-17.658;-44.852;-18.813;-9.611;-8.866;-12.890
5445242.369;-24.401;-32.336;-13.523;-44.629;-16.391;-7.004;-8.978;-8.680
5445242.377;-20.191;-29.020;-10.692;-42.692;-14.454;-3.353;-6.519;-4.992
5445242.385;-28.089;-37.402;-19.334;-50.068;-22.277;-11.176;-13.597;-18.328
5445242.393;-28.983;-37.476;-18.552;-48.764;-19.632;-6.407;-7.749;-11.064
5445242.401;-18.701;-24.773;-12.256;-32.820;-16.205;-7.898;-6.966;-11.511
5445242.409;-15.572;-20.973;-11.958;-29.169;-19.856;-9.462;-7.898;-12.405
5445242.417;-9.872;-14.566;-6.296;-20.824;-17.472;-7.898;-7.786;-9.388
5445242.425;-0.224;-4.917;1.080;-11.846;-10.729;-6.594;-5.513;-11.772
5445242.433;2.198;-1.825;2.570;-8.494;-8.903;1.006;1.378;-5.253
5445242.441;-5.551;-9.984;-6.817;-15.534;-17.211;-0.596;0.000;-11.213
5445242.449;-10.654;-14.678;-13.039;-21.756;-24.699;-3.129;-3.390;-11.772
5445242.457;-10.133;-14.491;-12.666;-20.750;-22.464;-3.800;-4.247;-7.935
5445242.465;-14.231;-18.254;-17.248;-23.209;-25.816;-4.955;-4.098;-8.941
5445242.473;-12.517;-17.025;-16.131;-23.581;-24.103;1.602;2.421;-2.123
5445242.481;-13.709;-17.881;-16.652;-23.618;-24.512;1.304;3.129;-5.402
5445242.489;-22.464;-25.220;-24.736;-31.106;-31.628;3.017;3.353;-5.886
5445242.497;-25.630;-29.914;-27.902;-35.688;-34.198;8.717;5.588;4.694
5445242.505;-29.840;-35.651;-31.479;-39.414;-34.831;8.233;3.725;4.880
5445242.513;-35.614;-39.786;-35.800;-41.313;-37.625;9.649;6.147;2.943
5445242.495;-35.353;-37.849;-37.365;-41.239;-38.482;16.838;15.087;9.239
5445242.503;-30.734;-32.559;-31.069;-35.577;-32.149;19.707;18.515;12.070
5445242.511;-30.100;-31.888;-29.169;-33.416;-30.361;10.878;10.766;-0.671
5445242.519;-25.444;-29.057;-26.748;-30.100;-27.493;7.376;7.525;1.788
5445242.527;-23.879;-29.281;-27.157;-31.888;-25.779;6.892;5.104;4.135
5445242.535;-26.748;-31.106;-27.865;-32.745;-25.108;1.304;-1.639;-0.186
5445242.543;-26.226;-30.212;-27.940;-30.957;-24.587;-3.353;-4.917;-5.923
5445242.551;-16.578;-20.452;-19.073;-21.830;-16.950;4.172;1.639;4.396
5445242.559;-17.285;-21.681;-19.968;-22.687;-18.328;1.751;-1.937;-1.639
5445242.567;-20.377;-24.661;-21.160;-24.624;-19.073;4.470;-1.080;-1.527
5445242.575;-18.403;-22.277;-20.377;-22.799;-17.211;5.588;2.608;-1.639
5445242.583;-14.231;-16.615;-20.266;-16.578;-14.864;8.792;8.345;4.880
5445242.591;-18.217;-20.489;-24.475;-19.856;-18.813;5.588;5.215;1.676
5445242.599;-19.297;-22.240;-25.705;-20.824;-20.377;3.539;-0.112;6.258
5445242.607;-22.538;-25.667;-29.206;-22.948;-22.799;-1.714;-4.433;-5.625
5445242.615;-25.705;-29.020;-33.453;-26.412;-26.301;-0.559;-3.278;-4.731
5445242.623;-27.604;-29.616;-35.241;-27.530;-27.493;-0.820;-2.570;-2.645
5445242.631;-33.937;-37.029;-40.978;-35.018;-31.628;-11.884;-11.586;-11.176
5445242.639;-37.551;-42.096;-45.933;-40.270;-35.912;-21.718;-22.165;-15.385
5445242.647;-35.912;-38.370;-44.033;-34.124;-35.092;-18.179;-19.595;-9.723
5445242.655;-32.037;-33.490;-41.611;-29.691;-32.298;-12.740;-15.311;-4.061
5445242.663;-28.387;-29.914;-40.196;-26.226;-29.691;-7.711;-9.611;-6.445
5445242.671;-26.599;-28.200;-39.786;-26.152;-28.610;-2.645;-7.525;1.937
5445242.679;-27.120;-27.791;-40.010;-25.071;-31.032;-4.917;-10.170;-1.565
5445242.643;-24.140;-24.363;-34.571;-22.501;-25.705;1.565;-2.906;5.588
5445242.651;-20.601;-25.816;-24.661;-28.163;-9.537;-5.774;-8.978;1.527
5445242.659;-17.956;-24.326;-19.222;-33.304;0.075;-13.933;-17.323;-3.763
5445242.667;-20.154;-27.902;-16.950;-43.623;6.370;-18.254;-21.048;-10.952
5445242.675;-23.469;-34.161;-13.076;-57.369;15.460;-20.191;-24.587;-10.915
5445242.683;-27.455;-43.623;-8.829;-72.941;28.387;-23.432;-29.542;-14.789
5445242.691;-32.447;-53.532;-7.637;-88.178;38.370;-24.624;-31.479;-15.832
5445242.699;-34.235;-56.848;-2.198;-95.293;50.738;-15.385;-22.687;-5.849
5445242.707;-38.035;-62.995;1.863;-105.090;61.467;-10.654;-19.073;-3.725
5445242.715;-44.927;-72.569;0.075;-117.831;65.975;-15.013;-25.071;-4.582
5445242.723;-49.658;-77.896;-4.061;-127.181;67.502;-19.558;-29.616;-7.600
5445242.731;-54.128;-83.894;-3.614;-136.159;71.041;-23.916;-33.677;-11.884
5445242.739;-53.942;-84.639;1.453;-137.985;79.125;-21.718;-32.224;-10.729
5445242.747;-52.713;-86.054;6.780;-140.592;86.613;-20.191;-32.298;-8.866
5445242.755;-48.019;-84.676;13.858;-142.008;95.144;-18.999;-31.553;-13.933
5445242.763;-45.225;-82.403;20.191;-142.008;102.073;-11.139;-26.077;-5.662
5445242.771;-54.725;-93.393;12.890;-155.531;94.548;-13.188;-29.393;-5.700
5445242.779;-59.046;-96.001;9.164;-155.494;89.630;-16.503;-31.590;-12.442
5445242.787;-62.622;-98.646;8.419;-157.133;88.625;-15.870;-32.559;-9.686
5445242.795;-65.677;-102.185;6.557;-160.001;84.080;-21.160;-36.545;-12.815
5445242.803;-62.361;-98.050;10.021;-154.227;84.378;-20.377;-32.447;-10.394
5445242.811;-64.932;-101.812;9.388;-159.070;82.701;-26.003;-32.671;-15.981
5445242.819;-65.006;-101.738;7.898;-159.331;80.615;-23.283;-30.994;-11.325
5445242.827;-68.918;-103.265;6.109;-159.740;76.406;-25.034;-37.029;-11.437
5445242.793;-67.651;-101.961;6.557;-157.058;75.810;-22.873;-38.072;-10.580
5445242.801;-65.342;-101.142;10.096;-155.345;79.423;-20.601;-33.341;-8.680
5445242.809;-69.290;-105.388;6.482;-160.225;75.325;-29.542;-39.376;-14.454
5445242.817;-72.420;-107.326;2.198;-162.944;69.700;-37.961;-46.901;-19.819
5445242.825;-74.953;-108.220;0.373;-162.646;66.049;-38.520;-47.870;-22.389
5445242.833;-76.108;-108.145;0.894;-162.609;64.410;-39.637;-49.323;-19.185
5445242.841;-73.388;-103.004;2.980;-155.158;65.602;-34.198;-45.374;-16.838
5445242.849;-69.700;-98.459;7.376;-149.459;66.794;-25.183;-37.476;-13.486
5445242.857;-71.526;-100.024;6.668;-150.539;65.863;-21.048;-33.826;-11.101
5445242.865;-70.333;-98.981;6.743;-149.943;67.279;-17.993;-31.032;-8.754
5445242.873;-64.895;-92.648;12.554;-141.189;70.520;-15.274;-28.908;-4.768
5445242.881;-68.918;-98.012;9.872;-145.063;65.789;-17.174;-31.106;-11.399
5445242.889;-72.792;-103.638;7.041;-150.427;62.250;-18.738;-33.863;-10.990
5445242.897;-76.815;-108.518;3.614;-155.903;59.381;-22.724;-36.731;-15.236
5445242.905;-78.902;-111.796;0.633;-161.566;55.060;-24.512;-37.774;-14.193
5445242.913;-75.586;-108.071;1.378;-158.437;55.991;-23.320;-36.061;-15.572
5445242.921;-71.339;-101.328;4.135;-149.012;60.871;-22.501;-33.528;-18.105
5445242.929;-67.130;-97.267;9.350;-145.137;64.149;-20.526;-31.367;-16.876
5445242.937;-68.918;-98.534;7.302;-145.175;59.903;-26.785;-37.551;-20.564
5445242.945;-65.453;-93.132;10.543;-139.400;61.132;-22.948;-35.018;-13.933
5445242.953;-64.857;-92.238;8.531;-137.091;60.238;-19.409;-33.490;-11.027
5445242.961;-69.141;-96.634;4.359;-142.753;57.556;-17.285;-31.255;-12.107
5445242.969;-74.357;-101.514;1.937;-145.882;54.762;-20.750;-32.820;-15.646
5445242.977;-72.606;-99.801;1.229;-144.243;55.358;-24.252;-34.049;-19.521
5445242.972;-68.322;-95.889;5.439;-140.704;59.530;-27.008;-36.880;-16.429
5445242.980;-70.445;-98.459;3.651;-144.318;56.587;-31.516;-41.425;-17.993
5445242.988;-70.333;-96.560;2.831;-141.859;54.687;-29.244;-38.892;-16.205
5445242.996;-66.347;-91.791;4.955;-137.538;56.848;-22.575;-32.298;-13.150
5445243.004;-60.908;-86.911;9.462;-130.497;60.238;-16.913;-29.169;-9.127
5445243.012;-59.791;-85.607;12.293;-129.864;62.175;-13.188;-26.822;-5.960
5445243.020;-67.167;-91.940;3.316;-133.999;53.272;-15.125;-29.393;-6.296
5445243.028;-71.079;-97.975;2.719;-140.965;53.197;-21.458;-33.937;-10.580
5445243.036;-58.115;-87.731;16.466;-132.211;67.465;-26.561;-37.998;-15.162
5445243.044;-53.458;-81.509;17.248;-125.803;68.732;-26.152;-37.029;-11.288
5445243.052;-58.152;-83.782;10.580;-127.852;62.101;-29.989;-39.525;-15.944
5445243.060;-59.605;-83.260;9.611;-126.623;60.797;-30.883;-39.488;-17.546
5445243.068;-62.510;-86.986;6.147;-127.554;58.003;-28.722;-36.806;-18.552
5445243.076;-65.751;-89.072;0.596;-125.766;51.744;-27.716;-34.682;-17.248
5445243.084;-64.671;-85.421;0.671;-122.301;50.329;-28.908;-35.577;-19.260
5445243.092;-60.424;-81.435;5.104;-120.290;56.215;-25.891;-32.336;-16.354
5445243.100;-59.828;-82.143;7.451;-120.141;58.413;-26.338;-33.341;-11.772
5445243.108;-59.567;-81.100;5.774;-118.539;56.699;-25.742;-32.261;-7.227
5445243.116;-63.144;-82.739;-0.671;-120.364;50.180;-30.696;-35.241;-17.472
5445243.124;-65.453;-84.564;-3.204;-122.599;45.486;-30.808;-36.731;-17.360
5445243.132;-59.828;-79.647;-0.931;-116.974;47.013;-30.510;-39.153;-14.566
5445243.140;-60.052;-80.578;-0.671;-117.235;46.380;-36.024;-45.635;-16.727
5445243.148;-58.264;-79.125;3.017;-118.054;48.988;-33.490;-45.151;-15.460
5445243.156;-55.358;-77.337;5.476;-116.341;51.223;-34.124;-45.262;-15.162
5445243.155;-53.830;-75.810;4.880;-114.925;50.887;-37.700;-48.317;-17.211
5445243.163;-54.426;-77.933;4.061;-117.272;48.913;-40.308;-49.882;-22.389
5445243.171;-54.240;-78.343;2.459;-116.006;47.795;-39.600;-48.876;-22.128
5445243.179;-50.478;-73.314;4.731;-111.200;50.813;-37.402;-46.492;-20.228
5445243.187;-45.523;-68.508;8.382;-106.320;52.974;-33.863;-40.233;-15.497
5445243.195;-44.927;-67.316;7.972;-102.930;51.484;-35.428;-41.984;-19.372
5445243.203;-48.950;-70.482;3.688;-103.377;47.646;-39.414;-48.243;-23.581
5445243.211;-49.174;-70.333;3.949;-103.079;50.217;-39.786;-49.695;-25.183
5445243.219;-46.752;-68.396;4.247;-101.291;51.111;-34.682;-44.815;-24.699
5445243.227;-51.111;-73.873;1.006;-106.618;46.268;-30.324;-41.388;-21.793
5445243.235;-55.134;-75.847;-5.104;-108.667;39.190;-25.518;-36.843;-14.901
5445243.243;-53.793;-72.569;-7.637;-104.532;36.061;-24.475;-34.943;-17.881
5445243.251;-51.334;-67.428;-8.270;-99.353;36.322;-16.876;-28.722;-8.568
5445243.259;-50.925;-65.677;-6.743;-99.130;39.525;-16.317;-26.859;-11.772
5445243.267;-48.876;-62.957;-6.333;-98.497;39.488;-15.460;-24.624;-9.239
5445243.275;-50.329;-64.708;-9.239;-99.503;38.557;-22.650;-31.143;-19.111
5445243.283;-46.939;-61.579;-6.668;-94.250;41.574;-22.240;-31.218;-16.391
5445243.291;-48.317;-63.218;-7.153;-95.367;41.425;-21.718;-33.006;-13.374
5445243.299;-54.762;-69.663;-10.505;-100.620;38.520;-24.475;-37.029;-15.199
5445243.307;-53.868;-68.285;-11.548;-99.987;38.855;-27.567;-38.520;-17.174
5445243.315;-51.521;-65.453;-7.264;-96.001;43.660;-25.928;-36.061;-15.795
5445243.323;-44.294;-57.369;0.745;-85.123;51.633;-25.444;-35.875;-15.348
5445243.331;-33.863;-48.690;11.176;-79.609;61.877;-24.885;-36.918;-14.901
5445243.339;-18.440;-36.918;31.777;-76.182;81.062;-22.762;-38.110;-10.990
5445243.347;-13.746;-34.869;43.847;-76.927;92.015;-26.934;-42.804;-13.150
5445243.355;24.661;7.115;78.790;-35.428;115.708;-26.710;-40.159;-11.623
5445243.363;73.649;58.897;123.605;10.505;147.223;-23.320;-34.310;-8.307
5445243.371;116.266;109.524;156.239;57.817;163.317;-19.930;-29.765;-6.892
5445243.379;146.665;146.553;175.759;97.565;169.426;-13.486;-22.836;-0.820
5445243.387;173.450;179.298;192.672;134.297;173.338;-13.150;-19.632;-5.923
5445243.395;195.876;208.505;203.475;171.773;170.879;-9.350;-15.236;-5.029
5445243.403;208.952;229.813;203.848;201.166;159.815;2.347;-4.843;5.960
5445243.411;214.055;240.393;195.727;220.314;143.163;10.580;2.272;13.299
5445243.419;212.155;241.548;183.359;229.813;126.697;15.646;6.668;14.938
5445243.427;203.624;234.991;168.830;228.360;111.051;12.405;2.608;13.150
5445243.435;194.311;229.664;150.464;229.068;90.599;6.892;0.186;8.307
5445243.443;179.559;218.675;128.038;222.474;68.024;5.923;1.863;7.339
5445243.451;168.830;209.957;113.063;217.371;54.613;5.998;3.874;6.929
5445243.459;151.061;192.374;91.381;205.487;35.241;13.672;10.207;9.984
5445243.467;138.097;178.181;80.690;193.194;26.301;21.122;14.342;18.999
5445243.475;124.201;164.285;66.534;181.608;14.566;14.827;9.313;9.723
5445243.483;108.555;147.633;50.925;168.420;2.608;13.150;11.027;7.413
5445243.491;91.568;128.224;37.514;153.184;-9.164;12.964;10.654;8.084
5445243.499;75.586;109.896;23.581;136.457;-21.942;11.809;8.717;6.706
5445243.507;61.691;95.516;10.580;123.940;-34.608;7.227;0.671;5.066
5445243.515;48.727;82.627;-0.335;115.335;-42.804;5.625;-2.198;4.023
5445243.523;39.823;71.339;-5.737;106.357;-46.156;6.929;-1.043;-2.459
5445243.531;35.167;65.267;-6.594;101.067;-46.864;15.795;6.296;3.092
5445243.499;31.739;61.281;-7.004;96.671;-47.199;22.687;13.970;6.631
5445243.507;24.363;54.762;-13.448;91.009;-53.123;23.618;15.534;7.004
5445243.515;20.489;51.372;-16.056;89.668;-53.644;24.810;17.919;5.178
5445243.523;17.136;46.864;-16.987;87.880;-53.719;27.157;22.054;6.929
5445243.531;12.256;41.388;-19.409;82.441;-57.444;24.699;21.160;8.047
5445243.539;9.276;36.620;-20.638;77.970;-58.711;23.656;21.495;8.419
5445243.547;8.978;36.173;-21.495;77.263;-57.928;21.607;21.979;4.359
5445243.555;8.643;38.706;-22.799;79.796;-58.860;24.550;25.555;12.890
5445243.563;-2.868;26.152;-35.092;67.130;-71.526;26.822;25.481;16.987
5445243.571;-4.992;24.773;-38.706;69.365;-75.623;21.458;19.670;5.923
5445243.579;11.735;42.580;-20.899;90.338;-64.448;23.656;23.209;7.190
5445243.587;12.666;43.921;-21.048;92.946;-66.198;25.444;22.948;12.107
5445243.595;16.727;49.770;-19.334;98.646;-66.347;19.968;17.695;5.327
5445243.603;12.964;45.039;-23.916;93.244;-71.153;20.154;19.036;6.817
5445243.611;5.551;36.657;-31.143;85.719;-77.114;22.985;20.899;12.890
5445243.619;0.820;32.037;-36.769;80.019;-79.833;24.848;21.756;16.317
5445243.627;1.080;34.384;-34.980;82.999;-79.237;22.091;21.011;12.703
5445243.635;3.129;36.433;-33.267;85.905;-77.859;26.897;26.114;18.701
5445243.643;-8.605;23.320;-44.182;72.010;-87.582;23.656;20.973;8.792
5445243.651;-17.211;14.231;-52.936;62.771;-95.032;21.905;18.999;5.029
5445243.659;-17.658;14.007;-54.203;64.038;-94.995;26.636;23.991;9.350
5445243.667;-20.377;10.505;-55.805;60.573;-94.958;27.157;21.607;12.517
5445243.675;-22.389;6.519;-53.905;55.283;-92.387;28.424;19.073;13.858
5445243.683;-20.601;6.668;-54.017;57.891;-91.903;30.659;23.693;15.050
5445243.649;-19.148;8.121;-52.527;60.834;-90.227;33.118;28.126;16.093
5445243.657;-19.781;9.313;-55.209;61.132;-91.456;30.957;28.275;13.746
5445243.665;-21.197;6.929;-53.458;57.817;-91.866;21.532;20.042;8.270
5445243.673;-19.483;7.674;-51.036;58.413;-90.338;12.033;12.070;3.725
5445243.681;-14.529;12.703;-46.529;61.430;-85.942;11.846;12.293;8.121
5445243.689;-16.019;11.362;-47.237;61.020;-87.209;7.711;8.568;3.837
5445243.697;-12.107;15.907;-44.368;65.118;-84.043;11.101;11.660;3.837
5445243.705;-3.055;23.246;-35.651;71.637;-74.431;19.185;18.291;8.270
5445243.713;-0.596;24.736;-32.000;73.984;-71.228;21.234;19.819;7.972
5445243.721;-4.284;20.973;-34.161;70.482;-71.898;16.466;15.907;5.066
5445243.729;-8.866;15.683;-38.221;66.273;-72.792;7.674;7.637;-3.017
5445243.737;-10.468;14.268;-41.015;64.485;-73.984;8.009;8.233;0.335
5445243.745;-18.813;6.184;-49.137;57.518;-81.956;5.215;6.221;-0.224
5445243.753;-24.699;0.000;-53.085;50.738;-86.129;1.192;1.192;-4.731
5445243.761;-22.613;1.676;-50.738;51.893;-83.745;2.608;1.639;-4.321
5445243.769;-13.597;10.654;-42.282;60.759;-75.102;7.935;7.749;1.080
5445243.777;-7.264;17.434;-35.912;68.061;-68.359;12.107;14.119;7.823
5445243.785;-9.798;13.746;-39.823;65.193;-70.781;7.525;8.903;5.029
5445243.793;-13.523;10.096;-41.649;58.860;-72.457;2.570;2.533;-1.714
5445243.801;-19.260;5.141;-47.609;54.911;-77.225;1.602;0.075;-3.502
5445243.809;-20.489;5.215;-50.217;55.544;-79.609;2.682;1.267;-1.937
5445243.817;-19.185;7.376;-47.833;57.369;-76.182;5.700;6.258;-3.241
5445243.825;-20.750;5.290;-49.695;54.166;-75.474;7.190;6.780;-0.075
5445243.833;-15.311;8.345;-43.698;56.885;-69.961;10.580;9.015;2.906
5445243.797;-15.385;7.190;-44.852;53.048;-71.079;7.078;4.098;2.794
5445243.805;-15.572;8.792;-44.815;52.527;-71.339;5.402;1.937;5.178
5445243.813;-12.293;11.846;-44.182;57.481;-67.838;6.743;4.806;8.605
5445243.821;-11.250;12.070;-44.443;56.811;-65.453;4.247;4.396;3.017
5445243.829;-9.425;15.274;-40.941;60.014;-63.293;5.774;7.413;-3.241
5445243.837;-6.333;17.472;-37.961;62.659;-59.716;11.399;12.405;1.751
5445243.845;-10.803;12.182;-43.698;57.481;-64.746;9.425;11.586;-4.135
5445243.853;-11.548;12.629;-45.449;59.009;-65.975;16.578;17.881;3.166
5445243.861;-12.368;11.884;-45.449;58.673;-65.640;19.334;19.111;6.072
5445243.869;-15.497;11.213;-47.907;57.966;-67.800;18.440;17.248;4.061
5445243.877;-14.603;12.703;-48.950;59.530;-67.987;21.309;18.440;11.362
5445243.885;-17.472;8.792;-51.819;55.730;-71.228;17.583;14.156;12.219
5445243.893;-19.372;5.513;-52.974;52.415;-72.978;8.605;4.172;5.998
5445243.901;-17.881;5.998;-51.334;51.148;-69.253;2.347;-1.192;-0.782
5445243.909;-13.113;10.915;-48.727;55.656;-65.267;2.980;1.676;1.080
5445243.917;-11.660;12.666;-47.684;56.215;-63.814;4.098;3.241;1.565
5445243.925;-7.525;16.131;-41.276;58.934;-57.593;12.480;12.517;7.525
5445243.933;-6.445;15.944;-41.164;59.046;-56.513;12.070;11.660;0.894
5445243.941;-10.319;10.915;-46.119;53.793;-61.020;9.611;5.588;1.639
5445243.949;-12.964;7.525;-48.615;47.460;-62.548;6.109;1.155;4.843
5445243.957;-17.434;3.017;-54.054;40.084;-67.241;1.602;-3.055;2.123
5445243.965;-21.942;-0.857;-57.630;36.582;-70.445;-1.490;-4.619;2.049
5445243.973;-19.409;1.714;-53.868;40.755;-66.385;0.335;-3.278;3.576
5445243.981;-7.786;14.268;-44.666;56.811;-58.934;5.998;3.092;7.264
5445243.935;-5.141;18.477;-42.245;61.467;-56.475;7.451;6.407;3.502
5445243.943;-5.923;19.521;-43.400;60.573;-57.481;10.505;9.499;0.484
5445243.951;-9.239;15.572;-46.939;56.475;-61.430;11.213;10.654;2.459
5445243.959;-9.574;15.497;-46.901;57.183;-59.605;9.388;10.468;2.310
5445243.967;-10.058;15.609;-50.664;58.264;-61.914;4.657;5.886;-0.559
5445243.975;-11.697;15.311;-50.180;58.077;-62.734;2.943;4.247;-1.490
5445243.983;-12.703;13.299;-50.068;54.874;-62.436;7.600;7.413;3.166
5445243.991;-14.976;10.021;-52.154;52.974;-63.367;8.717;6.966;5.364
5445243.999;-18.664;6.519;-56.326;49.472;-64.485;8.456;6.407;0.633
5445244.007;-16.131;8.196;-54.352;53.160;-61.095;7.451;7.376;3.129
5445244.015;-16.615;6.855;-53.868;50.627;-60.089;2.719;3.353;1.714
5445244.023;-20.005;3.166;-56.215;46.678;-63.442;-0.186;-0.261;-0.037
5445244.031;-20.415;2.719;-56.438;48.466;-64.187;3.837;2.682;5.513
5445244.039;-18.030;5.998;-53.905;50.627;-60.052;10.617;7.749;15.199
5445244.047;-19.148;4.992;-54.762;45.560;-62.026;2.943;0.931;2.086
5445244.055;-16.242;7.451;-51.782;46.529;-61.877;0.522;-0.671;2.123
5445244.063;-22.426;2.608;-59.530;43.213;-69.812;-7.786;-7.004;-8.047
5445244.071;-22.091;6.445;-56.662;49.621;-67.502;-6.929;-3.837;-7.823
5445244.079;-14.603;14.305;-47.572;58.040;-58.636;4.135;8.121;3.725
5445244.087;-18.813;7.637;-51.521;48.168;-62.808;2.086;3.465;6.929
5445244.095;-25.779;-0.186;-57.258;42.096;-69.253;-2.608;-3.278;1.490
5445244.103;-27.753;-1.676;-59.493;40.270;-72.271;-6.296;-7.041;-5.923
5445244.111;-22.985;5.066;-50.962;47.162;-64.708;-9.276;-10.692;-8.419
5445244.119;-18.515;8.978;-42.729;50.776;-58.636;-11.176;-12.219;-11.288
5445244.188;-16.280;10.245;-38.035;51.185;-54.836;-11.772;-10.803;-12.964
5445244.196;-9.574;16.838;-29.989;59.679;-48.093;-3.912;-0.857;-4.396
5445244.204;-11.735;15.497;-34.086;59.642;-51.558;-2.421;0.447;1.676
5445244.212;-15.460;12.554;-36.657;57.556;-55.619;-3.576;-2.496;-0.112
5445244.220;-18.030;9.499;-38.072;51.968;-57.332;-8.158;-8.978;-8.829
5445244.228;-15.981;11.809;-32.112;52.638;-53.421;-3.017;-5.364;-2.570
5445244.236;-15.758;11.772;-31.255;54.836;-54.240;-0.298;-1.155;-1.527
5445244.244;-14.417;12.182;-28.834;52.638;-51.633;2.682;1.602;0.410
5445244.252;-14.119;11.921;-27.530;51.223;-49.025;3.725;2.459;3.241
5445244.260;-17.211;8.307;-29.467;48.801;-50.403;1.043;1.006;-3.427
5445244.268;-18.254;5.253;-31.739;44.703;-54.576;-2.906;-2.161;-6.780
5445244.276;-23.507;-1.565;-37.737;38.594;-61.430;-10.319;-7.786;-11.548
5445244.284;-27.716;-6.817;-39.525;31.441;-63.702;-15.274;-12.070;-14.752
5445244.292;-26.412;-6.333;-37.104;29.467;-61.765;-11.623;-7.898;-10.021
5445244.300;-27.828;-6.780;-37.663;29.355;-59.605;-5.811;-1.565;-6.557
5445244.308;-27.642;-5.737;-35.390;30.957;-57.891;-1.527;2.943;0.112
5445244.316;-27.977;-5.476;-36.508;31.330;-60.648;-1.006;2.347;5.029
5445244.324;-29.020;-5.960;-36.657;30.436;-60.834;-2.496;-0.335;3.651
5445244.332;-31.143;-7.041;-37.737;28.312;-61.914;-4.768;-2.161;-3.204
5445244.340;-27.865;-5.774;-34.347;30.361;-58.338;-2.906;-0.559;-2.421
5445244.348;-27.493;-9.015;-32.783;25.183;-55.954;-7.786;-2.906;-8.345
5445244.356;-25.555;-5.625;-30.287;27.902;-54.054;-3.800;1.043;-6.482
5445244.364;-21.607;0.000;-28.349;32.894;-51.819;7.823;10.133;6.296
5445244.372;-18.962;3.055;-28.089;35.316;-52.862;6.966;8.047;2.310
5445244.428;-16.503;5.066;-27.791;36.061;-54.464;8.494;8.680;5.923
5445244.436;-14.193;4.843;-26.822;35.651;-54.240;11.101;10.170;11.995
5445244.444;-19.707;0.261;-33.081;32.969;-58.524;5.662;5.402;7.451
5445244.452;-23.246;-2.310;-34.049;31.292;-59.344;2.645;4.657;3.688
5445244.460;-19.297;1.378;-29.728;36.098;-55.619;8.382;11.027;8.307
5445244.468;-16.652;3.725;-27.381;37.923;-53.644;11.399;14.007;9.425
5445244.476;-18.887;0.186;-28.796;32.373;-53.123;13.970;15.274;7.674
5445244.484;-19.521;-0.857;-28.089;31.106;-52.229;15.721;16.987;8.866
5445244.492;-20.042;-0.894;-30.212;32.187;-54.389;11.697;12.703;8.494
5445244.500;-21.346;-1.788;-31.441;31.069;-54.911;2.533;3.241;-0.559
5445244.508;-15.832;3.129;-25.667;35.092;-49.137;3.316;4.657;-1.043
5445244.516;-16.503;2.608;-27.493;36.210;-49.807;5.215;7.339;0.708
5445244.524;-17.770;1.304;-29.542;33.081;-50.515;13.337;14.640;7.078
5445244.532;-20.117;-1.676;-35.092;29.802;-53.979;19.446;18.962;14.231
5445244.540;-27.008;-8.568;-37.663;21.309;-58.077;12.740;13.486;4.545
5445244.548;-27.381;-7.302;-36.471;24.252;-57.518;10.431;11.809;2.868
5445244.556;-26.077;-5.588;-36.657;25.705;-57.369;10.170;11.921;3.166
5445244.564;-21.346;-2.161;-30.883;27.567;-52.415;12.256;14.156;4.917
5445244.572;-15.311;2.198;-28.349;28.163;-49.882;14.864;15.199;10.692
5445244.580;-8.754;8.978;-24.103;35.688;-46.641;16.689;14.864;14.529
5445244.588;-11.250;7.153;-23.618;34.310;-46.231;11.846;10.580;6.109
5445244.596;-11.213;7.488;-24.550;34.049;-45.709;9.201;8.643;9.313
5445244.604;-8.978;8.047;-25.034;34.533;-44.405;1.006;3.129;1.006
5445244.612;-7.711;7.413;-26.599;31.926;-44.890;-6.780;-3.986;-2.421
5445244.653;-9.425;6.221;-27.679;32.000;-47.572;-8.307;-6.333;-0.671
5445244.661;-14.529;-0.559;-29.393;29.653;-51.223;-9.090;-7.451;-3.912
5445244.669;-13.001;-2.086;-26.226;30.845;-46.492;-3.055;-0.820;-3.427
5445244.677;-10.803;-2.198;-26.338;31.069;-42.170;1.267;5.104;-1.341
5445244.685;-10.990;-4.955;-28.573;31.888;-44.666;1.639;6.407;3.874
5445244.693;-13.039;-7.637;-30.249;29.430;-45.076;-0.745;4.210;1.639
5445244.701;-14.454;-9.090;-29.542;28.796;-44.294;-0.224;3.427;0.484
5445244.709;-17.099;-10.692;-33.341;26.152;-48.988;-3.465;-0.037;-4.768
5445244.717;-17.323;-11.064;-35.837;26.003;-49.546;1.714;6.072;-0.149
5445244.725;-12.182;-9.947;-29.281;29.393;-41.611;9.723;13.635;5.774
5445244.733;-7.600;-6.668;-25.816;36.955;-38.855;9.313;12.927;5.029
5445244.741;-2.123;-0.522;-22.501;41.649;-35.204;11.474;15.534;6.817
5445244.749;-10.058;-8.941;-27.493;33.677;-38.594;8.047;10.654;7.190
5445244.757;-104.122;-102.371;-119.805;-58.673;-128.075;-81.174;-81.584;-79.945
5445244.765;-332.966;-331.178;-350.289;-288.337;-354.983;-309.795;-309.683;-307.374
5445244.773;-443.757;-442.863;-460.558;-398.494;-466.704;-426.546;-423.715;-423.007
5445244.781;-464.469;-463.203;-484.101;-417.978;-488.795;-446.662;-442.155;-441.596
5445244.789;-464.655;-462.346;-483.803;-417.270;-488.199;-444.651;-440.218;-441.484
5445244.797;-462.569;-459.924;-478.737;-416.189;-482.760;-444.353;-440.478;-446.178
5445244.805;-452.846;-449.717;-473.224;-406.653;-476.502;-439.882;-436.641;-440.069
5445244.813;-444.725;-441.931;-466.257;-398.904;-471.510;-437.014;-433.624;-433.847
5445244.821;-443.459;-442.527;-464.655;-399.649;-470.579;-437.684;-433.400;-438.839
5445244.829;-448.562;-448.823;-469.126;-407.845;-472.404;-442.378;-437.647;-443.421
5445244.837;-443.049;-443.533;-462.607;-404.641;-464.320;-436.902;-434.369;-432.245
5445244.910;-430.867;-430.197;-451.095;-391.752;-452.884;-426.658;-425.763;-420.921
5445244.918;-421.479;-420.362;-445.433;-381.768;-447.966;-421.554;-421.591;-415.854
5445244.926;-419.505;-419.281;-442.266;-379.980;-444.055;-419.691;-419.691;-418.536
5445244.934;-417.382;-417.680;-438.094;-381.172;-440.292;-416.115;-413.619;-414.625
5445244.942;-409.298;-409.335;-431.314;-372.306;-434.667;-409.149;-404.865;-407.361
5445244.950;-400.245;-402.257;-422.969;-365.824;-425.912;-405.498;-402.182;-399.500
5445244.958;-406.243;-407.025;-426.620;-367.872;-426.695;-411.868;-409.037;-406.727
5445244.966;-400.953;-399.314;-420.772;-356.585;-419.393;-405.498;-401.773;-404.455
5445244.974;-371.076;-369.884;-393.800;-328.124;-398.234;-386.760;-383.332;-389.330
5445244.982;-349.656;-345.781;-369.847;-304.505;-376.999;-378.266;-375.770;-385.493
5445244.990;-324.175;-317.208;-343.584;-281.297;-355.393;-375.397;-376.254;-376.701
5445244.998;-293.143;-284.053;-311.658;-251.122;-330.210;-377.670;-380.427;-375.733
5445245.006;-257.976;-242.516;-275.485;-210.367;-300.072;-368.617;-371.076;-364.669
5445245.014;-220.016;-201.054;-238.046;-177.659;-269.301;-362.918;-363.477;-357.330
5445245.022;-188.202;-167.228;-204.779;-148.639;-241.585;-355.877;-352.040;-353.307
5445245.030;-159.927;-137.091;-172.034;-120.141;-211.857;-343.360;-337.288;-340.976
5445245.038;-140.630;-116.825;-152.662;-100.434;-196.062;-335.500;-329.278;-336.245
5445245.046;-126.921;-103.563;-135.452;-89.146;-180.602;-327.229;-323.765;-333.898
5445245.054;-117.049;-95.218;-124.089;-82.701;-172.257;-321.120;-319.257;-329.614
5445245.062;-109.486;-86.203;-114.627;-73.053;-163.391;-313.595;-311.658;-317.246
5445245.070;-108.965;-86.948;-114.366;-76.294;-164.583;-320.300;-316.799;-318.922
5445245.078;-108.443;-87.395;-112.541;-76.741;-164.397;-323.504;-319.965;-320.859
5445245.086;-96.262;-75.102;-98.497;-66.310;-152.625;-311.360;-308.827;-311.099
5445245.094;-80.280;-57.518;-81.994;-51.074;-140.592;-294.559;-292.696;-297.651
5445245.149;-72.867;-49.658;-76.108;-42.357;-137.426;-291.690;-289.939;-290.461
5445245.157;-70.073;-45.896;-72.010;-37.141;-137.910;-295.639;-292.584;-298.023
5445245.165;-68.136;-44.368;-69.812;-34.831;-138.506;-290.386;-287.034;-295.192
5445245.173;-61.095;-37.365;-64.112;-26.822;-135.638;-281.744;-277.944;-288.673
5445245.181;-61.318;-38.221;-64.336;-27.604;-138.022;-283.904;-281.222;-290.312
5445245.189;-56.103;-35.353;-58.338;-25.369;-133.440;-277.311;-275.224;-281.036
5445245.197;-50.254;-29.206;-52.974;-21.569;-129.342;-273.250;-272.803;-274.591
5445245.205;-44.778;-24.028;-48.019;-18.254;-127.256;-271.350;-272.393;-275.485
5445245.213;-40.643;-19.036;-46.194;-10.952;-128.075;-266.209;-267.439;-272.021
5445245.221;-40.904;-21.867;-46.156;-14.156;-128.932;-269.264;-270.270;-272.393
5445245.229;-34.794;-15.274;-40.345;-6.482;-123.307;-262.260;-261.962;-265.129
5445245.237;-28.610;-8.307;-34.720;1.565;-117.496;-260.994;-257.976;-264.756
5445245.245;-29.244;-7.935;-37.774;3.539;-121.295;-262.707;-258.163;-270.903
5445245.253;-25.779;-4.098;-34.198;7.264;-119.433;-257.567;-255.182;-260.808
5445245.261;-23.693;-6.594;-28.387;1.937;-110.976;-255.518;-256.076;-251.830
5445245.269;-19.893;-3.539;-23.469;7.376;-104.308;-253.208;-255.965;-248.589
5445245.277;-21.383;-4.284;-25.630;8.121;-108.331;-256.337;-260.286;-254.735
5445245.285;-26.226;-10.617;-28.312;0.447;-111.461;-254.512;-257.231;-254.773
5445245.293;-15.944;0.708;-19.521;12.070;-103.414;-249.967;-249.073;-253.394
5445245.301;-15.274;2.496;-20.713;15.013;-103.973;-248.179;-244.565;-253.208
5445245.309;-10.021;8.829;-17.136;21.271;-101.700;-242.032;-238.195;-248.365
5445245.317;-12.703;5.066;-17.732;15.572;-101.589;-237.860;-233.613;-244.863
5445245.325;-6.966;11.474;-11.474;22.501;-96.597;-229.329;-227.578;-230.446
5445245.333;-9.052;9.798;-15.274;23.246;-98.981;-225.604;-225.343;-223.964
5445245.329;-8.345;11.474;-17.770;27.344;-100.732;-228.919;-227.131;-232.533
5445245.337;-11.399;6.817;-20.675;22.948;-104.122;-227.541;-225.268;-232.831
5445245.345;-13.076;4.545;-20.862;18.440;-101.663;-221.282;-219.271;-225.902
5445245.353;-6.184;10.952;-13.746;27.120;-94.324;-215.210;-214.353;-222.549
5445245.361;-1.155;15.274;-9.611;29.355;-91.195;-210.628;-209.659;-215.732
5445245.369;-5.774;10.505;-13.746;22.538;-91.083;-210.255;-207.946;-214.390
5445245.377;4.470;22.165;-6.929;31.553;-85.197;-206.418;-205.822;-209.957
5445245.385;4.657;21.607;-5.774;29.393;-83.260;-198.781;-200.383;-199.750
5445245.393;9.723;27.530;-0.931;35.726;-78.790;-196.360;-198.372;-197.068
5445245.401;14.827;30.659;5.998;36.694;-71.265;-194.870;-196.807;-198.111
5445245.409;22.091;35.167;15.348;39.637;-59.344;-196.546;-197.291;-205.785
5445245.417;26.971;40.382;18.142;45.784;-58.375;-188.574;-188.313;-201.799
5445245.425;15.311;27.791;8.605;33.490;-66.832;-187.270;-187.159;-201.389
5445245.433;12.890;24.624;8.866;31.032;-67.391;-186.041;-186.786;-198.446
5445245.441;9.574;22.352;3.800;26.785;-71.600;-181.720;-189.021;-182.912
5445245.449;4.545;17.397;-0.559;21.495;-74.022;-182.874;-194.795;-171.587
5445245.457;9.611;23.209;5.923;28.685;-66.943;-184.886;-193.492;-169.799
5445245.465;20.936;35.614;17.397;42.059;-55.730;-177.287;-180.155;-169.836
5445245.473;37.216;54.054;30.547;61.281;-42.133;-159.517;-159.554;-165.105
5445245.481;46.827;62.250;38.035;68.545;-33.341;-149.533;-149.980;-169.799
5445245.489;47.721;62.436;37.700;67.279;-33.006;-154.637;-154.749;-177.212
5445245.497;31.926;47.870;21.495;54.948;-49.062;-163.428;-164.360;-181.012
5445245.505;22.724;37.886;12.480;44.517;-57.220;-160.858;-164.323;-176.728
5445245.513;17.025;32.187;8.233;41.276;-59.344;-148.155;-151.619;-164.174
5445245.493;12.033;27.865;2.906;37.812;-63.553;-146.963;-147.074;-155.307
5445245.501;2.421;18.589;-5.141;28.424;-68.620;-153.482;-150.204;-151.806
5445245.509;2.943;16.950;-4.619;22.240;-67.279;-166.930;-164.285;-159.703
5445245.517;14.529;28.200;6.221;30.845;-57.891;-177.659;-176.467;-171.810
5445245.525;37.514;51.595;28.238;53.793;-37.476;-175.722;-174.753;-169.128
5445245.533;52.601;66.459;41.053;64.708;-23.842;-153.631;-157.356;-151.880
5445245.541;63.293;76.704;52.750;75.139;-9.947;-132.099;-144.355;-138.581
5445245.549;64.187;76.927;55.470;74.096;-5.923;-114.106;-137.053;-126.287
5445245.557;50.254;62.026;42.915;58.301;-17.621;-109.524;-133.663;-125.654
5445245.565;38.594;51.111;27.753;49.844;-32.932;-112.094;-124.089;-130.981
5445245.573;27.493;41.239;13.784;42.431;-45.300;-126.511;-122.078;-146.963
5445245.581;24.065;35.912;12.331;37.104;-44.964;-144.988;-131.726;-153.184
5445245.589;29.169;40.568;17.248;45.523;-37.290;-157.692;-143.796;-150.613
5445245.597;26.450;38.296;16.652;44.070;-32.634;-166.297;-157.021;-148.565
5445245.605;32.522;43.698;19.744;47.646;-28.946;-164.732;-163.987;-147.931
5445245.613;42.431;52.527;28.461;56.215;-21.420;-147.298;-156.797;-134.706
5445245.621;57.444;66.981;42.580;67.502;-8.605;-120.960;-137.873;-118.390
5445245.629;68.992;77.337;56.028;74.618;5.290;-95.740;-116.080;-109.300
5445245.637;74.692;83.447;61.914;81.286;11.958;-84.229;-106.245;-104.755
5445245.645;66.981;76.033;54.054;72.122;5.215;-97.044;-114.664;-118.800
5445245.653;56.475;65.230;42.990;60.275;-4.210;-116.415;-122.748;-128.336
5445245.661;49.509;57.556;36.508;53.272;-8.829;-137.649;-132.285;-133.775
5445245.669;43.660;51.856;30.175;47.535;-13.262;-153.035;-141.375;-137.202
5445245.677;36.620;45.002;22.128;41.611;-18.775;-146.739;-138.693;-126.176
5445245.657;37.402;50.329;21.346;50.999;-18.999;-124.350;-124.499;-111.796
5445245.665;46.790;63.032;26.524;64.261;-14.976;-97.863;-104.904;-98.869
5445245.673;53.681;66.757;35.986;64.708;-3.465;-83.260;-93.132;-96.187
5445245.681;66.012;76.704;49.360;73.425;11.399;-78.976;-90.636;-96.634
5445245.689;67.577;74.692;52.340;71.526;18.179;-92.424;-107.624;-103.004
5445245.697;62.883;68.918;48.131;66.496;14.156;-123.195;-139.177;-121.854
5445245.705;62.361;70.594;46.603;66.422;9.947;-141.747;-153.035;-128.336
5445245.713;60.983;68.843;43.325;64.261;8.978;-141.934;-148.490;-121.519
5445245.721;54.352;60.871;37.327;57.593;5.513;-132.844;-134.110;-123.605
5445245.729;50.999;58.934;31.106;57.258;-0.633;-102.781;-99.689;-105.463
5445245.737;45.002;54.277;25.742;52.489;-5.923;-81.360;-77.523;-96.448
5445245.745;47.870;56.587;29.467;55.246;-2.161;-68.471;-69.030;-85.868
5445245.753;54.687;63.702;35.577;62.399;4.210;-68.434;-73.351;-81.323
5445245.761;67.651;78.417;44.480;75.176;10.952;-77.263;-82.254;-86.166
5445245.769;65.826;78.566;41.723;73.798;10.543;-92.015;-95.963;-93.281
5445245.777;73.053;86.091;49.807;82.925;19.372;-106.134;-113.361;-101.924
5445245.785;75.810;85.868;54.650;80.541;25.630;-113.100;-131.465;-102.818
5445245.793;77.151;85.905;56.401;80.727;28.126;-102.445;-126.064;-89.966
5445245.801;68.769;78.902;46.715;76.517;19.297;-77.225;-97.007;-78.902
5445245.809;69.439;80.429;45.151;80.839;17.658;-51.409;-62.846;-70.892
5445245.817;73.984;83.819;48.280;82.366;21.979;-35.055;-40.382;-57.742
5445245.825;69.439;78.119;45.560;75.698;20.042;-45.337;-46.827;-58.226
5445245.833;56.773;64.634;33.751;65.193;9.350;-69.402;-69.290;-67.875
5445245.841;44.666;53.234;19.856;56.066;-3.092;-93.542;-91.717;-82.180
5445245.779;48.392;54.911;22.203;55.358;-1.416;-102.483;-102.147;-82.590
5445245.787;62.361;69.179;35.912;71.116;12.331;-98.124;-104.159;-84.825
5445245.795;84.043;91.009;58.115;90.264;32.634;-73.276;-91.158;-71.712
5445245.803;94.846;103.153;68.918;103.451;41.500;-45.225;-67.614;-60.089
5445245.811;90.785;99.987;66.645;101.291;38.333;-25.518;-42.059;-53.383
5445245.819;83.186;91.158;61.095;91.270;32.745;-29.057;-34.682;-53.160
5445245.827;66.236;74.580;45.933;75.512;17.658;-52.787;-49.435;-60.126
5445245.835;47.497;56.028;29.132;58.971;1.341;-78.678;-70.781;-73.835
5445245.843;46.194;53.234;29.765;56.811;0.484;-84.899;-76.182;-74.580
5445245.851;57.071;64.149;41.500;69.030;10.207;-84.117;-81.584;-68.769
5445245.859;63.926;70.333;49.584;74.990;16.354;-88.103;-93.505;-66.496
5445245.867;67.055;74.245;54.985;77.188;21.867;-80.876;-88.699;-61.654
5445245.875;73.612;81.211;63.851;85.495;29.542;-53.421;-62.808;-44.927
5445245.883;77.523;83.856;67.055;86.166;31.404;-24.773;-39.078;-30.473
5445245.891;75.512;80.056;66.571;83.074;31.292;-3.986;-18.850;-26.040
5445245.899;73.835;79.349;65.006;81.286;27.604;2.570;-8.866;-30.771
5445245.907;75.176;81.509;65.602;82.888;26.561;-5.662;-13.746;-32.224
5445245.915;72.606;79.535;62.995;80.280;23.730;-33.751;-37.402;-47.795
5445245.923;62.548;70.557;54.166;71.228;15.832;-67.428;-63.628;-65.826
5445245.931;53.309;63.926;46.007;66.422;8.084;-90.934;-83.670;-74.692
5445245.939;46.231;56.438;39.898;58.822;1.378;-93.915;-84.713;-66.683
5445245.947;49.509;59.456;44.219;63.404;4.694;-72.606;-64.783;-47.088
5445245.955;56.848;64.969;51.334;66.720;10.207;-45.672;-42.692;-35.837
5445245.963;67.577;76.480;61.058;76.294;20.228;-23.842;-25.593;-30.696
5445246.004;81.509;92.313;72.867;92.350;32.373;-9.276;-15.572;-29.393
5445246.012;88.625;96.746;80.839;94.436;40.978;-16.242;-25.183;-42.729
5445246.020;95.591;104.159;87.991;103.861;47.460;-25.071;-34.943;-39.972
5445246.028;80.504;90.115;74.431;90.599;34.310;-43.325;-48.950;-47.311
5445246.036;62.995;72.345;59.530;73.798;21.867;-49.062;-51.707;-40.568
5445246.044;53.979;61.952;50.925;62.436;14.678;-47.348;-49.397;-30.361
5445246.052;47.125;55.134;42.394;55.321;6.258;-42.506;-43.027;-24.214
5445246.060;48.093;57.109;44.927;58.226;9.462;-33.677;-30.175;-18.552
5445246.068;58.077;66.124;55.470;65.602;20.266;-38.780;-29.132;-38.594
5445246.076;72.569;82.478;68.620;86.166;33.751;-23.544;-13.188;-38.706
5445246.084;90.115;99.503;85.905;102.259;51.036;1.006;5.439;-18.589
5445246.092;93.356;101.738;90.972;101.663;57.444;2.906;-0.708;-18.962
5445246.100;80.541;88.513;78.976;87.917;48.168;-10.356;-25.108;-25.742
5445246.108;72.010;79.311;69.588;78.715;40.010;-26.934;-46.715;-25.034
5445246.116;63.963;70.259;59.232;68.881;29.951;-39.153;-51.558;-25.555
5445246.124;56.624;62.436;50.366;63.740;21.905;-42.021;-41.388;-24.661
5445246.132;53.495;58.822;49.472;62.101;22.464;-35.316;-28.796;-19.707
5445246.140;55.544;59.977;52.266;63.442;25.518;-26.897;-21.495;-19.893
5445246.148;68.098;75.065;63.404;79.237;35.204;-10.729;-3.949;-16.615
5445246.156;75.251;80.876;70.482;84.005;42.766;-2.384;4.880;-13.821
5445246.164;86.650;91.679;81.696;94.138;54.091;-2.310;4.247;-19.632
5445246.172;88.587;94.138;81.398;94.660;54.017;-12.964;-8.307;-25.928
5445246.180;90.301;92.834;85.644;90.115;58.673;-22.985;-24.252;-17.211
5445246.188;80.690;83.148;78.082;78.566;53.234;-37.961;-42.096;-23.469
5445246.198;74.282;78.417;71.265;74.990;46.417;-33.081;-40.643;-11.697
5445246.206;69.253;74.133;65.863;72.382;41.351;-15.385;-26.077;-1.974
5445246.214;72.867;76.629;68.471;75.437;45.635;-5.662;-12.480;-1.602
5445246.222;80.168;84.415;74.729;81.509;51.334;-1.900;4.321;-9.015
5445246.230;84.899;90.003;79.088;87.172;55.134;8.345;21.122;-3.725
5445246.238;69.030;73.537;65.081;71.041;44.480;4.955;15.646;-6.743
5445246.246;67.428;71.265;64.410;69.700;44.815;-0.894;3.092;-3.055
5445246.254;63.330;67.279;59.418;65.826;41.239;-13.486;-15.646;-13.821
5445246.262;58.636;60.424;53.681;59.344;36.731;-18.962;-27.604;-16.056
5445246.270;56.475;59.493;52.415;58.711;38.706;-18.328;-31.814;-11.325
5445246.278;56.811;59.903;52.974;55.023;40.494;-18.626;-33.267;-5.625
5445246.286;56.326;60.648;49.844;56.885;36.843;-9.201;-20.936;-0.075
5445246.294;62.957;66.906;56.103;62.846;43.251;1.639;-2.682;5.439
5445246.302;78.380;82.925;69.626;79.684;56.140;10.282;13.039;12.852
5445246.310;82.403;86.576;74.096;82.888;62.659;11.362;19.148;4.098
5445246.318;84.192;88.029;77.710;84.899;65.453;8.531;16.242;0.522
5445246.326;77.933;82.143;68.806;80.876;56.997;8.047;12.293;1.974
5445246.334;65.118;66.012;57.928;63.293;50.440;3.651;5.253;2.496
5445246.342;57.183;55.954;52.191;52.191;46.752;-3.092;-5.811;3.986
5445246.350;52.005;51.446;46.603;46.007;41.425;-4.806;-13.672;8.829
5445246.358;53.011;52.750;47.237;47.609;39.861;-6.631;-19.148;6.817
5445246.366;58.524;59.381;51.111;55.097;45.337;-4.172;-11.772;4.396
5445246.374;67.763;68.583;58.860;62.920;52.899;-1.192;-0.782;3.725
5445246.382;74.394;75.772;62.920;68.434;56.177;7.115;12.107;12.144
5445246.334;75.437;77.486;64.932;72.867;60.350;11.921;20.117;12.442
5445246.342;81.696;81.472;72.978;76.406;70.371;17.434;26.822;14.454
5445246.350;83.670;83.409;76.145;76.704;74.022;28.536;32.559;26.152
5445246.358;79.311;78.902;70.706;73.276;70.408;28.647;27.381;20.377
5445246.366;72.904;74.469;62.883;68.694;62.957;34.496;25.667;28.610
5445246.374;71.675;71.004;61.058;64.969;60.052;37.886;25.555;38.147
5445246.382;72.382;72.233;60.573;66.012;61.542;32.075;21.905;33.341
5445246.390;69.365;70.296;57.667;64.187;61.058;22.203;18.440;22.389
5445246.398;68.769;69.663;56.401;62.883;60.126;16.503;17.770;27.381
5445246.406;70.594;70.557;57.556;66.124;62.473;5.402;12.740;16.727
5445246.414;68.247;68.285;53.570;63.740;59.605;5.215;16.242;8.158
5445246.422;68.881;68.359;55.321;62.101;61.989;24.699;34.682;20.415
5445246.430;67.018;64.783;53.942;58.003;60.685;41.127;44.331;32.261
5445246.438;59.046;56.252;47.572;48.392;54.240;45.635;42.059;37.812
5445246.446;58.636;55.470;48.093;44.480;54.613;39.861;27.195;43.772
5445246.454;56.848;55.544;44.703;44.405;53.383;33.006;13.970;39.935
5445246.462;58.115;57.369;43.772;46.678;53.085;32.932;13.709;40.531
5445246.470;56.960;55.283;41.947;47.199;52.303;26.897;15.795;30.994
5445246.478;60.536;58.636;45.486;51.782;57.444;23.060;20.638;32.000
5445246.486;73.649;73.984;56.401;68.545;67.055;25.705;28.424;37.514
5445246.494;71.451;73.016;54.426;67.465;65.416;18.328;26.487;25.667
5445246.502;70.855;69.737;58.338;62.846;71.116;16.838;25.481;26.003
5445246.510;76.368;76.778;64.038;70.333;75.847;35.800;38.370;39.451
5445246.518;83.707;85.495;69.104;77.263;80.802;54.166;48.168;46.007
5445246.498;82.403;83.409;67.018;75.512;80.131;61.579;51.372;45.970
5445246.506;79.721;80.615;63.479;74.357;76.592;62.063;54.017;46.790
5445246.514;65.528;65.379;50.031;58.860;64.373;50.701;44.592;46.901
5445246.522;51.223;50.999;39.004;44.592;55.172;37.290;30.696;49.174
5445246.530;39.749;39.488;29.877;34.161;46.864;21.122;15.795;45.039
5445246.538;35.167;36.396;24.363;31.739;41.872;5.290;4.359;32.634
5445246.546;40.531;37.923;29.281;30.808;47.944;1.118;4.396;28.610
5445246.554;45.262;42.729;35.390;36.061;54.836;7.786;15.795;20.750
5445246.562;53.346;50.515;45.411;41.872;64.299;27.604;33.490;27.157
5445246.570;62.995;58.897;55.209;49.397;72.941;48.839;47.870;38.855
5445246.578;72.643;69.477;63.851;61.616;79.274;63.963;54.799;47.199
5445246.586;79.237;77.263;69.030;69.775;82.254;78.268;63.628;63.740
5445246.594;73.835;73.723;63.889;66.012;77.151;77.337;64.187;73.947
5445246.602;58.562;60.536;47.795;55.023;60.871;53.570;46.603;64.895
5445246.610;44.256;45.896;34.571;41.202;46.529;32.559;35.502;56.662
5445246.618;31.255;31.665;25.220;27.418;39.302;10.990;24.028;33.900
5445246.626;29.691;30.138;27.940;24.810;41.761;10.133;27.120;26.003
5445246.634;35.837;36.061;36.284;30.287;48.988;25.667;37.253;30.659
5445246.642;49.509;50.478;47.982;44.443;57.891;46.939;47.311;41.462
5445246.650;56.177;56.922;56.550;50.217;64.932;59.493;49.174;47.125
5445246.658;68.769;65.006;72.494;53.309;79.870;64.895;53.979;48.243
5445246.666;78.306;72.718;84.899;60.014;92.350;68.434;62.585;54.091
5445246.674;78.268;72.457;87.321;59.307;93.468;68.173;62.622;65.640
5445246.682;70.147;65.304;78.417;55.730;85.011;67.912;61.207;79.609
5445246.694;60.648;57.407;67.912;50.627;72.941;56.662;55.954;67.800
5445246.702;49.807;46.566;57.146;39.898;61.840;45.933;52.527;60.126
5445246.710;47.758;40.829;57.369;29.989;62.734;42.692;55.544;56.513
5445246.718;46.045;38.482;58.077;29.653;63.963;46.492;60.759;56.475
5445246.726;47.907;41.313;60.722;33.416;66.534;48.950;61.616;45.486
5445246.734;57.854;52.042;69.849;43.064;75.549;61.691;67.428;49.658
5445246.742;69.961;61.616;79.311;52.825;82.962;74.394;67.651;62.622
5445246.750;82.515;75.474;88.364;64.783;90.972;87.507;70.408;76.480
5445246.758;81.286;76.741;88.923;65.602;91.195;84.154;67.763;73.835
5445246.766;77.933;74.990;86.054;64.149;86.799;70.371;61.691;72.010
5445246.774;71.973;68.136;79.051;57.407;80.243;56.811;61.169;69.477
5445246.782;61.654;57.183;69.700;47.386;73.388;38.035;55.432;50.887
5445246.790;52.862;46.678;62.585;36.433;68.396;30.436;50.664;40.531
5445246.798;50.887;42.990;62.250;32.447;68.434;40.866;54.874;49.397
5445246.806;53.234;42.543;67.987;30.398;75.921;57.854;60.834;64.485
5445246.814;57.071;45.858;69.290;35.763;76.294;68.359;60.983;72.271
5445246.822;60.312;51.036;71.637;41.649;76.815;77.598;61.579;77.859
5445246.830;69.663;60.350;80.690;50.031;85.384;88.699;71.786;84.378
5445246.838;72.010;62.734;81.845;51.334;88.587;84.043;70.445;74.543
5445246.846;74.431;66.757;83.856;53.570;90.785;75.102;67.391;65.342
5445246.854;69.477;63.702;79.013;50.776;86.650;63.330;62.883;60.946
5445246.862;62.995;57.817;73.165;46.939;80.690;54.352;62.101;62.920
5445246.870;54.985;50.105;62.548;39.451;70.520;54.725;69.700;69.737
5445246.878;42.357;35.316;51.633;24.363;60.797;53.942;70.333;69.886
5445246.829;38.855;29.802;50.664;20.303;58.636;57.518;67.316;62.361
5445246.837;38.333;30.026;49.770;20.191;58.450;72.345;72.271;72.569
5445246.845;39.786;32.745;51.334;22.873;61.430;83.707;72.308;78.902
5445246.853;50.366;43.400;61.691;32.447;71.675;88.327;71.861;77.225
5445246.861;55.470;48.317;64.597;37.625;76.294;83.931;71.861;70.222
5445246.869;62.883;55.507;69.402;44.033;78.380;73.500;70.035;64.448
5445246.877;59.828;53.570;67.540;40.941;76.965;53.905;63.851;53.532
5445246.885;62.361;55.395;72.531;42.282;82.552;40.941;59.679;53.681
5445246.893;58.040;52.378;66.310;40.606;75.921;38.259;56.513;57.779
5445246.901;47.497;43.511;52.862;32.634;61.691;47.982;60.126;67.167
5445246.909;44.815;41.202;51.595;30.175;61.952;73.761;76.108;80.019
5445246.917;55.842;51.074;63.144;39.414;73.984;105.016;96.373;105.202
5445246.925;52.564;48.503;60.014;37.923;71.414;108.071;94.511;103.936
5445246.933;54.501;48.354;63.665;37.327;77.039;95.777;83.745;87.433
5445246.941;52.862;47.162;60.387;38.035;73.537;79.125;72.792;69.849
5445246.949;50.813;46.827;57.407;39.227;70.408;62.920;63.330;60.759
5445246.957;49.509;44.443;55.730;36.135;69.290;44.852;53.532;50.031
5445246.965;48.280;43.847;53.197;35.428;67.651;43.437;58.860;54.799
5445246.973;41.798;36.918;47.833;28.275;63.926;55.991;72.829;63.740
5445246.981;42.394;37.476;48.168;28.573;62.212;76.666;83.447;80.913
5445246.989;42.990;38.445;48.988;28.983;63.032;98.161;91.493;96.709
5445246.997;39.674;34.645;46.566;23.954;62.324;98.720;88.997;96.634
5445247.005;39.414;33.341;45.896;22.762;61.579;90.748;83.297;91.419
5445247.013;39.227;34.794;43.996;25.146;58.822;81.882;77.523;83.596
5445247.038;38.929;34.235;43.586;24.550;60.312;65.193;67.055;64.857
5445247.046;50.813;45.337;55.768;34.794;74.431;55.619;64.783;55.693
5445247.054;54.985;51.111;58.077;42.878;78.306;49.807;67.018;53.793
5445247.062;54.762;50.515;56.662;42.357;77.188;50.031;71.414;54.464
5445247.070;44.927;39.786;47.199;29.206;68.806;60.610;74.692;67.279
5445247.078;34.831;29.579;38.482;18.552;61.616;78.604;75.810;87.172
5445247.086;36.843;29.616;42.357;17.695;65.155;104.420;87.246;111.759
5445247.094;35.129;26.114;40.233;13.746;64.634;106.581;88.885;110.753
5445247.102;35.688;27.865;38.557;15.274;63.404;95.218;83.484;101.477
5445247.110;39.898;32.522;40.494;18.403;64.149;80.764;76.555;86.688
5445247.118;42.394;35.651;41.202;21.830;64.932;68.583;70.445;79.982
5445247.126;43.884;37.216;43.884;24.326;69.104;60.759;65.006;74.096
5445247.134;47.609;40.904;49.286;27.642;74.841;58.971;63.665;67.689
5445247.142;56.475;49.956;58.375;35.129;83.409;72.494;75.027;74.990
5445247.150;64.559;59.493;65.379;45.933;89.481;93.840;95.703;84.415
5445247.158;57.817;54.054;57.258;40.419;82.776;102.259;103.824;76.778
5445247.166;53.495;51.595;53.868;41.500;80.615;113.510;114.404;87.209
5445247.174;42.655;40.233;42.878;33.341;72.531;114.925;117.980;97.528
5445247.182;34.720;32.485;34.347;23.954;64.857;106.990;110.604;100.844
5445247.190;22.426;19.744;20.377;9.537;51.111;90.078;92.015;95.814
5445247.198;18.179;15.087;13.635;4.768;45.300;69.141;68.843;86.017
5445247.206;14.044;10.990;10.990;1.974;43.809;47.311;46.007;70.818
5445247.214;29.653;25.295;27.195;15.274;58.897;48.280;46.752;72.941
5445247.222;39.637;36.210;34.831;26.077;66.124;55.097;60.312;63.963
5445247.218;49.211;47.497;42.990;37.737;73.016;69.141;81.211;60.238
5445247.226;52.154;49.882;46.901;38.631;78.343;87.507;97.491;67.912
5445247.234;52.005;48.988;46.715;36.098;78.455;101.104;104.196;75.959
5445247.242;47.535;45.896;40.270;35.577;69.663;108.369;103.265;89.295
5445247.250;46.231;45.411;38.706;37.476;69.439;106.916;98.124;99.204
5445247.258;41.798;41.313;32.634;35.018;63.442;97.305;92.275;101.030
5445247.266;28.536;27.530;18.254;22.724;51.223;84.713;82.888;95.554
5445247.274;21.942;18.068;14.454;11.437;48.131;69.700;68.471;81.733
5445247.282;25.108;20.787;18.030;11.586;51.744;58.152;58.822;70.296
5445247.290;27.716;25.257;20.973;17.993;56.922;51.782;59.232;62.585
5445247.298;33.043;31.292;25.406;22.016;61.654;61.840;75.698;69.775
5445247.306;31.814;30.994;23.432;22.240;60.685;75.847;88.736;73.798
5445247.314;27.902;28.349;19.148;19.968;57.109;93.281;99.055;82.962
5445247.322;24.512;24.103;14.752;14.044;52.191;106.283;104.718;92.611
5445247.330;26.487;25.854;17.695;14.491;53.085;114.739;109.673;105.835
5445247.338;24.103;22.240;16.987;9.909;50.254;112.094;105.947;107.475
5445247.346;18.999;16.093;12.256;3.912;45.784;99.577;94.250;95.218
5445247.354;15.981;13.635;7.972;4.806;41.947;90.599;85.607;97.193
5445247.362;8.233;6.631;2.384;-0.671;37.029;74.245;71.824;92.052
5445247.370;1.751;1.192;-0.075;-7.376;35.204;61.877;67.987;80.541
5445247.378;4.619;4.098;3.800;-3.725;37.663;68.955;82.329;82.999
5445247.386;15.162;15.013;13.746;6.445;46.678;87.097;102.110;89.854
5445247.394;16.950;17.732;15.944;10.170;48.317;104.010;112.429;89.109
5445247.402;22.464;22.165;23.209;14.231;54.799;116.974;117.831;94.399
5445247.427;25.108;23.916;29.951;16.987;59.828;113.882;107.959;95.330
5445247.435;23.916;22.240;30.026;15.236;59.046;102.185;93.095;91.009
5445247.443;23.320;20.266;28.685;11.139;56.326;90.264;82.068;90.264
5445247.451;23.022;19.930;28.051;10.319;54.054;78.566;75.139;89.929
5445247.459;20.005;17.919;26.040;8.233;51.409;76.480;77.672;97.379
5445247.467;21.830;20.079;30.063;11.846;53.830;79.833;85.942;99.391
5445247.475;24.401;23.618;33.192;15.981;55.246;84.154;94.771;94.250
5445247.483;28.871;29.132;37.290;19.856;58.711;90.934;103.265;89.146
5445247.491;40.159;40.308;47.386;31.963;67.875;96.634;107.102;83.745
5445247.499;46.827;46.119;53.830;38.743;71.973;101.589;108.331;80.392
5445247.507;48.913;48.690;56.997;42.208;74.692;108.965;108.592;93.468
5445247.515;37.476;37.067;48.541;31.143;66.832;107.773;102.445;102.296
5445247.523;24.177;22.911;35.837;15.311;54.091;104.271;95.665;107.959
5445247.531;15.534;16.466;27.046;10.282;44.219;97.603;90.376;106.059
5445247.539;13.076;14.082;25.630;7.153;43.847;93.281;91.530;100.695
5445247.547;23.022;26.450;34.310;22.389;50.701;93.393;99.950;99.391
5445247.555;31.851;35.018;40.419;31.106;55.693;89.034;106.841;91.456
5445247.563;36.433;39.823;46.007;34.608;60.871;87.284;108.220;84.713
5445247.571;44.294;47.795;52.489;43.176;65.714;93.952;107.735;87.172
5445247.579;45.076;48.652;53.234;44.256;66.496;103.712;108.406;92.611
5445247.587;42.543;43.251;52.601;37.029;68.732;113.547;111.237;98.422
5445247.595;46.790;46.976;56.997;41.872;73.910;118.390;111.796;100.359
5445247.603;41.537;42.506;49.137;38.072;67.577;120.662;112.168;108.033
5445247.611;28.312;28.275;35.726;22.538;56.028;110.716;104.345;107.735
5445247.579;20.005;18.738;27.306;13.039;48.243;90.301;89.221;94.436
5445247.587;12.144;11.250;20.601;6.370;40.643;76.219;78.902;87.507
5445247.595;8.680;6.258;18.999;1.378;41.761;70.110;74.953;85.197
5445247.603;19.893;19.446;28.051;18.291;49.360;69.477;77.672;85.495
5445247.611;25.816;25.406;33.081;24.587;52.378;69.961;81.584;73.276
5445247.619;36.098;36.173;42.245;35.129;60.573;87.097;98.608;76.070
5445247.627;43.958;45.225;51.633;43.325;69.402;109.375;115.037;89.630
5445247.635;41.388;42.692;48.205;38.929;65.491;123.642;121.295;101.253
5445247.643;34.943;35.502;43.027;33.230;60.722;127.107;116.751;110.045
5445247.651;36.731;37.253;43.549;36.322;60.648;119.135;107.400;104.979
5445247.659;33.304;35.577;39.227;37.141;56.587;112.839;103.191;102.036
5445247.667;31.777;33.416;37.104;33.975;55.209;109.486;103.414;107.847
5445247.675;25.816;25.444;31.851;24.550;51.595;95.107;94.697;98.832
5445247.683;19.856;18.366;26.003;16.801;46.976;79.498;82.143;87.246
5445247.691;23.134;21.830;28.275;22.389;48.764;81.845;91.344;90.562
5445247.699;23.395;23.469;27.157;26.040;47.050;94.399;111.051;99.540
5445247.707;22.762;24.922;24.997;28.163;44.294;104.234;118.352;106.506
5445247.715;32.671;34.869;32.261;37.514;51.670;114.441;118.986;105.314
5445247.723;43.772;42.953;44.592;44.107;63.255;121.817;115.670;105.686
5445247.731;52.787;50.180;56.066;49.844;74.580;120.960;105.873;106.804
5445247.739;47.795;46.045;49.993;45.672;69.588;102.744;83.856;94.734
5445247.747;37.476;35.688;38.408;34.906;56.587;79.796;66.683;82.292
5445247.755;26.301;23.544;25.742;21.979;42.506;71.339;65.491;81.584
5445247.763;22.538;20.303;22.128;21.420;39.637;80.019;79.721;94.995
5445247.759;18.738;19.297;14.901;24.252;30.883;95.032;101.700;108.071
5445247.767;12.070;13.001;8.233;17.174;26.003;103.936;115.670;114.739
5445247.775;24.065;22.911;22.501;25.593;40.419;105.724;119.321;107.214
5445247.783;32.969;31.814;30.957;35.502;47.758;109.188;117.794;96.411
5445247.791;34.384;33.155;31.777;37.141;50.552;112.355;112.131;90.078
5445247.799;36.135;36.247;34.273;40.494;54.166;111.759;103.451;86.799
5445247.807;35.577;35.129;32.783;39.153;54.389;105.463;90.972;89.072
5445247.815;29.728;28.685;26.375;29.877;48.429;92.387;77.412;86.464
5445247.823;19.558;18.254;16.801;18.738;38.967;84.229;71.935;91.158
5445247.831;7.972;6.668;6.072;7.935;29.095;81.882;74.096;104.010
5445247.839;4.880;6.631;2.161;11.139;25.705;91.493;91.977;118.688
5445247.847;5.066;9.835;-1.229;16.503;21.495;93.579;103.042;109.747
5445247.855;10.356;17.174;0.969;25.667;22.464;105.165;119.247;109.300
5445247.863;16.764;23.395;8.568;32.187;31.292;114.888;125.803;108.108
5445247.871;29.206;32.745;22.650;38.967;45.486;114.702;117.011;96.224
5445247.879;36.955;38.967;30.920;44.368;53.979;115.149;107.475;93.505
5445247.887;40.755;41.723;35.092;44.964;59.605;106.730;92.015;87.693
5445247.895;43.660;43.809;40.345;45.449;65.304;96.671;82.105;81.584
5445247.903;47.609;47.348;43.921;47.199;67.651;89.891;76.853;87.209
5445247.911;33.900;32.224;30.026;32.820;54.874;71.116;63.740;76.965
5445247.919;27.567;26.077;21.830;27.791;47.237;75.698;74.729;86.986
5445247.927;25.555;25.742;18.142;29.020;43.623;91.605;98.124;97.528
5445247.935;22.426;23.767;13.225;29.169;37.290;103.004;116.527;100.210
5445247.943;14.752;16.689;4.843;24.140;29.802;108.629;123.568;97.901
5445247.983;11.921;11.548;4.433;17.397;31.665;104.606;113.845;91.419
5445247.991;15.758;12.703;9.649;14.976;35.949;95.107;96.038;84.750
5445247.999;17.621;13.560;11.660;15.572;37.886;79.647;74.506;74.729
5445248.007;29.504;24.699;22.203;26.338;48.317;80.317;69.886;81.733
5445248.015;38.110;32.820;29.802;35.055;55.619;69.886;60.573;72.867
5445248.023;35.726;31.814;27.232;34.571;52.936;65.491;56.289;76.182
5445248.031;30.920;30.175;20.787;34.757;46.715;76.331;71.302;84.974
5445248.039;21.905;23.730;5.327;31.851;31.851;92.797;97.193;97.603
5445248.047;13.784;16.764;-3.055;26.822;25.481;104.010;116.676;105.463
5445248.055;17.360;19.260;1.229;28.983;31.926;108.108;121.258;99.726
5445248.063;21.346;22.464;4.731;31.665;35.912;108.853;115.372;95.032
5445248.071;24.848;26.748;7.749;34.496;37.849;107.065;105.910;95.703
5445248.079;23.618;25.816;5.774;32.932;35.651;95.293;88.103;91.530
5445248.087;30.398;33.043;12.182;39.749;42.543;82.180;67.689;91.828
5445248.095;33.975;35.912;15.683;41.611;45.486;76.741;57.817;89.630
5445248.103;40.568;42.655;22.054;46.641;50.440;88.066;67.838;94.734
5445248.111;42.580;45.821;24.661;47.386;50.552;96.597;79.535;96.448
5445248.119;39.674;45.449;18.477;49.397;42.729;98.720;96.187;87.246
5445248.127;28.722;32.969;6.631;39.823;34.682;94.362;105.314;74.320
5445248.135;27.828;30.473;7.786;35.875;34.943;88.774;101.477;75.325
5445248.143;23.320;25.965;2.719;32.596;28.200;83.782;94.511;75.884
5445248.151;11.958;14.529;-7.339;21.048;18.775;81.658;86.799;83.894
5445248.159;3.837;5.849;-13.113;11.511;14.268;77.598;74.394;87.619
5445248.167;8.978;7.264;-6.184;9.723;20.340;81.919;72.941;92.983
5445248.165;15.423;15.199;1.006;18.068;26.152;86.427;77.859;91.344
5445248.173;23.767;23.395;10.803;26.338;34.012;88.736;85.086;84.750
5445248.181;32.373;30.510;20.787;31.963;43.809;91.940;94.399;82.888
5445248.189;37.365;34.049;27.940;34.086;49.509;91.940;95.926;83.707
5445248.197;34.049;30.734;25.779;32.112;45.188;85.495;85.309;84.825
5445248.205;13.188;9.947;6.594;12.591;25.481;76.480;72.680;76.927
5445248.213;-2.980;-4.433;-5.960;-0.857;14.193;74.394;70.035;76.033
5445248.221;-7.302;-8.680;-8.456;-5.551;11.064;79.013;76.443;80.019
5445248.229;-9.872;-11.921;-9.425;-8.866;9.425;83.558;82.329;81.323
5445248.237;-7.376;-10.170;-4.768;-5.737;13.448;79.945;81.584;74.208
5445248.245;2.272;-0.931;4.396;3.837;19.558;74.245;75.921;70.035
5445248.253;12.517;9.984;13.858;13.635;26.822;72.047;70.482;71.079
5445248.261;24.773;22.091;25.891;24.214;37.141;72.829;69.514;78.343
5445248.269;18.738;14.529;18.626;14.827;29.989;57.593;58.189;65.044
5445248.277;14.827;8.903;18.887;10.803;30.361;48.988;57.332;55.172
5445248.285;17.099;11.511;20.117;14.789;31.516;64.075;74.096;66.496
5445248.293;7.711;3.725;9.201;7.153;20.787;79.572;86.837;70.408
5445248.301;0.484;-2.235;4.582;-0.447;16.280;93.989;94.399;82.776
5445248.309;-3.241;-7.972;2.459;-6.445;13.858;95.256;91.195;84.601
5445248.317;-9.164;-14.491;-3.166;-12.703;9.947;86.837;81.994;79.721
5445248.325;-4.061;-8.605;3.651;-5.029;15.311;80.094;75.959;75.772
5445248.333;4.172;0.224;11.250;3.465;19.670;69.626;70.557;68.136
5445248.341;5.700;0.596;14.342;2.831;24.885;62.734;65.230;64.597
5445248.349;15.497;7.860;26.301;7.413;38.743;67.614;70.408;72.122
5445248.343;17.583;12.517;26.338;12.256;37.998;68.732;71.488;72.271
5445248.351;21.979;19.670;27.195;22.389;37.104;78.306;80.876;76.778
5445248.359;20.824;19.781;22.687;22.165;30.734;86.315;86.986;79.088
5445248.367;13.299;10.990;17.285;12.405;28.126;89.109;86.576;75.325
5445248.375;14.007;7.860;20.154;7.562;32.298;87.693;81.286;74.729
5445248.383;12.815;7.637;18.999;8.568;30.510;81.733;74.245;71.712
5445248.391;8.717;5.104;16.280;6.258;27.120;67.465;61.505;62.622
5445248.399;10.692;6.743;17.509;8.158;27.828;44.070;41.015;54.166
5445248.407;16.354;12.219;21.793;12.219;31.516;34.608;33.826;56.922
5445248.415;13.411;8.121;19.036;7.972;28.834;42.543;43.102;67.316
5445248.423;12.219;7.823;17.397;9.909;25.705;62.138;65.453;73.202
5445248.431;12.331;8.680;17.881;11.399;26.412;79.386;85.980;75.176
5445248.439;17.025;13.933;21.048;16.540;29.542;84.788;87.358;70.632
5445248.447;13.970;11.660;15.981;15.497;24.252;85.980;81.398;73.537
5445248.455;10.096;4.880;14.156;8.531;23.805;74.655;67.689;63.293
5445248.463;15.534;9.798;18.030;12.964;27.306;72.792;65.193;63.702
5445248.471;15.497;9.574;18.030;13.039;26.822;72.867;66.794;68.136
5445248.479;9.574;2.570;12.442;5.141;22.762;66.906;61.095;67.838
5445248.487;2.049;-1.974;4.992;0.261;16.615;65.714;63.851;70.520
5445248.495;4.284;0.149;7.041;2.123;17.136;72.829;76.294;80.280
5445248.503;7.413;1.863;9.574;5.364;18.962;79.684;82.888;84.899
5445248.511;7.562;1.118;8.866;4.247;18.626;86.986;85.346;84.378
5445248.519;6.147;-0.112;8.233;3.204;18.328;83.819;75.325;71.675
5445248.527;11.586;5.402;13.411;8.792;22.762;76.517;61.169;64.485
5445248.582;11.362;5.998;11.548;7.749;21.756;76.741;59.232;68.806
5445248.590;3.912;-2.235;4.992;-2.906;17.397;75.400;60.610;72.606
5445248.598;0.075;-3.614;0.075;-3.353;11.362;74.394;65.230;79.796
5445248.606;-4.321;-7.153;-5.290;-6.743;5.700;69.812;69.402;82.664
5445248.614;-2.086;-6.221;-2.682;-7.190;9.649;68.210;76.182;77.039
5445248.622;7.451;1.006;7.786;-0.224;19.334;81.062;91.605;88.289
5445248.630;5.402;-2.347;4.023;-3.763;15.721;85.272;94.473;85.160
5445248.638;3.874;-1.639;2.868;-2.049;13.970;86.166;88.774;80.317
5445248.646;9.760;5.811;8.121;7.190;19.521;83.968;81.398;77.896
5445248.654;19.111;13.672;14.454;12.852;24.997;79.274;72.345;73.686
5445248.662;15.423;10.654;9.723;12.778;20.638;72.718;58.860;69.365
5445248.670;7.674;3.316;2.943;7.004;14.417;64.149;49.025;63.106
5445248.678;2.123;-2.794;-1.863;0.969;10.580;60.350;52.303;59.903
5445248.686;-2.906;-7.637;-9.015;-1.565;3.986;68.918;68.061;75.661
5445248.694;-2.906;-5.700;-10.282;0.484;1.155;83.260;88.885;91.083
5445248.702;-5.849;-8.382;-14.193;-3.949;-2.719;85.309;96.150;90.599
5445248.710;-2.757;-6.109;-11.027;-2.608;-0.149;88.848;96.895;89.779
5445248.718;5.662;3.688;-4.098;7.488;5.588;98.646;99.055;93.803
5445248.726;11.213;10.245;0.224;15.683;11.697;97.267;93.021;86.054
5445248.734;20.340;19.483;7.935;25.369;18.887;87.582;83.782;69.737
5445248.742;20.042;19.073;5.551;25.183;15.348;78.827;73.276;60.573
5445248.750;15.497;14.938;-1.378;21.644;8.792;72.904;65.565;57.407
5445248.758;17.993;17.881;4.359;24.028;16.876;69.104;61.914;61.207
5445248.766;10.803;8.419;-2.645;13.523;10.729;59.605;55.842;64.932
5445248.808;-4.545;-8.643;-16.987;-4.396;-2.645;60.461;59.307;78.529
5445248.816;-21.011;-24.661;-31.292;-17.956;-15.572;64.634;63.181;83.111
5445248.824;-24.252;-28.089;-34.720;-22.165;-19.111;75.027;72.531;86.240
5445248.832;-19.856;-22.836;-32.671;-17.621;-16.466;90.860;88.736;92.648
5445248.840;-16.354;-18.924;-30.138;-13.672;-13.448;89.556;90.189;80.056
5445248.848;-0.559;-3.837;-14.752;2.161;1.043;85.123;88.029;66.124
5445248.856;11.511;8.866;-4.396;16.280;11.660;83.297;85.011;64.187
5445248.864;20.750;17.993;3.725;25.705;18.552;77.970;76.294;63.404
5445248.872;19.073;15.795;2.794;23.879;18.217;62.510;59.493;47.721
5445248.880;11.288;6.929;-4.321;12.964;12.480;53.756;50.776;43.549
5445248.888;-0.857;-7.153;-16.764;-1.937;0.447;55.097;51.893;55.917
5445248.896;-7.674;-13.076;-23.209;-7.823;-6.109;60.536;55.358;70.035
5445248.904;-8.754;-10.505;-21.383;-5.588;-4.284;70.781;64.746;84.490
5445248.912;-0.857;-3.837;-17.285;0.708;0.745;77.896;74.916;82.254
5445248.920;3.129;-1.453;-14.380;2.272;3.651;79.945;81.323;74.953
5445248.928;10.468;5.364;-6.035;8.382;10.505;82.925;89.519;74.767
5445248.936;15.907;11.362;-1.080;13.597;15.795;80.168;88.476;65.379
5445248.944;15.870;12.293;-0.782;16.987;17.323;75.698;82.366;56.922
5445248.952;16.354;13.076;0.373;17.285;19.521;73.090;73.351;53.793
5445248.960;13.374;9.760;0.224;12.517;20.228;65.304;58.562;54.836
5445248.968;7.562;2.123;-5.849;4.023;15.236;61.803;49.733;63.516
5445248.976;-6.557;-13.486;-16.689;-12.293;5.886;62.846;47.013;74.431
5445248.984;-10.319;-15.572;-22.203;-12.517;0.261;59.307;47.609;70.408
5445248.992;-9.835;-15.162;-21.793;-11.586;-0.447;60.350;57.891;67.800
5445249.032;2.049;-4.284;-9.015;0.298;9.276;74.096;78.864;75.027
5445249.040;8.829;4.321;-2.123;9.574;15.870;87.768;95.144;81.770
5445249.048;6.147;0.149;-1.788;2.906;17.546;84.788;90.674;74.990
5445249.056;11.139;4.843;2.347;6.035;18.999;74.916;77.747;67.465
5445249.064;9.201;2.570;0.708;2.198;14.380;55.656;53.532;53.756
5445249.072;8.531;3.390;1.490;2.123;13.448;39.227;34.496;38.557
5445249.080;8.084;4.023;1.788;2.012;13.672;43.102;39.637;44.927
5445249.088;16.466;14.268;10.319;11.288;19.372;60.275;58.860;60.871
5445249.096;12.629;11.958;5.066;13.821;11.474;70.632;69.290;67.055
5445249.104;10.468;11.176;2.831;14.640;7.041;77.188;78.939;68.881
5445249.112;9.276;8.307;4.955;10.468;11.027;79.870;82.701;72.010
5445249.120;14.305;10.431;13.709;11.101;19.632;84.452;87.582;80.988
5445249.128;16.205;12.964;13.448;14.603;16.503;73.165;79.013;68.732
5445249.136;7.935;5.551;6.035;4.098;6.892;56.438;62.622;52.564
5445249.144;7.898;3.986;9.947;0.447;12.033;47.907;49.062;51.111
5445249.152;12.219;5.178;16.131;-0.224;18.589;35.726;33.304;43.176
5445249.160;18.403;11.250;21.644;8.158;23.469;43.847;43.288;43.400
5445249.168;19.260;10.729;25.108;8.196;27.195;67.316;67.316;61.579
5445249.176;16.540;8.643;25.257;8.233;25.779;76.033;78.008;64.783
5445249.184;12.927;5.700;16.876;5.476;17.509;84.043;86.762;72.792
5445249.192;4.843;-1.341;9.313;0.261;10.505;82.217;84.192;69.365
5445249.200;6.966;2.161;11.660;4.955;11.437;78.455;80.578;72.606
5445249.208;2.943;-3.055;6.445;-1.863;6.855;66.347;69.514;65.975
5445249.216;5.811;0.671;10.654;1.639;10.133;52.974;57.258;60.797
5445249.212;2.533;-3.241;7.786;-2.943;6.370;41.723;46.641;54.054
5445249.220;8.345;1.378;14.901;0.335;13.858;38.855;47.125;49.099
5445249.228;18.477;11.548;24.289;8.941;22.799;55.544;64.671;54.501
5445249.236;27.828;22.575;34.831;18.291;32.857;88.215;92.387;71.190
5445249.244;28.126;23.022;35.800;20.713;33.453;106.767;105.202;82.143
5445249.252;17.211;14.901;23.022;15.050;20.862;103.377;98.422;78.231
5445249.260;6.594;3.651;11.735;2.310;9.760;88.774;84.490;72.084
5445249.268;-0.261;-5.141;5.811;-7.190;4.321;69.626;69.216;64.857
5445249.276;-4.955;-11.809;2.347;-12.182;1.676;45.523;50.217;53.309
5445249.284;-0.373;-7.674;8.568;-9.276;7.786;33.341;43.958;45.113
5445249.292;-3.949;-12.554;6.147;-13.001;6.482;35.390;46.007;52.713
5445249.300;-6.929;-15.609;0.298;-14.789;2.645;34.645;42.319;56.736
5445249.308;-2.235;-9.537;4.843;-10.468;6.035;40.904;44.890;53.942
5445249.316;6.184;0.782;10.915;-1.602;10.990;62.659;61.505;56.848
5445249.324;19.185;11.772;25.369;7.898;26.412;81.956;75.772;57.854
5445249.332;25.630;16.615;34.273;9.723;35.129;93.952;82.776;68.881
5445249.340;20.377;11.027;29.914;4.806;32.000;89.556;80.653;72.606
5445249.348;5.104;-3.874;15.311;-8.792;18.589;71.414;69.253;66.683
5445249.356;-6.706;-15.758;3.278;-18.887;6.780;60.275;62.957;67.130
5445249.364;-10.394;-17.174;-0.112;-19.073;2.421;54.091;59.493;68.471
5445249.372;-13.113;-19.595;-5.849;-21.048;-2.384;44.145;50.850;59.605
5445249.380;-14.901;-20.862;-7.041;-21.383;-3.651;35.055;39.898;58.413
5445249.388;-14.603;-20.824;-7.413;-21.234;-4.806;32.820;34.347;55.432
5445249.396;-12.666;-18.775;-4.694;-19.372;-2.161;47.237;47.125;51.036
5445249.335;-0.522;-5.104;6.557;-4.843;9.425;75.735;76.331;59.828
5445249.343;13.709;11.437;19.558;11.139;22.799;97.789;99.689;71.153
5445249.351;15.162;11.772;22.091;10.915;24.550;94.846;96.001;67.502
5445249.359;17.472;12.405;23.991;13.746;24.289;86.054;85.235;73.574
5445249.367;7.264;1.453;13.076;2.198;13.970;60.648;60.648;57.966
5445249.375;-0.335;-6.892;6.184;-6.147;8.158;37.663;41.686;48.578
5445249.383;-9.350;-17.136;-2.235;-16.615;1.043;11.101;17.323;36.731
5445249.391;-10.580;-17.770;-5.960;-16.391;-3.465;0.708;8.419;36.620
5445249.399;-9.909;-13.784;-7.972;-10.282;-6.668;9.723;20.303;37.216
5445249.407;-2.943;-7.451;-0.261;-4.806;1.565;29.467;45.151;42.394
5445249.415;10.096;6.147;11.660;6.966;12.890;59.791;72.345;52.899
5445249.423;16.578;12.070;16.689;11.064;16.391;83.335;86.129;62.883
5445249.431;10.952;5.178;9.798;3.427;11.139;88.066;82.552;60.089
5445249.439;11.772;6.407;9.835;4.508;12.405;83.558;74.878;63.740
5445249.447;7.190;1.602;4.917;-0.224;8.643;66.608;59.232;63.851
5445249.455;-0.894;-5.625;-0.745;-8.717;2.049;53.421;51.223;60.014
5445249.463;-6.557;-12.554;-9.760;-13.933;-4.396;51.185;52.638;63.889
5445249.471;-12.070;-18.738;-18.589;-18.775;-11.176;47.572;51.074;63.889
5445249.479;-11.809;-17.025;-16.987;-15.572;-8.419;51.409;57.146;66.720
5445249.487;-8.829;-13.448;-12.144;-12.368;-2.459;54.538;62.585;55.954
5445249.495;-2.421;-7.078;-6.743;-5.774;1.118;65.416;74.096;56.960
5445249.503;11.660;8.605;4.247;12.256;9.388;80.764;85.607;58.562
5445249.511;14.193;10.878;6.370;11.548;11.772;82.217;79.758;54.762
5445249.519;7.711;3.688;1.602;1.192;8.680;73.239;61.095;55.730
5445249.514;11.027;6.966;3.278;6.557;10.431;63.591;46.752;56.364
5445249.522;15.758;10.729;7.674;9.723;14.305;57.071;40.866;60.499
5445249.530;15.348;8.643;9.350;7.674;18.254;48.764;38.929;62.473
5445249.538;17.509;10.543;10.692;10.617;18.887;37.216;39.823;54.799
5445249.546;16.876;11.511;8.531;12.666;15.721;34.198;43.660;55.097
5445249.554;6.519;2.719;-2.719;5.066;5.551;43.511;52.005;62.585
5445249.562;-4.135;-7.078;-16.801;-3.949;-7.488;57.817;61.691;62.734
5445249.570;-9.425;-11.995;-21.271;-9.201;-9.723;75.810;77.933;63.628
5445249.578;-4.470;-7.190;-15.572;-3.055;-4.396;84.303;81.696;67.316
5445249.586;-0.112;-2.831;-10.952;0.186;1.825;77.114;69.216;58.189
5445249.594;4.880;0.857;-4.172;1.416;8.941;64.671;52.340;46.268
5445249.602;8.792;3.763;0.373;3.055;12.182;56.475;42.282;47.833
5445249.610;5.104;-0.708;-3.353;-1.416;8.717;45.337;34.571;49.360
5445249.618;3.800;-2.719;-5.029;-3.949;7.041;35.353;31.404;54.091
5445249.626;-0.596;-5.998;-9.201;-7.004;3.017;36.620;39.004;63.293
5445249.634;3.129;-3.427;-5.700;-6.221;6.296;43.027;53.272;62.846
5445249.642;10.878;4.992;1.639;2.272;10.692;56.177;69.030;64.485
5445249.650;10.133;5.029;0.559;5.886;9.276;71.675;81.621;65.453
5445249.658;10.841;7.153;-1.043;9.537;10.058;81.770;87.470;61.765
5445249.666;11.362;10.841;-3.166;13.225;8.084;85.309;83.148;60.946
5445249.674;3.316;4.508;-11.995;8.717;1.304;74.282;66.273;56.215
5445249.682;1.341;1.006;-11.101;3.688;6.333;53.458;43.362;47.013
5445249.690;2.570;0.820;-8.121;2.421;8.568;41.984;30.175;47.833
5445249.698;-5.625;-7.823;-15.460;-10.096;2.123;29.393;19.856;39.078
5445249.754;-0.931;-1.825;-11.884;-3.166;3.912;29.095;25.406;46.156
5445249.762;-6.072;-8.345;-15.199;-10.617;2.421;34.645;37.290;54.576
5445249.770;-3.129;-8.531;-9.574;-11.213;9.350;41.872;48.429;54.576
5445249.778;-3.204;-7.786;-9.276;-10.394;7.749;48.019;57.332;43.847
5445249.786;-5.737;-8.270;-10.096;-11.846;4.508;47.423;56.326;35.353
5445249.794;-0.298;-1.974;-5.364;-5.029;7.115;45.225;50.254;32.261
5445249.802;-1.341;-4.508;-6.594;-7.153;5.774;45.709;45.188;36.731
5445249.810;-2.943;-7.749;-5.402;-10.431;7.339;39.935;33.081;42.021
5445249.818;0.261;-4.023;-1.416;-7.898;7.860;35.167;26.375;41.984
5445249.826;1.043;-1.453;-1.676;-3.166;4.545;38.557;31.255;47.386
5445249.834;0.075;-1.676;0.298;-4.806;5.253;39.190;36.471;47.088
5445249.842;5.141;3.576;6.258;-1.453;10.803;47.721;49.993;54.464
5445249.850;10.617;7.749;11.884;1.602;15.311;56.028;64.485;56.028
5445249.858;7.600;4.955;10.505;-1.080;12.666;54.054;64.000;47.684
5445249.866;1.974;-0.112;7.302;-5.998;10.058;52.676;60.461;44.368
5445249.874;5.215;3.316;12.629;-2.980;14.827;55.432;56.699;42.953
5445249.882;5.774;3.874;12.740;-0.186;14.976;54.128;47.758;43.325
5445249.890;1.565;-1.043;12.331;-6.333;16.242;50.254;39.972;46.790
5445249.898;2.161;-2.272;15.050;-8.978;19.744;47.460;38.706;49.956
5445249.906;2.719;-2.943;14.938;-8.643;17.248;48.019;44.219;53.383
5445249.914;0.484;-4.955;13.933;-10.245;16.689;41.239;39.339;49.397
5445249.922;1.825;-4.582;18.254;-11.064;21.942;32.261;32.075;47.125
5445249.930;0.969;-4.172;17.472;-10.803;20.415;34.831;37.216;45.970
5445249.938;3.949;-0.037;19.148;-8.829;20.638;48.988;53.346;48.280
5445250.008;8.568;4.843;23.767;-4.396;25.034;57.966;60.648;51.968
5445250.016;6.147;1.490;23.693;-8.717;24.028;52.862;48.913;49.695
5445250.024;1.080;-5.029;17.397;-16.689;19.185;42.729;33.714;37.588
5445250.032;-3.353;-9.313;12.405;-19.185;14.603;35.055;25.742;34.049
5445250.040;-8.754;-12.964;8.866;-20.675;10.431;31.143;26.561;35.539
5445250.048;-5.923;-8.605;11.027;-14.976;12.778;36.396;37.327;44.741
5445250.056;-2.533;-5.327;13.076;-10.617;15.311;36.694;40.829;50.291
5445250.064;-3.651;-8.978;11.250;-15.683;12.442;31.665;36.284;48.317
5445250.072;-3.017;-7.898;10.952;-16.019;11.586;32.894;38.669;46.566
5445250.080;0.335;-4.582;14.901;-11.027;15.236;35.204;41.276;37.700
5445250.088;3.204;-1.937;17.844;-7.153;19.446;43.325;46.343;32.820
5445250.096;2.943;-0.596;15.870;-5.811;18.887;53.868;50.887;34.831
5445250.104;0.000;-2.012;12.591;-7.935;15.274;53.979;46.492;39.488
5445250.112;-9.947;-11.027;2.272;-14.529;5.029;39.376;31.553;37.290
5445250.120;-16.987;-19.483;-3.129;-23.842;-0.373;32.596;31.590;38.929
5445250.128;-24.289;-29.318;-8.270;-36.322;-3.763;29.318;37.774;46.492
5445250.136;-19.073;-24.661;-5.215;-29.244;-1.453;28.871;44.182;43.809
5445250.144;-10.692;-14.715;-0.186;-17.174;1.341;38.147;53.942;46.194
5445250.152;-4.806;-7.898;5.104;-8.419;6.147;52.117;63.330;46.454
5445250.160;1.974;-0.410;12.293;0.671;12.480;53.234;60.685;35.800
5445250.168;6.557;2.310;13.150;2.459;13.523;50.552;52.117;36.322
5445250.176;-0.931;-4.172;4.806;-3.390;5.178;46.007;39.451;38.110
5445250.184;-11.250;-13.858;-4.731;-12.070;-4.880;47.497;37.774;44.480
5445250.192;-17.174;-18.477;-12.703;-16.838;-12.778;45.896;41.611;43.996
5445250.187;-20.713;-19.372;-19.036;-16.317;-20.973;47.833;49.062;49.919
5445250.195;-23.693;-20.377;-21.942;-15.944;-23.544;46.939;53.123;48.354
5445250.203;-20.303;-17.881;-16.987;-12.293;-17.248;50.403;59.456;51.670
5445250.211;-9.574;-8.047;-7.339;-2.459;-9.686;51.036;60.834;49.248
5445250.219;-10.245;-7.674;-8.047;-3.017;-12.219;48.056;54.389;38.520
5445250.227;-4.061;-0.373;-3.166;3.837;-7.711;49.621;49.546;37.774
5445250.235;0.894;3.129;-0.261;8.158;-4.061;48.727;44.629;35.577
5445250.243;-2.757;-1.080;-4.247;2.198;-8.158;46.864;38.855;33.937
5445250.251;-3.166;-1.192;-3.614;2.123;-7.637;48.913;40.159;35.763
5445250.259;-5.960;-5.402;-6.147;-2.012;-8.754;41.388;30.883;32.634
5445250.267;-19.483;-21.979;-20.303;-19.819;-20.042;33.155;21.309;33.192
5445250.275;-11.362;-13.895;-12.256;-10.952;-11.325;45.747;37.700;52.191
5445250.283;-11.511;-11.250;-12.293;-5.774;-12.293;48.876;49.360;55.209
5445250.291;-16.391;-15.236;-18.440;-7.898;-18.440;40.568;47.758;38.520
5445250.299;-11.586;-8.568;-15.832;-1.751;-16.578;40.419;49.099;39.563
5445250.307;-3.539;0.671;-7.041;9.052;-8.941;44.107;51.744;42.878
5445250.315;5.811;9.686;2.272;18.440;1.080;43.400;48.541;40.345
5445250.323;15.385;19.781;9.313;27.157;7.190;49.658;51.260;40.047
5445250.331;12.480;16.876;5.662;22.799;5.029;60.871;57.220;42.021
5445250.339;9.984;13.597;7.227;17.285;8.866;60.648;51.036;41.127
5445250.347;3.539;6.482;2.012;8.047;4.396;51.372;39.153;39.525
5445250.355;-1.565;0.857;-4.284;4.172;-0.261;43.362;32.224;47.609
5445250.363;-5.327;-2.980;-9.127;1.527;-5.402;33.081;27.679;44.368
5445250.371;-12.890;-8.829;-16.689;-2.161;-12.368;25.593;26.263;38.780
5445250.324;-6.482;-1.900;-12.629;2.943;-7.264;29.691;33.900;42.878
5445250.332;-1.937;1.416;-9.201;7.227;-1.229;33.565;40.755;41.574
5445250.340;1.900;6.482;-6.333;14.231;2.906;32.745;40.866;36.061
5445250.348;18.738;23.320;8.978;30.547;15.870;35.763;44.256;34.273
5445250.356;19.781;23.469;10.431;29.840;17.509;32.559;40.010;25.071
5445250.364;18.552;20.489;11.846;24.028;17.583;33.565;34.384;20.787
5445250.372;15.795;14.864;9.425;14.864;15.311;35.614;27.083;29.430
5445250.380;2.198;-1.155;-2.272;-1.490;5.625;19.297;6.855;16.131
5445250.388;-15.497;-20.713;-19.744;-21.309;-8.680;13.784;0.484;23.767
5445250.396;-28.126;-32.112;-34.720;-30.324;-21.793;20.005;10.356;30.585
5445250.404;-32.894;-36.135;-39.078;-32.224;-25.444;32.037;26.450;40.270
5445250.412;-29.951;-32.857;-37.141;-27.195;-21.718;40.904;42.059;45.784
5445250.420;-30.398;-33.416;-37.402;-26.114;-19.632;44.405;50.515;45.039
5445250.428;-29.877;-32.298;-36.247;-24.997;-18.291;40.419;50.701;38.333
5445250.436;-27.195;-29.393;-32.671;-21.681;-14.082;30.361;41.537;28.536
5445250.444;-20.526;-22.464;-28.983;-14.491;-10.505;24.214;27.902;24.214
5445250.452;-12.852;-13.299;-23.320;-7.749;-4.880;25.816;18.626;22.091
5445250.460;-12.666;-12.890;-21.867;-7.935;-3.166;27.046;12.442;21.495
5445250.468;-9.686;-10.952;-18.552;-6.333;-1.825;30.287;15.311;29.579
5445250.476;-13.299;-15.348;-20.899;-11.921;-3.390;34.012;23.060;34.943
5445250.484;-19.036;-19.148;-26.599;-16.876;-7.860;41.276;35.800;41.835
5445250.492;-26.599;-25.854;-35.726;-22.799;-15.944;40.829;41.127;43.698
5445250.500;-24.959;-23.097;-34.235;-18.887;-16.876;38.855;44.107;47.050
5445250.508;-20.228;-18.403;-29.840;-12.107;-11.064;39.227;48.652;50.403
5445250.473;-18.142;-18.328;-27.642;-12.778;-8.568;30.026;39.227;34.906
5445250.481;-15.423;-15.870;-25.816;-10.319;-5.439;26.971;30.547;29.542
5445250.489;-14.044;-13.411;-24.587;-8.494;-4.396;25.928;24.214;22.277
5445250.497;-7.041;-7.562;-17.658;-2.980;1.527;33.826;27.940;27.083
5445250.505;-3.502;-2.719;-15.385;2.161;2.086;43.474;34.086;32.708
5445250.513;-5.700;-3.576;-16.429;0.373;-0.484;47.125;35.204;38.147
5445250.521;-10.468;-9.239;-19.334;-8.233;-3.204;41.500;32.820;35.129
5445250.529;-13.858;-14.715;-21.271;-15.497;-6.743;39.525;37.961;41.351
5445250.537;-19.632;-20.191;-24.587;-21.271;-11.548;40.308;45.672;48.392
5445250.545;-21.458;-22.128;-22.128;-22.501;-8.568;41.500;51.185;47.684
5445250.553;-4.619;-6.109;-2.719;-6.147;6.892;47.311;60.089;54.762
5445250.561;3.986;4.023;7.264;5.290;14.007;43.027;57.295;43.362
5445250.569;12.182;11.846;15.423;12.852;19.781;41.127;49.844;38.072
5445250.577;7.190;4.359;11.921;5.513;16.876;38.445;37.663;34.124
5445250.585;12.629;9.649;19.148;11.846;22.426;39.302;28.200;36.508
5445250.593;9.686;5.737;16.242;7.786;18.440;35.502;21.905;27.567
5445250.601;7.041;4.359;13.150;8.829;17.509;45.262;34.533;36.433
5445250.609;-3.092;-4.880;3.465;0.447;8.531;54.315;48.839;45.262
5445250.617;-13.225;-15.683;-4.098;-11.064;1.453;53.048;54.426;44.703
5445250.625;-13.150;-15.348;-4.098;-12.480;-0.745;49.807;59.158;46.417
5445250.633;-18.589;-19.595;-6.706;-17.248;-1.602;38.669;55.879;29.877
5445250.641;-10.170;-10.431;2.459;-7.190;7.525;29.691;48.056;21.905
5445250.649;-4.582;-6.184;6.594;-3.614;9.984;29.914;39.153;33.751
5445250.657;-0.633;-1.229;9.388;1.676;9.537;27.791;27.567;35.949
5445250.714;4.321;6.817;12.852;9.127;9.984;39.712;30.585;41.984
5445250.722;4.284;7.227;12.591;11.139;10.282;47.646;36.694;37.365
5445250.730;5.364;7.004;15.050;9.052;12.554;43.064;35.278;27.642
5445250.738;1.602;2.235;13.895;2.794;11.660;38.110;34.235;27.232
5445250.746;-1.937;-2.719;13.858;-0.931;12.182;34.459;35.428;32.671
5445250.754;-5.364;-7.227;10.505;-6.855;10.617;30.138;35.465;35.986
5445250.762;-3.576;-5.886;10.282;-5.849;11.176;28.461;38.259;33.714
5445250.770;-7.302;-7.898;5.625;-7.525;7.898;32.708;42.543;39.339
5445250.778;-6.407;-7.674;9.872;-9.611;13.486;35.278;42.841;46.268
5445250.786;-11.101;-11.697;2.161;-10.692;5.029;27.455;33.826;38.818
5445250.794;-14.640;-13.299;-5.625;-9.015;-6.147;21.048;22.501;23.842
5445250.802;-5.476;-1.565;-2.682;2.272;-7.451;26.375;21.122;16.652
5445250.810;-2.496;-0.820;3.614;0.484;0.484;28.275;18.217;12.778
5445250.818;6.221;3.576;21.458;3.129;22.016;26.114;18.552;15.460
5445250.826;0.037;-1.788;15.274;-2.719;20.042;27.120;26.226;24.661
5445250.834;-4.396;-6.147;10.394;-6.258;15.870;30.920;38.520;33.937
5445250.842;-5.886;-7.898;7.227;-7.674;11.288;29.467;41.872;37.812
5445250.850;-6.594;-7.711;6.519;-9.798;9.984;29.877;40.494;42.059
5445250.858;-7.898;-9.798;7.004;-14.491;10.021;33.155;39.078;41.761
5445250.866;-2.496;-4.470;14.305;-8.047;16.764;33.453;34.347;35.167
5445250.874;4.210;2.012;19.781;-0.559;19.632;32.410;25.928;23.693
5445250.882;8.419;5.439;22.426;3.614;20.489;34.012;24.736;18.664
5445250.890;11.660;9.611;25.406;6.557;22.016;31.292;26.301;7.227
5445250.898;11.362;8.643;27.865;4.992;24.848;32.596;32.447;14.566
5445250.967;0.894;-3.651;19.632;-8.643;17.248;23.246;26.785;19.409
5445250.975;-12.703;-16.578;6.557;-20.601;3.800;17.174;23.171;21.905
5445250.983;-13.001;-16.280;4.955;-20.899;2.198;15.274;23.283;23.246
5445250.991;-6.519;-9.239;10.282;-15.646;7.264;17.919;26.226;28.908
5445250.999;-1.676;-4.172;16.503;-10.431;13.746;18.515;24.401;30.138
5445251.007;3.576;1.714;21.122;-4.917;17.807;21.793;26.673;29.616
5445251.015;14.417;12.964;30.547;4.768;24.885;32.373;34.124;28.759
5445251.023;20.452;19.521;35.502;12.331;30.287;38.520;37.514;22.091
5445251.031;24.736;22.501;40.270;15.013;36.471;36.284;32.671;15.683
5445251.039;25.593;23.991;41.053;16.801;35.949;34.571;31.814;19.819
5445251.047;12.219;10.058;27.008;3.241;22.650;26.077;26.710;20.899
5445251.055;9.015;6.035;26.375;-1.118;23.171;17.323;22.724;23.991
5445251.063;6.966;2.719;25.146;-5.141;21.905;7.562;16.466;22.575
5445251.071;-0.969;-3.390;16.727;-10.654;15.087;3.353;11.735;18.515
5445251.079;-1.453;-3.539;15.274;-10.431;16.242;7.898;13.635;23.656
5445251.087;4.508;1.676;20.675;-6.184;22.352;18.328;21.234;32.894
5445251.095;13.225;11.548;30.026;3.316;30.138;27.530;28.238;29.467
5445251.103;24.997;21.048;40.345;11.250;39.935;35.949;34.720;26.338
5445251.111;34.422;29.467;48.988;20.005;47.758;42.431;36.955;24.736
5445251.119;36.880;33.453;50.068;26.487;48.876;43.027;32.932;24.773
5445251.127;23.320;20.191;36.359;13.225;40.382;35.316;26.748;25.630
5445251.135;14.156;9.090;28.834;-1.043;33.304;26.114;23.693;27.940
5445251.143;3.502;-1.602;19.893;-12.182;24.959;16.429;22.240;27.120
5445251.151;-0.633;-6.855;16.466;-17.099;21.160;5.811;16.093;21.085
5445251.134;5.849;0.484;22.873;-7.078;28.908;14.417;22.762;33.714
5445251.142;11.101;5.737;28.275;-0.559;35.577;22.091;26.226;39.227
5445251.150;14.380;10.468;29.728;3.800;35.912;25.146;23.022;30.510
5445251.158;23.991;20.564;36.731;13.225;42.617;30.436;22.501;22.724
5445251.166;25.369;23.805;38.333;17.807;45.225;34.310;25.555;19.111
5445251.174;27.195;26.003;41.276;20.452;45.933;40.866;36.284;20.079
5445251.182;17.919;12.964;31.441;5.104;38.631;31.777;33.341;15.832
5445251.190;4.061;-1.676;19.372;-10.170;27.828;8.941;14.417;2.906
5445251.198;2.198;-3.241;19.595;-10.841;28.983;2.086;11.399;8.494
5445251.206;2.906;-3.502;18.589;-11.437;28.238;-0.410;9.686;18.105
5445251.214;1.118;-4.657;14.007;-11.250;23.544;-5.141;5.178;17.695
5445251.222;4.247;-0.112;17.583;-6.184;25.257;-8.494;-2.086;15.721
5445251.230;4.135;-1.118;18.068;-8.270;26.338;0.075;-1.788;20.042
5445251.238;11.995;5.588;26.189;-2.310;37.290;8.680;4.545;18.701
5445251.246;24.475;19.073;39.600;11.139;50.403;20.973;18.738;19.148
5445251.254;24.587;19.483;40.047;11.362;51.707;29.467;27.567;19.185
5445251.262;23.432;17.844;39.041;8.233;51.446;32.187;30.473;22.538
5445251.270;18.589;14.342;34.682;4.955;46.715;24.177;26.077;17.360
5445251.278;7.935;3.166;22.724;-7.078;35.167;20.452;26.785;23.171
5445251.286;-0.745;-6.668;13.821;-14.231;28.200;8.903;18.701;22.687
5445251.294;-7.115;-10.245;5.551;-16.652;20.973;-1.043;4.768;25.332
5445251.302;-14.827;-14.491;-4.321;-21.271;11.511;-7.264;-6.855;21.718
5445251.310;-7.749;-7.972;1.602;-16.391;17.397;1.378;-2.533;18.254
5445251.318;4.508;3.390;11.846;-4.619;26.338;17.025;12.033;23.022
5445251.284;7.227;6.780;13.895;-1.602;27.344;20.750;16.578;18.328
5445251.292;15.087;14.193;19.372;5.774;32.596;26.226;21.011;25.369
5445251.300;15.795;15.087;20.415;10.394;33.639;17.807;12.703;12.331
5445251.308;12.219;10.841;19.968;4.992;33.118;16.540;13.858;15.609
5445251.316;0.596;-1.490;10.729;-5.811;24.699;18.291;21.420;18.962
5445251.324;-8.941;-10.468;0.484;-14.454;14.454;20.750;24.773;23.842
5445251.332;-16.280;-17.397;-6.706;-22.426;6.370;18.030;21.420;27.642
5445251.340;-21.942;-21.346;-11.139;-24.773;1.751;8.084;12.368;20.154
5445251.348;-21.271;-18.999;-7.823;-21.644;2.384;7.786;10.580;15.050
5445251.356;-14.864;-10.990;-2.235;-13.709;7.413;12.554;11.995;13.374
5445251.364;-8.903;-4.135;3.800;-8.941;12.219;8.456;5.253;8.196
5445251.372;-6.072;-2.459;8.084;-8.903;14.491;2.310;1.453;4.806
5445251.380;0.373;4.508;13.448;-1.341;19.893;5.886;9.909;2.906
5445251.388;4.433;8.121;19.893;2.645;25.034;15.311;23.581;11.362
5445251.396;0.484;2.757;18.664;-3.055;22.687;16.168;24.103;16.578
5445251.404;-4.880;-4.396;14.268;-10.952;18.030;16.205;21.271;20.899
5445251.412;-6.631;-5.849;12.107;-12.666;15.907;15.534;18.738;23.358
5445251.420;-9.388;-9.201;8.307;-15.125;10.990;14.380;18.105;19.073
5445251.428;-8.419;-7.376;8.121;-13.448;9.388;17.956;20.489;17.174
5445251.436;-3.912;-2.310;13.001;-8.419;13.188;23.246;26.673;19.111
5445251.444;-4.321;-2.496;14.715;-6.519;12.964;17.025;26.301;10.431
5445251.452;-4.470;-3.539;14.082;-9.313;12.070;2.831;16.615;-0.820
5445251.460;2.980;2.570;21.681;-4.880;18.328;4.396;16.391;4.619
5445251.468;10.431;10.878;31.255;4.135;27.642;16.913;22.911;13.001
5445251.449;1.937;3.614;23.283;-4.768;20.899;20.787;19.632;16.093
5445251.457;-10.319;-8.084;12.517;-16.354;11.437;24.885;17.621;27.120
5445251.465;-11.995;-11.772;13.337;-20.266;13.746;21.830;14.603;24.252
5445251.473;-6.407;-7.302;18.999;-16.317;19.297;17.434;16.466;19.297
5445251.481;-8.978;-7.600;15.348;-15.572;14.715;17.509;24.736;17.285
5445251.489;-9.201;-7.637;14.789;-14.938;13.784;15.460;27.195;12.852
5445251.497;-1.155;0.373;21.979;-7.451;20.154;18.477;28.498;13.635
5445251.505;-0.671;0.298;23.767;-8.531;22.575;19.781;23.805;18.291
5445251.513;2.645;3.614;26.114;-4.619;25.406;14.566;13.225;14.789
5445251.521;12.219;13.113;36.545;3.465;35.465;13.486;12.703;15.125
5445251.529;16.056;17.397;38.296;6.482;37.104;9.388;13.374;9.313
5445251.537;16.242;16.205;37.178;4.396;35.092;9.947;17.956;10.319
5445251.545;7.264;4.917;28.498;-7.451;27.455;14.491;23.320;15.795
5445251.553;1.192;-1.565;24.252;-12.740;23.879;16.354;19.819;19.595
5445251.561;9.276;8.121;31.404;-0.559;29.951;17.621;17.658;19.036
5445251.569;11.362;10.915;31.218;0.745;27.753;17.062;15.572;15.497
5445251.577;9.611;9.052;28.610;-1.639;26.710;16.950;16.205;12.890
5445251.585;16.503;15.050;38.445;3.055;36.024;10.207;13.225;10.356
5445251.593;15.683;13.039;38.706;1.937;35.726;-6.594;1.900;4.880
5445251.601;19.222;18.552;38.035;9.201;34.757;-16.503;-3.502;-0.373
5445251.609;14.342;13.150;34.869;3.055;34.086;-14.789;-0.820;-1.714
5445251.617;9.462;6.855;33.304;-3.017;34.459;4.247;13.374;11.697
5445251.625;-4.545;-6.557;17.472;-14.193;18.477;15.646;19.036;11.213
5445251.633;-17.472;-20.154;4.023;-27.008;6.445;17.472;16.242;6.035
5445251.689;-20.079;-23.656;2.384;-31.851;6.072;15.944;11.176;6.519
5445251.697;-17.770;-20.601;7.413;-29.169;11.660;15.534;10.394;9.574
5445251.705;-12.033;-12.778;13.858;-20.079;16.242;13.895;12.293;11.139
5445251.713;-6.780;-5.774;16.466;-10.431;17.211;7.674;11.772;5.066
5445251.721;-2.719;-1.863;18.030;-8.568;18.515;2.421;8.121;6.966
5445251.729;0.857;0.559;22.613;-9.462;23.358;-1.043;4.135;7.413
5445251.737;5.402;3.837;28.685;-7.749;29.877;-0.969;4.172;7.749
5445251.745;12.405;10.096;36.620;-2.496;37.774;4.619;12.890;12.368
5445251.753;11.995;10.654;35.390;-0.559;35.763;11.176;22.277;15.572
5445251.761;9.015;7.786;30.249;-2.459;33.118;21.644;29.169;23.656
5445251.769;8.680;7.898;29.802;-1.676;33.304;27.753;30.920;21.718
5445251.777;7.115;7.786;27.865;-0.745;30.324;26.859;27.567;17.136
5445251.785;9.798;11.474;29.989;2.533;32.261;20.191;19.744;13.784
5445251.793;8.941;9.984;27.604;1.267;31.367;7.711;6.482;10.431
5445251.801;5.849;5.960;23.879;-1.751;28.051;-0.075;-3.055;12.256
5445251.809;2.719;1.937;21.234;-8.829;25.742;5.066;-0.820;22.389
5445251.817;5.439;4.992;25.928;-5.737;31.069;11.437;7.041;23.879
5445251.825;10.170;9.090;30.436;-2.421;36.769;8.009;9.499;8.680
5445251.833;12.107;11.511;33.230;-0.671;38.520;8.009;16.578;4.135
5445251.841;9.164;7.674;30.734;-6.407;35.167;6.333;20.415;-4.061
5445251.849;7.227;4.731;26.263;-7.078;31.702;8.009;17.956;2.608
5445251.857;4.731;1.639;22.464;-9.723;25.854;11.697;14.976;15.050
5445251.865;-5.066;-5.513;12.703;-16.205;16.876;18.068;14.305;25.593
5445251.873;-5.774;-6.892;13.709;-19.409;20.750;20.713;12.517;24.177
5445251.929;-7.413;-8.307;11.921;-20.079;20.005;25.854;15.385;26.114
5445251.937;-4.470;-3.427;11.697;-13.821;19.222;31.181;21.793;25.928
5445251.945;-4.843;-2.012;9.947;-11.399;18.664;26.263;18.440;16.950
5445251.953;-9.984;-6.258;6.035;-15.311;16.019;-0.782;-4.098;-10.207
5445251.961;-7.153;-4.582;7.227;-14.417;18.068;-22.948;-17.546;-19.819
5445251.969;-11.548;-7.935;2.980;-18.291;15.758;-27.046;-10.431;-14.529
5445251.977;-17.062;-12.778;-2.235;-21.234;10.803;-7.339;12.890;4.098
5445251.985;-17.993;-12.144;-5.811;-19.036;5.327;18.105;29.467;24.736
5445251.993;-12.554;-6.072;-0.894;-12.740;10.170;35.726;36.433;34.980
5445252.001;-3.986;2.086;7.637;-4.955;18.328;40.494;33.490;30.585
5445252.009;10.431;16.652;22.799;10.431;32.969;32.037;20.713;23.954
5445252.017;19.856;25.928;32.075;19.781;40.866;10.878;1.118;6.966
5445252.025;11.437;16.913;20.117;10.841;29.169;-9.798;-14.715;-5.513
5445252.033;2.496;6.892;9.909;1.118;22.054;-16.764;-16.540;-4.880
5445252.041;1.341;5.476;8.009;-0.559;20.638;-16.652;-10.096;-3.166
5445252.049;-8.233;-5.849;0.745;-14.417;13.597;-16.391;-2.794;-8.829
5445252.057;-14.193;-12.629;-3.427;-21.867;11.586;-2.645;15.683;1.527
5445252.065;-12.070;-10.692;-0.596;-20.266;15.758;13.523;30.287;15.981
5445252.073;-16.764;-15.385;-9.835;-24.326;7.898;20.154;28.946;22.314
5445252.081;-15.460;-14.044;-9.164;-21.607;8.680;26.897;26.785;24.252
5445252.089;-10.468;-8.866;-4.470;-16.950;12.517;26.338;17.732;24.624
5445252.097;-8.345;-5.588;-2.682;-10.692;12.629;19.632;4.843;22.724
5445252.105;-5.290;-1.378;-0.149;-4.061;13.709;9.313;-8.009;15.721
5445252.113;-5.253;-0.894;-1.118;-3.949;11.139;-4.955;-15.870;-5.588
5445252.078;-0.037;4.396;3.278;1.043;14.268;1.304;-1.602;-0.112
5445252.086;0.522;6.147;4.396;4.768;15.348;-2.161;4.843;-12.256
5445252.094;-3.949;0.596;0.782;-1.863;11.735;-0.149;12.815;-11.437
5445252.102;-4.731;-0.820;1.341;-4.545;10.580;7.115;25.369;2.459
5445252.110;-7.786;-3.278;-1.229;-5.253;6.333;14.342;35.241;14.454
5445252.118;-18.440;-14.044;-10.468;-15.236;-2.980;16.391;33.565;13.448
5445252.126;-21.644;-17.323;-13.448;-17.956;-7.600;20.638;28.387;15.683
5445252.134;-17.583;-12.703;-9.686;-13.895;-4.917;20.042;21.197;12.405
5445252.142;-5.513;0.894;3.129;1.229;6.296;18.030;16.354;12.703
5445252.150;-0.633;6.817;9.574;10.058;10.245;4.619;1.676;2.235
5445252.158;-3.129;3.949;6.631;7.078;6.445;-9.499;-11.735;-9.276
5445252.166;-6.147;0.373;0.671;3.576;0.633;-14.566;-15.050;-8.158
5445252.174;-0.782;7.227;6.221;11.437;3.129;-14.119;-11.772;3.912
5445252.182;2.272;10.170;10.319;13.933;7.041;-3.539;6.445;6.072
5445252.190;2.235;11.027;9.723;15.162;5.923;10.692;28.051;8.792
5445252.198;5.588;15.832;13.746;21.346;8.978;26.561;43.586;22.016
5445252.206;-1.229;8.009;9.723;13.337;4.545;23.805;35.986;18.328
5445252.214;-4.023;2.682;8.419;7.451;3.576;19.372;26.599;16.093
5445252.222;-6.594;-1.229;6.445;2.310;0.931;8.568;13.262;8.084
5445252.230;-8.680;-2.794;4.768;1.453;-1.192;3.912;5.700;4.396
5445252.238;-3.651;3.502;7.413;9.388;1.304;-2.719;-1.751;-2.235
5445252.246;-0.633;5.588;8.792;10.803;0.857;-11.064;-8.531;-11.586
5445252.254;0.931;7.860;10.021;12.778;-0.037;-4.768;-1.825;-3.614
5445252.262;-5.588;0.931;5.849;6.743;-4.023;-2.235;2.235;2.086
5445252.199;-7.935;-1.192;2.459;4.321;-6.668;4.135;10.468;10.394
5445252.207;-6.482;-1.527;3.725;2.570;-6.445;19.073;28.610;15.758
5445252.215;-7.525;-2.272;3.502;1.527;-6.668;34.943;42.059;24.885
5445252.223;-9.909;-2.831;0.633;4.284;-7.749;38.520;42.953;22.650
5445252.231;-4.135;4.210;6.668;12.554;-1.900;42.208;45.151;28.610
5445252.239;-3.874;3.800;6.817;12.182;-1.974;34.757;37.216;21.011
5445252.247;-8.680;-1.080;-0.820;6.445;-10.431;17.174;18.664;3.576
5445252.255;-10.319;-1.006;-4.098;6.296;-13.039;1.527;1.900;-4.657
5445252.263;-8.903;0.857;-0.969;8.307;-9.723;-15.311;-14.193;-10.133
5445252.271;-9.127;0.335;-1.118;7.525;-10.543;-25.444;-21.532;-7.041
5445252.279;-7.041;2.496;-0.857;9.723;-10.878;-23.246;-15.423;-5.737
5445252.287;-2.570;5.886;3.539;11.176;-6.855;-4.321;7.786;1.676
5445252.295;0.373;8.158;6.855;13.299;-2.347;28.908;41.425;20.377
5445252.303;4.470;11.884;9.276;17.062;0.149;49.360;57.966;29.467
5445252.311;2.757;8.829;7.898;14.417;-2.049;42.729;45.970;18.515
5445252.319;-1.490;4.359;5.588;9.201;-4.843;27.642;27.679;7.115
5445252.327;-9.350;-3.278;-2.310;1.602;-12.480;7.339;7.935;-4.135
5445252.335;-12.703;-7.227;-4.657;-2.459;-15.125;-14.044;-13.001;-11.548
5445252.343;-11.623;-7.004;-3.241;-1.863;-12.293;-19.893;-19.409;-7.935
5445252.351;-11.064;-6.780;-2.198;-2.310;-10.170;-20.266;-19.036;-9.537
5445252.359;-11.846;-7.637;-2.198;-4.917;-12.480;-17.546;-18.328;-7.153
5445252.367;-6.072;-2.459;3.204;-1.043;-7.264;-11.958;-11.548;-1.602
5445252.375;-0.484;2.608;7.041;4.694;-2.682;-9.425;-0.484;-6.817
5445252.383;-4.359;1.080;5.960;4.396;-1.527;3.576;18.664;-5.364
5445252.378;-1.378;4.433;9.388;8.084;2.757;15.981;30.994;0.931
5445252.386;-3.725;3.092;2.980;6.370;-3.502;14.342;24.401;1.304
5445252.394;-10.282;-2.235;-5.029;0.708;-10.133;3.316;4.433;-3.278
5445252.402;-5.923;1.825;-1.341;3.055;-6.817;-9.276;-14.082;-2.794
5445252.410;-13.001;-6.519;-7.227;-5.849;-11.362;-27.865;-29.579;-10.021
5445252.418;-14.678;-10.654;-7.339;-7.935;-8.978;-36.061;-30.920;-17.397
5445252.426;-6.482;-0.894;-1.080;2.906;-3.353;-30.659;-21.197;-14.640
5445252.434;-1.155;7.823;1.453;12.182;-2.943;-20.191;-8.605;-12.927
5445252.442;1.825;12.070;2.161;16.950;-3.241;-9.127;2.049;-8.047
5445252.450;0.037;10.207;-0.298;14.491;-4.247;4.061;13.523;1.714
5445252.458;-7.078;3.353;-5.998;10.207;-9.611;11.735;19.222;6.296
5445252.466;-12.293;-2.943;-11.288;2.906;-15.274;13.374;19.260;9.462
5445252.474;-23.805;-17.062;-23.171;-12.405;-25.257;4.768;8.270;5.551
5445252.482;-26.599;-20.005;-22.799;-17.695;-23.469;-9.686;-6.035;-4.806
5445252.490;-20.191;-13.039;-16.540;-10.878;-16.168;-15.907;-10.245;-9.164
5445252.498;-19.670;-13.150;-14.864;-11.474;-14.938;-24.289;-19.297;-16.019
5445252.506;-21.234;-12.890;-16.168;-11.548;-14.715;-34.198;-31.702;-24.624
5445252.514;-15.460;-8.158;-13.411;-5.625;-11.250;-32.373;-32.298;-21.458
5445252.522;-5.998;0.931;-6.109;2.980;-4.806;-20.936;-24.885;-8.494
5445252.530;-3.166;7.190;-6.668;9.723;-7.004;2.012;0.447;6.258
5445252.538;-1.788;6.855;-4.098;8.047;-0.373;21.420;27.306;14.007
5445252.546;1.378;8.345;1.602;8.568;5.551;26.785;35.726;12.852
5445252.554;-0.708;6.109;1.006;4.098;3.912;15.832;23.954;6.296
5445252.562;-5.327;-0.447;-4.731;-4.657;-2.310;-5.923;3.278;-10.692
5445252.573;-7.898;-5.998;-7.600;-11.437;-3.166;-22.501;-13.597;-15.460
5445252.581;-15.348;-13.299;-12.368;-19.483;-6.817;-40.755;-32.261;-18.477
5445252.589;-15.646;-14.678;-10.729;-22.203;-3.614;-51.856;-46.007;-23.618
5445252.597;-5.104;-4.098;1.192;-10.431;9.872;-39.935;-41.425;-13.411
5445252.605;-0.708;1.527;3.353;-5.178;10.766;-28.051;-35.837;-12.256
5445252.613;2.533;5.625;5.029;-1.676;11.623;-10.915;-19.707;-6.147
5445252.621;3.688;9.164;5.886;3.614;13.113;-1.416;-2.012;-6.743
5445252.629;6.482;12.033;8.196;4.806;16.540;5.998;15.274;-6.258
5445252.637;4.396;9.350;8.121;1.229;17.732;9.276;23.283;-8.903
5445252.645;0.969;4.582;6.296;-4.955;16.689;7.562;19.260;-5.551
5445252.653;-3.129;0.298;3.465;-11.288;15.646;-2.235;4.061;-5.364
5445252.661;-3.241;-1.788;5.178;-16.242;20.228;-18.142;-17.695;-8.345
5445252.669;-9.127;-8.196;-0.373;-22.985;17.174;-31.553;-34.943;-10.282
5445252.677;-10.505;-10.543;0.000;-28.312;18.328;-37.812;-42.543;-13.262
5445252.685;-7.898;-6.557;0.969;-23.469;19.930;-29.467;-36.322;-10.245
5445252.693;-2.794;-0.782;5.998;-16.466;24.848;-13.523;-23.507;-6.668
5445252.701;6.407;6.258;15.572;-11.958;33.341;0.820;-8.233;-1.378
5445252.709;9.052;8.009;20.303;-11.101;37.104;14.678;10.654;2.235
5445252.717;5.029;5.588;16.615;-14.082;34.086;20.340;21.979;5.700
5445252.725;5.402;4.210;17.434;-14.976;34.831;16.205;19.744;6.892
5445252.733;-7.041;-9.164;8.978;-28.722;26.859;-4.321;-2.272;-10.021
5445252.741;-14.864;-19.446;5.476;-40.904;23.581;-23.022;-22.091;-12.554
5445252.749;-18.328;-24.810;3.949;-48.280;22.687;-41.015;-42.096;-12.927
5445252.757;-14.231;-20.526;9.984;-43.847;26.003;-42.357;-45.002;-12.331
5445252.828;-5.327;-8.829;17.136;-27.567;30.063;-29.877;-33.081;-13.672
5445252.836;11.623;9.537;31.888;-7.674;42.543;-5.178;-8.419;-8.941
5445252.844;17.099;14.864;40.121;-4.619;51.409;13.299;10.766;3.725
5445252.852;12.070;9.574;34.459;-9.686;45.635;21.271;18.440;7.004
5445252.860;5.141;0.522;30.547;-18.105;40.755;17.621;15.572;-0.820
5445252.868;-4.247;-9.052;23.209;-27.269;33.118;1.267;2.272;-10.915
5445252.876;-6.892;-10.878;20.117;-29.020;29.057;-5.923;-5.886;-8.047
5445252.884;-6.482;-10.617;20.191;-28.126;29.355;-12.852;-12.144;-12.778
5445252.892;-6.743;-10.245;20.936;-27.753;28.647;-16.987;-15.199;-14.864
5445252.900;-6.333;-9.239;23.097;-26.524;28.424;-18.179;-15.646;-11.250
5445252.908;-15.907;-17.732;13.784;-34.459;17.546;-28.238;-27.195;-21.383
5445252.916;-13.933;-15.683;16.168;-32.671;18.068;-26.934;-28.573;-22.389
5445252.924;-6.631;-8.866;23.097;-25.444;23.954;-13.448;-21.979;-7.749
5445252.932;1.937;0.633;32.112;-17.025;31.963;7.711;-5.588;12.591
5445252.940;-0.224;-1.788;31.777;-20.675;31.702;10.245;-0.969;8.009
5445252.948;-5.364;-7.488;26.636;-26.636;27.716;4.843;-1.006;-2.272
5445252.956;-8.978;-8.941;21.607;-28.573;22.128;0.559;-0.186;-3.725
5445252.964;-9.872;-8.531;20.862;-26.636;19.930;-1.155;4.023;1.453
5445252.972;-14.529;-13.784;16.615;-33.565;16.466;-9.872;-2.831;-2.943
5445252.980;-13.188;-15.125;19.670;-38.296;20.266;-22.203;-16.689;-18.030
5445252.988;-9.872;-11.995;24.177;-37.849;23.916;-23.954;-24.959;-16.429
5445252.996;-4.321;-6.855;30.659;-32.671;31.404;-20.675;-29.281;-12.927
5445253.004;11.735;7.898;49.658;-20.377;51.931;-7.972;-22.091;-1.676
5445253.012;18.626;12.591;58.413;-19.893;62.175;-2.161;-14.789;-1.825
5445253.039;12.890;7.413;54.352;-27.977;58.711;0.149;-4.396;1.192
5445253.047;1.416;-3.390;41.574;-38.110;47.199;-4.433;-0.410;-1.229
5445253.055;-8.382;-12.740;32.224;-45.188;38.892;-12.144;-4.023;-6.743
5445253.063;-12.368;-18.142;29.951;-51.334;37.290;-15.385;-7.115;-13.113
5445253.071;-7.935;-14.640;33.081;-49.025;41.313;-13.150;-7.488;-8.978
5445253.079;-1.192;-5.774;38.296;-37.774;47.125;-12.144;-10.133;-6.035
5445253.087;-1.900;-8.717;39.488;-40.159;50.366;-27.120;-31.032;-19.148
5445253.095;-3.390;-12.480;39.265;-46.194;48.876;-22.575;-35.316;-7.451
5445253.103;-9.313;-18.589;34.347;-52.638;43.586;-20.601;-38.035;-5.849
5445253.111;-4.619;-12.331;38.333;-43.362;45.672;-14.044;-29.989;-2.831
5445253.119;-9.313;-14.976;33.006;-45.747;40.531;-5.774;-16.689;-3.986
5445253.127;-6.370;-12.070;33.565;-45.449;41.611;1.527;-1.155;-2.906
5445253.135;-2.272;-7.004;34.794;-37.365;40.941;2.123;7.451;-3.129
5445253.143;-8.941;-13.895;29.989;-43.958;37.290;-8.978;1.118;-13.448
5445253.151;-11.325;-15.870;28.796;-46.678;37.067;-14.976;-2.608;-12.480
5445253.159;-18.142;-21.271;20.191;-51.558;27.604;-18.403;-10.617;-8.531
5445253.167;-23.432;-26.487;14.566;-55.321;20.340;-12.293;-11.809;3.166
5445253.175;-21.718;-23.991;17.397;-48.317;22.650;-7.488;-11.623;5.066
5445253.183;-20.154;-20.675;17.658;-42.915;23.209;-9.015;-15.311;-5.029
5445253.191;-9.947;-8.680;25.444;-32.485;32.000;-5.886;-15.311;-6.482
5445253.199;4.582;4.098;40.717;-23.022;45.896;-4.135;-10.394;-14.380
5445253.207;9.313;6.892;44.815;-20.973;50.329;-8.903;-7.562;-23.693
5445253.215;5.290;3.725;39.525;-22.724;45.076;-10.692;-2.161;-24.885
5445253.223;-8.754;-10.021;26.450;-36.657;35.055;-20.303;-10.096;-24.438
5445253.218;-16.764;-19.148;15.348;-44.964;26.077;-26.599;-20.005;-21.085
5445253.226;-20.191;-20.452;10.133;-44.592;18.589;-14.715;-16.503;-1.416
5445253.234;-32.000;-32.596;0.447;-58.599;10.878;-15.385;-24.550;-0.037
5445253.242;-30.138;-32.708;3.055;-57.146;14.938;-17.732;-29.169;-5.104
5445253.250;-23.171;-24.065;6.557;-49.509;17.248;-14.789;-26.114;-5.662
5445253.258;-9.499;-7.600;17.025;-32.224;25.481;-7.972;-20.228;-4.992
5445253.266;9.798;12.331;34.980;-10.617;41.537;-2.421;-10.505;-10.282
5445253.274;13.150;16.317;37.663;-4.992;45.300;-10.133;-12.815;-25.108
5445253.282;7.711;10.245;34.235;-12.442;45.449;-16.019;-13.486;-27.195
5445253.290;-2.459;-3.316;26.003;-28.424;38.221;-24.848;-18.142;-31.255
5445253.298;-5.998;-8.419;20.526;-33.416;31.665;-22.985;-15.609;-20.154
5445253.306;-16.652;-19.297;8.717;-44.070;19.483;-26.524;-23.171;-6.147
5445253.314;-28.163;-30.361;-1.118;-53.234;14.119;-31.777;-33.341;0.671
5445253.322;-27.977;-33.118;-4.210;-56.848;13.709;-26.487;-31.255;8.121
5445253.330;-26.077;-33.230;-4.694;-58.375;12.517;-21.979;-28.722;-1.229
5445253.338;-25.965;-30.436;-7.153;-56.475;10.580;-19.222;-27.902;-16.727
5445253.346;-16.466;-19.632;1.453;-44.741;20.452;-7.004;-16.317;-14.342
5445253.354;-12.666;-13.858;4.880;-35.316;24.103;-7.078;-15.534;-18.664
5445253.362;-11.139;-10.766;5.439;-31.926;25.183;-15.236;-18.589;-27.046
5445253.370;-8.084;-9.872;9.760;-33.528;30.063;-23.432;-21.495;-28.983
5445253.378;-6.184;-7.562;12.331;-32.559;32.559;-30.622;-26.040;-28.796
5445253.386;-8.345;-8.866;7.004;-32.522;26.338;-27.604;-22.799;-19.297
5445253.394;-18.962;-18.477;-6.594;-42.096;14.044;-14.938;-14.938;-3.427
5445253.402;-22.054;-24.289;-5.774;-52.340;17.770;-10.096;-17.509;2.012
5445253.397;-20.601;-24.065;-2.012;-51.633;22.464;-6.706;-17.248;2.682
5445253.405;-10.468;-15.087;6.482;-42.543;31.441;-1.937;-12.591;-1.155
5445253.413;-9.798;-13.858;3.949;-39.265;30.659;-4.098;-11.437;-11.176
5445253.421;-8.158;-11.697;6.072;-34.384;31.888;-11.660;-16.503;-12.405
5445253.429;-12.852;-15.795;1.714;-37.849;28.461;-21.011;-22.799;-24.550
5445253.437;-26.301;-29.318;-10.803;-51.633;16.876;-28.014;-28.536;-32.708
5445253.445;-27.642;-32.187;-13.933;-55.358;16.131;-28.685;-29.877;-30.473
5445253.453;-27.828;-33.863;-13.746;-59.791;16.503;-26.561;-30.510;-23.730
5445253.461;-29.020;-33.863;-15.907;-59.865;14.007;-23.395;-29.877;-11.437
5445253.469;-23.805;-28.573;-12.554;-54.389;16.466;-23.618;-29.579;-5.998
5445253.477;-14.529;-20.899;-4.396;-46.827;24.959;-14.119;-18.962;1.155
5445253.485;-14.119;-18.887;-4.582;-43.474;23.693;-6.929;-9.276;-4.731
5445253.493;-20.750;-23.730;-11.027;-48.093;16.131;-10.952;-12.554;-15.534
5445253.501;-17.546;-21.681;-7.823;-47.423;18.813;-12.182;-14.268;-12.852
5445253.509;-19.409;-23.991;-10.841;-48.541;15.683;-18.664;-22.948;-18.254
5445253.517;-17.546;-22.613;-8.866;-47.572;18.291;-31.702;-41.313;-31.628
5445253.525;-6.445;-12.740;3.651;-39.861;30.510;-28.908;-38.855;-30.436
5445253.533;-0.075;-6.817;10.133;-35.390;37.141;-11.846;-16.056;-15.534
5445253.541;-10.356;-17.770;-0.522;-45.002;28.424;-17.807;-16.429;-21.569
5445253.549;-21.458;-29.616;-9.462;-57.220;20.862;-22.762;-21.607;-15.236
5445253.557;-27.455;-34.310;-13.448;-60.797;16.131;-20.862;-23.469;-6.482
5445253.565;-28.647;-32.783;-15.721;-57.220;11.921;-17.174;-23.432;0.112
5445253.573;-28.610;-30.585;-16.615;-55.023;10.878;-15.460;-26.077;3.017
5445253.581;-25.444;-25.779;-13.150;-50.366;13.635;-19.222;-30.063;-8.605
5445253.578;-19.148;-20.564;-4.135;-45.374;19.856;-22.724;-31.292;-20.415
5445253.586;-4.768;-6.892;11.921;-32.932;33.788;-15.758;-21.048;-14.305
5445253.594;-0.782;-2.608;18.515;-29.318;41.090;-16.131;-15.534;-26.226
5445253.602;8.047;4.694;28.349;-19.968;49.695;-4.247;-0.410;-23.209
5445253.610;-1.006;-6.072;21.346;-30.510;41.500;3.539;6.780;-11.027
5445253.618;-23.209;-28.610;2.868;-52.564;25.146;3.502;-0.633;3.092
5445253.626;-29.504;-37.625;-0.522;-64.261;22.575;0.894;-10.058;13.225
5445253.634;-34.049;-42.915;-3.278;-70.632;17.732;-7.376;-20.303;14.268
5445253.642;-34.533;-42.282;-4.619;-71.265;15.125;-25.444;-35.353;-11.995
5445253.650;-27.679;-33.751;2.086;-61.616;21.197;-29.728;-38.370;-21.011
5445253.658;-25.891;-30.398;2.533;-56.140;20.191;-33.528;-41.462;-24.661
5445253.666;-21.793;-24.997;6.929;-50.627;24.624;-32.745;-37.104;-27.157
5445253.674;-18.068;-22.911;11.176;-50.627;27.381;-22.054;-21.942;-23.805
5445253.682;-11.735;-18.701;20.340;-48.280;37.290;-7.898;-3.800;-16.540
5445253.690;-6.035;-14.156;28.536;-45.002;45.039;-3.241;0.969;-11.809
5445253.698;-10.654;-18.962;25.071;-51.633;41.798;-10.207;-6.929;-17.993
5445253.706;-13.635;-21.942;22.389;-54.277;39.563;-11.250;-11.325;-16.578
5445253.714;-22.762;-31.032;14.976;-62.548;31.628;-14.752;-23.618;-14.193
5445253.722;-24.736;-34.422;13.448;-66.161;28.610;-17.919;-32.000;-13.113
5445253.730;-22.389;-31.814;13.411;-62.101;27.306;-19.185;-34.980;-11.511
5445253.738;-18.030;-23.097;16.801;-51.223;29.393;-13.709;-28.610;-4.582
5445253.746;-11.437;-16.354;22.277;-45.076;35.316;-12.107;-20.340;-10.058
5445253.754;-10.468;-15.721;23.693;-42.953;35.912;-16.540;-16.242;-18.813
5445253.762;-7.004;-12.666;27.865;-40.978;40.568;-14.380;-8.084;-18.552
5445253.801;-13.635;-21.346;21.309;-50.440;35.428;-20.824;-13.746;-28.014
5445253.809;-23.209;-33.006;12.964;-62.548;27.604;-28.275;-25.705;-29.095
5445253.817;-33.043;-44.554;5.811;-74.282;21.905;-31.404;-36.508;-28.014
5445253.825;-30.585;-41.984;5.774;-72.718;22.836;-19.260;-31.590;-12.778
5445253.833;-25.108;-34.235;10.543;-65.230;25.891;-4.172;-15.907;1.565
5445253.841;-30.957;-39.600;3.986;-70.855;19.446;-11.325;-17.211;-15.013
5445253.849;-38.482;-45.598;-5.066;-75.512;10.990;-21.756;-26.897;-23.842
5445253.857;-37.327;-44.517;-3.465;-74.431;12.144;-24.624;-29.802;-24.401
5445253.865;-34.608;-41.537;-0.298;-69.961;15.646;-26.487;-29.430;-25.444
5445253.873;-30.026;-38.221;2.757;-67.987;19.036;-25.071;-24.624;-24.214
5445253.881;-35.763;-44.666;-4.321;-74.729;11.697;-28.424;-22.985;-26.561
5445253.889;-32.410;-40.904;0.149;-70.706;15.534;-25.667;-15.311;-23.507
5445253.897;-22.911;-33.528;11.660;-65.714;27.083;-25.816;-16.131;-24.363
5445253.905;-19.372;-31.553;14.603;-65.640;30.175;-21.309;-20.601;-19.744
5445253.913;-21.011;-32.336;12.182;-65.640;27.567;-12.964;-23.432;-8.456
5445253.921;-15.683;-26.263;14.156;-56.662;27.381;-7.749;-25.481;-7.041
5445253.929;-13.746;-22.985;12.070;-51.297;24.736;-5.662;-25.630;-2.906
5445253.937;-21.867;-27.940;4.917;-55.991;17.323;-16.429;-33.677;-12.778
5445253.945;-26.636;-32.485;0.224;-59.679;12.144;-20.489;-32.149;-21.011
5445253.953;-19.148;-24.885;8.047;-49.956;20.191;-17.323;-19.483;-19.968
5445253.961;-12.852;-20.191;15.423;-45.747;28.312;-16.242;-9.947;-16.578
5445253.969;-15.609;-23.730;12.517;-48.615;26.263;-23.432;-11.809;-21.234
5445253.977;-19.372;-27.642;8.605;-52.340;23.022;-25.481;-15.236;-18.738
5445253.985;-19.819;-27.120;5.700;-51.633;22.165;-24.550;-22.613;-17.211
5445253.955;-13.374;-19.670;13.746;-45.858;33.341;-10.282;-16.578;-8.009
5445253.963;-10.729;-19.968;14.268;-47.870;33.267;-4.880;-13.150;-12.442
5445253.971;-11.995;-19.707;13.039;-46.082;30.957;-2.459;-8.866;-11.735
5445253.979;-23.581;-30.920;0.000;-57.295;18.999;-9.276;-12.256;-17.993
5445253.987;-29.989;-36.508;-7.302;-60.722;12.331;-9.798;-10.766;-15.125
5445253.995;-35.949;-42.357;-12.927;-63.851;7.227;-16.391;-16.429;-17.807
5445254.003;-38.035;-44.852;-13.746;-65.677;9.276;-31.553;-28.200;-26.077
5445254.011;-34.496;-40.717;-9.798;-61.505;14.789;-40.419;-33.826;-26.152
5445254.019;-32.820;-37.961;-10.245;-59.754;16.503;-37.365;-29.393;-24.363
5445254.027;-31.851;-37.663;-9.835;-61.058;18.030;-28.573;-21.793;-27.604
5445254.035;-27.232;-33.900;-3.166;-59.158;25.705;-13.299;-12.144;-19.260
5445254.043;-24.885;-31.553;-1.080;-57.369;27.679;-4.694;-10.692;-15.385
5445254.051;-21.905;-27.344;0.782;-51.819;29.206;-4.284;-14.566;-11.660
5445254.059;-20.452;-25.146;1.900;-50.478;31.106;-9.462;-20.042;-13.933
5445254.067;-20.862;-25.854;0.186;-51.893;30.808;-11.697;-21.793;-14.342
5445254.075;-27.232;-32.932;-6.184;-58.115;24.997;-13.188;-21.979;-14.603
5445254.083;-32.596;-37.514;-12.703;-61.244;17.695;-19.893;-24.512;-16.764
5445254.091;-36.471;-39.898;-19.073;-61.877;11.735;-37.663;-33.639;-29.355
5445254.099;-35.055;-37.551;-19.111;-60.722;12.890;-52.154;-41.202;-29.169
5445254.107;-35.465;-37.774;-18.179;-60.983;16.689;-50.552;-37.961;-25.518
5445254.115;-34.533;-35.837;-15.572;-58.413;20.303;-30.212;-22.352;-20.973
5445254.123;-29.877;-30.883;-11.064;-52.564;25.295;-10.170;-10.319;-15.832
5445254.131;-18.589;-21.830;-3.204;-45.002;32.708;-4.433;-12.703;-13.970
5445254.139;-15.460;-19.930;-1.900;-43.847;33.900;-6.929;-18.850;-15.460
5445254.104;-23.693;-26.599;-11.139;-50.776;24.773;-16.466;-29.169;-26.412
5445254.112;-29.467;-31.590;-16.242;-56.587;19.483;-18.664;-30.957;-24.736
5445254.120;-35.912;-38.072;-25.481;-62.734;11.027;-23.693;-32.187;-24.103
5445254.128;-37.439;-39.265;-27.418;-62.212;7.898;-32.224;-34.831;-26.412
5445254.136;-32.000;-31.367;-19.968;-51.409;14.044;-26.599;-22.985;-14.044
5445254.144;-36.657;-35.949;-26.189;-53.681;9.313;-20.713;-14.044;-9.798
5445254.152;-42.021;-41.313;-31.218;-59.679;4.433;-7.786;-4.768;-2.943
5445254.160;-47.386;-45.896;-33.975;-64.112;3.614;-3.316;-2.086;-8.643
5445254.168;-45.002;-44.890;-34.310;-64.746;6.370;-5.700;-6.780;-16.652
5445254.176;-38.221;-40.419;-27.530;-60.424;14.827;-7.637;-13.150;-16.280
5445254.184;-43.288;-45.188;-33.341;-64.597;8.531;-16.429;-25.965;-22.911
5445254.192;-42.878;-43.288;-34.161;-62.883;6.892;-20.601;-32.559;-18.626
5445254.200;-46.492;-46.864;-38.072;-67.167;4.396;-26.971;-40.457;-16.019
5445254.208;-49.621;-50.068;-44.294;-70.147;-1.006;-39.525;-50.329;-28.573
5445254.216;-49.733;-49.435;-44.852;-67.838;-2.757;-43.251;-48.205;-26.971
5445254.224;-52.564;-50.403;-47.423;-66.981;-7.004;-35.763;-36.024;-23.097
5445254.232;-45.784;-41.686;-41.984;-56.811;-1.751;-12.331;-9.052;-4.172
5445254.240;-40.047;-37.029;-38.296;-50.589;1.788;4.359;11.586;2.645
5445254.248;-40.308;-38.035;-36.843;-52.191;2.310;6.035;14.156;-7.004
5445254.256;-34.571;-32.522;-28.461;-48.056;10.207;0.969;6.482;-12.666
5445254.264;-40.084;-38.780;-33.565;-53.458;7.711;-14.231;-17.136;-20.750
5445254.272;-45.933;-45.225;-40.643;-60.759;2.608;-22.054;-34.496;-18.328
5445254.280;-46.939;-49.211;-39.414;-66.832;5.923;-23.730;-42.319;-11.437
5445254.288;-53.197;-56.587;-44.554;-73.723;0.410;-33.267;-49.956;-18.962
5445254.283;-55.246;-56.736;-49.509;-72.382;-4.992;-40.904;-54.315;-21.383
5445254.291;-49.546;-49.993;-47.013;-63.926;-3.427;-43.064;-48.988;-24.997
5445254.299;-38.520;-37.849;-37.923;-52.974;2.384;-34.459;-33.118;-25.369
5445254.307;-31.181;-29.579;-29.057;-45.970;9.350;-14.827;-12.442;-22.464
5445254.315;-19.595;-16.205;-16.838;-26.934;19.372;3.055;6.817;-18.701
5445254.323;-11.697;-5.588;-11.362;-13.337;21.458;12.927;16.131;-6.743
5445254.331;-11.511;-2.831;-12.740;-9.947;16.578;13.597;13.784;0.596
5445254.339;-15.497;-3.465;-20.526;-4.731;4.359;0.298;-3.204;2.943
5445254.347;-29.430;-17.881;-32.745;-19.185;-8.903;-22.426;-30.994;-7.786
5445254.355;-26.263;-16.429;-27.604;-18.850;-5.700;-32.894;-44.703;-18.068
5445254.363;-20.564;-9.984;-22.836;-9.872;-5.364;-33.304;-46.790;-15.534
5445254.371;-18.515;-6.780;-21.532;-3.129;-6.780;-26.859;-37.476;-8.456
5445254.379;-19.893;-6.184;-24.587;-0.298;-12.964;-17.844;-23.507;-10.878
5445254.387;-22.687;-9.425;-27.418;-1.788;-18.142;-4.880;-6.519;-9.499
5445254.395;-14.082;0.969;-17.248;11.809;-12.331;8.717;10.058;-3.092
5445254.403;-9.350;6.855;-13.299;20.117;-12.852;10.468;13.225;-5.364
