Timestamp,AFz,AF3,AF4,AF7,AF8,Pz,P3,P4,2024-05-08 11:52:22.507,fs=125
4754354.795;-179.112;-126.995;-124.723;-173.412;-160.858;-33.602;-42.915;-42.729
4754354.803;-178.106;-121.109;-127.517;-169.761;-164.062;-35.837;-43.623;-45.039
4754354.811;-196.882;-135.638;-155.717;-173.710;-170.842;-39.339;-45.411;-50.366
4754354.819;-190.027;-132.024;-139.736;-176.243;-150.353;-32.894;-39.414;-44.480
4754354.827;-191.182;-147.000;-143.908;-181.310;-164.546;-29.802;-36.620;-40.978
4754354.835;-175.536;-100.732;-121.854;-160.076;-149.570;-27.828;-33.714;-40.233
4754354.843;-169.910;-100.844;-118.688;-150.539;-149.496;-27.046;-35.763;-37.737
4754354.851;-180.453;-118.725;-135.191;-167.489;-147.149;-23.805;-34.571;-32.000
4754354.859;-184.700;-125.691;-143.014;-173.971;-145.882;-21.644;-33.341;-29.542
4754354.867;-195.615;-148.788;-154.003;-185.743;-140.332;-26.226;-36.731;-34.235
4754354.875;-198.185;-148.006;-161.119;-198.148;-151.992;-40.568;-48.876;-47.870
4754354.883;-193.380;-109.188;-143.796;-185.482;-135.303;-43.549;-51.372;-53.309
4754354.891;-184.588;-120.811;-120.886;-190.921;-124.052;-43.623;-54.613;-52.638
4754354.899;-173.934;-108.816;-126.399;-176.430;-122.674;-24.959;-35.651;-35.800
4754354.907;-188.202;-130.311;-138.581;-189.617;-125.393;-22.948;-34.571;-34.682
4754354.915;-192.076;-122.599;-153.668;-184.923;-129.864;-29.020;-37.923;-41.984
4754354.923;-180.230;-137.426;-142.790;-208.765;-117.160;-30.957;-39.265;-43.474
4754354.931;-178.702;-108.816;-132.471;-190.139;-125.095;-34.794;-44.480;-49.546
4754354.939;-189.282;-123.009;-142.716;-198.185;-129.938;-35.614;-46.119;-51.521
4754354.947;-197.329;-143.051;-145.808;-209.622;-123.978;-35.241;-49.248;-47.982
4754354.955;-200.123;-132.397;-162.609;-205.152;-131.875;-39.563;-55.358;-49.211
4754354.963;-199.229;-141.263;-157.431;-211.075;-122.488;-38.669;-50.515;-48.578
4754354.971;-196.733;-137.947;-158.437;-210.740;-124.499;-36.024;-48.317;-46.343
4754354.979;-197.999;-146.776;-141.077;-217.222;-121.966;-39.451;-54.948;-48.876
4754355.065;-187.978;-125.356;-144.169;-198.893;-120.625;-42.468;-59.120;-52.713
4754355.073;-189.394;-117.980;-161.007;-205.375;-123.940;-40.494;-55.470;-51.931
4754355.081;-183.806;-131.018;-148.043;-202.581;-98.608;-27.046;-41.388;-41.537
4754355.089;-178.702;-120.699;-135.861;-191.443;-105.835;-20.750;-35.428;-37.290
4754355.097;-182.353;-121.072;-144.020;-195.391;-116.862;-18.887;-32.187;-36.657
4754355.105;-194.497;-136.234;-167.191;-219.643;-118.650;-25.183;-38.520;-43.288
4754355.113;-181.608;-119.656;-144.951;-182.092;-102.222;-28.610;-42.357;-45.113
4754355.121;-191.331;-135.303;-152.439;-200.458;-107.624;-34.943;-49.211;-49.621
4754355.129;-198.185;-146.665;-156.090;-211.634;-116.937;-39.749;-51.633;-53.681
4754355.137;-186.376;-120.923;-145.733;-206.567;-104.196;-36.545;-45.709;-50.180
4754355.145;-197.701;-132.620;-156.797;-215.322;-105.835;-38.072;-46.715;-52.601
4754355.153;-197.589;-129.417;-157.915;-204.258;-91.419;-30.547;-41.015;-45.896
4754355.161;-189.692;-138.506;-159.554;-210.479;-113.659;-30.249;-40.531;-45.635
4754355.169;-203.140;-159.927;-175.796;-229.627;-122.450;-36.173;-44.256;-54.464
4754355.177;-187.159;-128.932;-140.071;-203.364;-92.573;-35.763;-44.294;-52.340
4754355.185;-163.913;-96.969;-121.854;-184.625;-78.008;-24.736;-34.906;-40.233
4754355.193;-187.866;-132.844;-151.359;-201.575;-99.093;-27.306;-35.353;-43.809
4754355.201;-180.602;-123.270;-152.104;-199.489;-95.852;-29.840;-37.961;-45.858
4754355.209;-184.290;-124.723;-155.866;-207.387;-90.711;-32.485;-40.829;-47.684
4754355.217;-194.199;-137.687;-155.531;-221.208;-96.038;-33.155;-42.170;-48.056
4754355.225;-201.091;-159.293;-158.250;-236.854;-94.622;-40.643;-48.950;-56.289
4754355.233;-206.046;-145.845;-168.197;-239.983;-122.041;-39.525;-48.205;-53.085
4754355.241;-195.801;-127.889;-151.917;-227.354;-92.126;-22.650;-34.347;-34.980
4754355.249;-201.724;-136.234;-156.313;-219.233;-102.706;-33.081;-45.300;-44.070
4754355.321;-187.457;-141.524;-159.740;-224.486;-94.250;-28.461;-35.837;-41.649
4754355.329;-185.035;-136.793;-158.809;-215.769;-89.593;-29.616;-38.855;-42.208
4754355.337;-191.294;-121.146;-156.760;-214.092;-104.494;-31.702;-42.245;-44.256
4754355.345;-193.343;-132.062;-158.213;-227.243;-98.310;-23.618;-34.459;-34.645
4754355.353;-199.825;-134.930;-159.219;-227.690;-96.783;-31.888;-40.568;-41.947
4754355.361;-190.660;-140.369;-148.714;-234.395;-84.005;-32.112;-38.594;-42.468
4754355.369;-190.176;-130.124;-154.264;-215.918;-81.025;-31.628;-37.774;-41.500
4754355.377;-182.353;-114.031;-156.499;-202.656;-72.792;-24.475;-29.877;-35.986
4754355.385;-189.506;-129.975;-165.030;-216.253;-105.835;-18.366;-25.034;-34.161
4754355.393;-197.254;-143.796;-163.317;-233.985;-93.579;-23.805;-32.373;-40.494
4754355.401;-216.737;-151.396;-171.848;-248.365;-104.383;-40.531;-50.329;-56.140
4754355.409;-191.517;-124.983;-158.884;-217.333;-90.413;-25.295;-35.502;-43.698
4754355.417;-176.691;-117.905;-144.616;-203.550;-78.753;-15.981;-25.444;-33.677
4754355.425;-177.436;-123.605;-156.388;-217.035;-81.398;-11.027;-19.856;-28.126
4754355.433;-190.213;-133.701;-162.944;-223.182;-81.994;-11.735;-20.675;-29.095
4754355.441;-187.680;-112.802;-141.338;-208.654;-73.202;-21.383;-28.610;-37.514
4754355.449;-188.500;-122.897;-150.017;-217.520;-88.625;-28.238;-35.837;-41.910
4754355.457;-188.798;-134.297;-159.442;-219.494;-90.599;-21.495;-30.324;-34.980
4754355.465;-197.254;-137.128;-165.552;-230.856;-87.842;-24.438;-35.129;-38.557
4754355.473;-194.013;-125.468;-167.266;-227.056;-83.111;-23.693;-33.751;-38.594
4754355.481;-194.609;-131.801;-162.907;-224.598;-89.146;-19.781;-29.393;-34.347
4754355.489;-188.723;-124.015;-156.946;-215.508;-79.796;-18.477;-30.100;-32.708
4754355.497;-196.993;-138.879;-175.312;-228.360;-87.172;-24.512;-35.092;-37.253
4754355.505;-191.219;-130.385;-158.325;-231.415;-77.933;-20.824;-30.324;-34.608
4754355.531;-191.927;-150.092;-154.562;-246.204;-80.913;-23.432;-32.149;-37.774
4754355.539;-187.270;-126.101;-150.092;-218.153;-72.010;-12.890;-21.942;-28.461
4754355.547;-185.482;-110.939;-158.735;-211.298;-84.601;-17.248;-26.748;-33.341
4754355.555;-194.982;-135.936;-169.277;-234.284;-85.905;-18.701;-27.046;-34.869
4754355.563;-197.813;-135.712;-170.730;-241.846;-88.476;-17.434;-26.748;-33.192
4754355.571;-182.986;-138.916;-141.487;-233.911;-82.143;-9.537;-19.744;-25.705
4754355.579;-173.151;-112.504;-136.457;-202.842;-84.564;-15.795;-25.183;-33.155
4754355.587;-189.468;-117.794;-159.442;-221.953;-101.253;-27.157;-34.496;-42.208
4754355.595;-183.880;-129.975;-147.000;-234.172;-95.293;-15.423;-20.154;-31.404
4754355.603;-178.404;-142.679;-134.222;-239.611;-99.503;-7.153;-14.082;-24.624
4754355.611;-164.881;-100.620;-128.970;-206.940;-112.504;-8.754;-17.956;-26.673
4754355.619;-171.252;-97.901;-129.081;-209.324;-122.823;-13.523;-21.569;-29.840
4754355.627;-171.177;-114.739;-122.152;-218.898;-125.468;-16.466;-24.661;-30.585
4754355.635;-173.077;-115.633;-125.282;-219.494;-135.005;-18.477;-25.928;-32.820
4754355.643;-175.126;-117.719;-122.711;-222.623;-140.704;-15.981;-22.575;-30.845
4754355.651;-177.771;-121.854;-126.250;-229.441;-148.788;-18.328;-24.587;-30.883
4754355.659;-170.730;-116.043;-121.221;-226.386;-147.372;-16.280;-21.011;-28.908
4754355.667;-161.156;-112.429;-110.194;-222.288;-145.212;-13.076;-17.695;-28.349
4754355.675;-158.139;-110.157;-102.073;-223.331;-154.041;-18.813;-25.369;-33.900
4754355.683;-143.386;-92.387;-85.235;-211.596;-152.886;-20.079;-26.077;-35.278
4754355.691;-125.282;-78.231;-67.838;-207.759;-149.831;-19.073;-23.134;-34.273
4754355.699;-106.804;-67.465;-52.713;-203.587;-143.796;-10.394;-14.417;-27.791
4754355.707;-65.677;-28.871;-18.515;-171.363;-125.132;-8.196;-11.250;-28.051
4754355.715;-21.942;10.468;15.311;-141.412;-103.936;-4.247;-7.860;-25.816
4754355.740;24.848;54.725;46.454;-111.647;-87.693;5.662;0.745;-19.893
4754355.748;64.075;89.109;71.377;-90.301;-80.056;9.201;3.316;-20.303
4754355.756;108.555;134.967;100.620;-59.158;-69.477;14.007;7.562;-17.136
4754355.764;153.445;175.647;129.044;-32.894;-54.538;19.260;12.852;-12.107
4754355.772;180.118;197.142;138.581;-19.148;-51.334;16.876;12.480;-14.901
4754355.780;193.752;218.973;145.361;-5.215;-49.397;17.136;14.566;-16.391
4754355.788;198.595;232.607;135.116;-5.066;-67.428;11.548;9.798;-24.401
4754355.796;214.241;260.137;133.216;1.565;-67.838;13.560;11.250;-25.295
4754355.804;232.235;283.085;141.151;2.906;-54.054;17.174;14.827;-24.401
4754355.812;233.240;299.104;126.027;-3.390;-72.904;10.654;10.766;-31.963
4754355.820;225.119;305.735;107.512;-21.905;-91.121;-1.714;0.224;-44.331
4754355.828;229.813;328.496;102.073;-19.297;-93.021;-1.676;4.396;-43.139
4754355.836;248.216;364.967;110.455;-6.631;-85.719;16.242;16.764;-28.089
4754355.844;240.766;381.470;97.603;-19.930;-88.960;23.358;15.013;-29.095
4754355.852;225.380;387.393;74.841;-39.451;-110.269;18.105;6.221;-37.365
4754355.860;223.666;402.741;67.800;-42.394;-114.627;21.271;5.551;-38.184
4754355.868;219.978;411.421;63.591;-47.348;-109.710;33.826;14.864;-28.275
4754355.876;213.347;415.929;53.830;-55.395;-110.380;34.757;15.572;-25.444
4754355.884;175.536;388.622;11.437;-93.505;-144.504;18.850;3.576;-39.749
4754355.892;164.025;390.112;-0.745;-103.228;-146.404;22.464;9.350;-37.067
4754355.900;152.811;388.660;-9.872;-116.415;-143.088;30.771;13.225;-26.785
4754355.908;128.858;378.378;-32.783;-136.383;-153.221;3.763;-12.219;-56.662
4754355.916;120.066;380.427;-40.568;-145.733;-149.198;5.960;-8.754;-55.060
4754355.924;106.916;377.186;-51.409;-154.376;-146.702;16.578;4.359;-42.804
4754355.905;86.427;364.408;-69.775;-169.463;-152.439;8.568;-4.880;-49.546
4754355.913;66.608;347.383;-87.991;-185.892;-159.182;12.144;-2.235;-45.598
4754355.921;65.342;345.558;-86.129;-185.370;-144.951;27.753;15.125;-27.604
4754355.929;26.375;312.924;-119.768;-225.455;-159.852;19.558;6.407;-30.287
4754355.937;-12.293;285.804;-148.416;-253.059;-169.128;13.150;-0.373;-31.106
4754355.945;-44.592;257.343;-171.028;-276.789;-176.020;5.215;-9.499;-37.141
4754355.953;-68.136;239.760;-190.362;-297.055;-177.696;13.635;-4.321;-32.559
4754355.961;-99.130;216.663;-212.304;-323.355;-184.290;18.366;-0.596;-29.877
4754355.969;-128.634;188.239;-233.762;-345.632;-183.694;21.681;3.725;-24.661
4754355.977;-178.069;143.796;-275.560;-403.076;-203.364;4.843;-7.004;-36.769
4754355.985;-219.680;107.214;-309.870;-431.724;-223.145;5.141;-4.731;-36.359
4754355.993;-251.196;79.535;-338.033;-468.865;-238.754;11.995;0.633;-30.436
4754356.001;-271.089;64.373;-350.140;-480.339;-234.470;15.423;1.341;-26.710
4754356.009;-287.406;52.601;-356.436;-480.860;-228.360;20.377;4.247;-23.171
4754356.017;-308.454;28.238;-371.039;-501.126;-228.174;13.858;-4.470;-29.951
4754356.025;-336.803;-1.937;-391.975;-530.891;-235.848;4.843;-12.554;-36.173
4754356.033;-353.083;-14.342;-404.716;-556.186;-231.229;13.150;-3.353;-24.997
4754356.041;-390.261;-46.417;-439.957;-584.051;-258.908;10.654;-11.735;-23.134
4754356.049;-410.751;-64.597;-453.740;-596.382;-264.607;20.601;-0.931;-15.348
4754356.057;-423.752;-78.380;-461.489;-610.091;-267.774;22.799;4.098;-14.789
4754356.065;-425.875;-81.770;-457.391;-613.295;-255.294;22.575;5.476;-14.156
4754356.073;-430.644;-86.278;-457.242;-620.000;-253.022;24.401;3.353;-13.374
4754356.081;-440.031;-94.213;-463.873;-628.196;-253.655;28.387;5.439;-15.348
4754356.089;-450.760;-102.818;-471.585;-633.486;-256.337;37.476;12.107;-11.660
4754356.114;-465.214;-116.900;-482.351;-645.854;-264.533;39.376;10.617;-10.394
4754356.122;-471.286;-123.009;-484.735;-652.634;-262.000;35.726;8.754;-13.113
4754356.130;-486.076;-134.036;-499.189;-658.333;-280.961;25.518;0.782;-17.248
4754356.138;-495.575;-143.684;-503.510;-669.025;-281.706;26.636;2.608;-11.139
4754356.146;-497.326;-146.404;-498.816;-671.856;-272.281;29.020;5.402;-6.296
4754356.154;-492.670;-141.449;-490.695;-663.735;-265.501;36.322;14.640;-1.565
4754356.162;-488.572;-139.214;-484.064;-661.388;-258.498;43.027;21.532;4.210
4754356.170;-484.064;-135.861;-474.639;-660.419;-247.471;48.652;24.997;9.760
4754356.178;-485.927;-135.973;-474.229;-659.041;-247.024;50.366;30.063;8.717
4754356.186;-484.660;-131.689;-471.622;-655.912;-244.789;50.291;30.547;5.513
4754356.194;-485.182;-133.328;-468.530;-655.949;-240.505;45.858;23.805;0.931
4754356.202;-494.160;-144.020;-474.416;-664.853;-245.348;37.476;16.280;-5.066
4754356.210;-504.479;-154.525;-482.798;-675.134;-251.420;32.112;11.288;-6.855
4754356.218;-519.119;-166.781;-495.762;-688.136;-264.384;24.214;3.353;-12.554
4754356.226;-524.409;-168.830;-496.693;-688.247;-261.664;29.206;11.288;-6.184
4754356.234;-539.049;-183.173;-506.192;-703.260;-269.376;27.604;8.531;-7.339
4754356.242;-551.455;-195.839;-516.288;-713.915;-278.465;22.314;3.353;-14.640
4754356.250;-557.601;-200.309;-519.082;-714.771;-281.408;22.203;3.576;-14.268
4754356.258;-553.504;-197.701;-512.153;-712.536;-273.176;27.753;8.345;-8.941
4754356.266;-552.274;-196.174;-507.869;-711.232;-264.719;30.771;10.878;-7.674
4754356.274;-558.496;-200.309;-513.196;-710.376;-273.772;28.759;9.984;-12.219
4754356.282;-558.645;-198.930;-510.998;-702.664;-270.270;25.257;8.270;-15.311
4754356.290;-564.456;-205.934;-513.718;-709.407;-274.703;17.248;-0.112;-19.297
4754356.298;-572.428;-213.459;-521.950;-713.691;-279.546;6.668;-9.537;-25.667
4754356.340;-570.789;-213.310;-516.623;-712.462;-273.585;5.402;-9.835;-24.475
4754356.348;-559.539;-203.848;-503.100;-700.206;-258.945;12.927;-4.247;-17.695
4754356.356;-555.031;-198.483;-498.518;-692.643;-257.157;11.660;-5.513;-21.532
4754356.364;-551.082;-195.056;-490.621;-690.147;-243.969;13.523;-5.700;-20.228
4754356.372;-554.807;-201.426;-493.191;-691.861;-251.308;14.752;-5.439;-21.085
4754356.380;-560.693;-207.052;-498.928;-692.047;-258.014;11.995;-4.135;-27.940
4754356.388;-559.986;-208.095;-497.177;-690.743;-250.787;12.219;-0.224;-29.206
4754356.396;-560.842;-211.634;-497.699;-692.680;-252.128;11.101;-1.751;-30.547
4754356.404;-562.035;-214.167;-499.114;-690.110;-251.755;10.803;-3.166;-30.659
4754356.412;-554.398;-206.903;-491.031;-678.077;-244.156;13.039;-1.006;-23.991
4754356.420;-550.561;-204.556;-484.213;-673.532;-232.942;11.884;-0.261;-20.266
4754356.428;-561.476;-217.035;-494.160;-685.863;-245.906;3.912;-8.121;-25.630
4754356.436;-569.448;-227.727;-500.567;-690.259;-251.383;-3.316;-17.807;-33.230
4754356.444;-565.909;-227.839;-495.426;-687.279;-244.901;-0.149;-19.036;-30.510
4754356.452;-552.088;-214.688;-481.904;-670.366;-226.125;12.033;-8.605;-20.079
4754356.460;-549.033;-211.298;-477.917;-662.245;-227.876;11.921;-5.178;-24.289
4754356.468;-548.363;-212.491;-476.874;-659.451;-227.503;11.995;-1.341;-27.157
4754356.476;-546.798;-214.390;-478.290;-656.173;-228.100;10.915;-0.596;-31.404
4754356.484;-545.383;-216.626;-475.943;-655.316;-221.804;11.027;-2.012;-32.187
4754356.492;-543.185;-217.520;-470.765;-652.969;-213.012;12.740;-2.570;-27.306
4754356.500;-545.830;-222.437;-475.720;-653.714;-222.921;10.729;-4.545;-23.656
4754356.508;-543.855;-223.890;-473.298;-652.075;-219.345;8.978;-6.296;-21.532
4754356.516;-549.294;-229.925;-485.033;-651.665;-230.782;0.596;-12.666;-28.573
4754356.524;-546.463;-227.764;-482.760;-645.891;-219.047;7.898;-3.763;-23.805
4754356.534;-545.830;-229.664;-476.949;-643.432;-194.758;15.981;5.700;-19.632
4754356.542;-529.029;-222.065;-449.009;-637.434;-163.205;11.139;-0.559;-23.693
4754356.550;-530.668;-229.143;-453.554;-644.140;-151.657;4.917;-6.817;-28.983
4754356.558;-523.962;-233.091;-439.249;-654.496;-103.302;7.376;-8.345;-25.667
4754356.566;-522.695;-238.530;-430.718;-662.804;-66.422;9.462;-9.276;-23.246
4754356.574;-520.386;-245.981;-416.301;-673.644;-11.586;9.537;-12.033;-21.942
4754356.582;-516.064;-249.743;-404.865;-680.983;20.079;6.221;-16.168;-20.973
4754356.590;-530.668;-269.487;-419.207;-701.733;36.508;-3.055;-22.948;-24.699
4754356.598;-539.236;-283.867;-420.138;-714.660;82.180;-11.101;-29.095;-29.877
4754356.606;-545.718;-291.280;-427.328;-718.795;94.585;-6.966;-22.613;-24.140
4754356.614;-554.286;-297.762;-447.147;-720.769;95.963;-8.345;-23.209;-27.828
4754356.622;-558.607;-304.803;-444.837;-727.251;117.160;-19.595;-35.129;-42.357
4754356.630;-541.359;-286.214;-425.801;-707.619;152.364;-8.531;-24.214;-35.502
4754356.638;-504.106;-250.787;-386.052;-666.678;191.815;16.689;2.161;-12.405
4754356.646;-507.645;-254.586;-399.612;-665.076;195.280;16.578;2.980;-12.890
4754356.654;-515.729;-264.496;-412.092;-673.272;215.769;13.858;-0.633;-15.348
4754356.662;-516.735;-269.599;-410.974;-677.183;232.197;9.276;-11.139;-16.764
4754356.670;-526.234;-280.067;-420.660;-684.075;251.681;-10.021;-30.063;-36.284
4754356.678;-530.221;-288.524;-425.614;-690.371;260.621;-21.309;-39.823;-45.858
4754356.686;-510.663;-265.352;-422.560;-661.798;283.234;10.021;-5.402;-15.087
4754356.694;-494.011;-248.104;-404.529;-643.283;329.763;25.108;14.082;-1.229
4754356.702;-500.567;-253.357;-409.223;-646.487;328.720;13.448;4.098;-14.044
4754356.710;-498.854;-256.971;-407.882;-649.765;353.903;10.207;-0.149;-14.268
4754356.718;-491.925;-252.239;-401.363;-642.501;371.784;8.494;-3.725;-13.262
4754356.641;-490.919;-251.569;-406.802;-641.160;370.108;2.086;-11.511;-18.924
4754356.649;-487.603;-248.849;-410.192;-635.609;374.056;-2.459;-16.652;-24.997
4754356.657;-480.227;-241.771;-404.194;-625.812;393.912;3.502;-8.903;-20.266
4754356.665;-476.129;-238.679;-406.280;-621.676;404.492;11.660;-1.714;-11.250
4754356.673;-469.722;-232.868;-402.592;-612.997;421.852;13.337;0.112;-7.823
4754356.681;-470.057;-234.768;-401.884;-614.859;425.875;10.319;-0.075;-11.884
4754356.689;-481.978;-246.838;-420.623;-624.396;396.371;2.123;-8.233;-20.154
4754356.697;-459.924;-224.337;-397.861;-598.095;422.522;29.020;14.827;6.296
4754356.705;-460.707;-223.145;-408.329;-593.066;410.303;36.545;20.303;14.305
4754356.713;-466.704;-229.329;-420.436;-594.258;395.961;24.810;10.990;5.066
4754356.721;-457.726;-225.827;-409.298;-589.415;408.031;25.406;14.566;4.396
4754356.729;-455.156;-226.833;-407.808;-588.410;413.693;26.450;15.460;4.098
4754356.737;-449.792;-223.517;-401.884;-582.784;415.482;29.765;18.142;7.898
4754356.745;-445.247;-218.861;-400.953;-575.222;407.733;36.508;26.040;13.113
4754356.753;-449.680;-225.194;-407.323;-578.351;399.686;31.665;20.228;9.388
4754356.761;-449.009;-226.870;-405.163;-575.222;395.253;28.759;17.360;7.227
4754356.769;-443.906;-226.498;-396.706;-572.577;391.863;30.547;19.670;9.425
4754356.777;-445.247;-229.217;-403.896;-574.142;369.437;23.991;13.746;3.986
4754356.785;-439.733;-224.747;-400.282;-565.164;363.588;23.246;13.262;5.662
4754356.793;-434.928;-222.959;-389.591;-561.588;364.035;19.893;9.649;5.141
4754356.801;-434.704;-223.480;-392.012;-559.017;350.513;17.062;8.605;2.384
4754356.809;-434.257;-225.231;-395.589;-557.527;338.517;15.013;9.313;0.075
4754356.817;-425.987;-219.829;-384.338;-548.735;341.833;19.595;13.933;5.439
4754356.825;-414.774;-211.075;-373.498;-538.304;340.231;23.544;15.050;9.425
4754356.820;-405.498;-203.513;-366.420;-528.619;331.923;27.828;16.987;12.293
4754356.828;-402.369;-201.389;-361.055;-524.856;323.653;28.983;17.211;13.337
4754356.836;-401.996;-202.693;-358.596;-522.956;309.758;28.051;20.266;9.611
4754356.844;-406.802;-208.803;-359.006;-525.340;289.790;37.774;30.436;17.025
4754356.852;-395.142;-200.421;-345.781;-516.362;287.071;34.235;27.157;15.609
4754356.860;-374.466;-182.576;-329.204;-499.934;279.881;29.095;20.601;12.964
4754356.868;-348.724;-160.895;-302.494;-481.345;283.271;28.238;18.328;13.374
4754356.876;-316.650;-137.426;-271.201;-461.526;286.177;29.802;19.670;16.131
4754356.884;-288.971;-109.971;-250.116;-431.985;288.561;31.292;22.165;17.546
4754356.892;-276.305;-99.689;-238.121;-417.382;281.520;29.095;17.621;14.007
4754356.900;-244.528;-73.425;-211.038;-387.244;284.500;35.726;25.332;19.483
4754356.908;-223.666;-54.725;-183.955;-369.176;281.520;37.216;28.871;19.260
4754356.916;-235.736;-71.749;-201.128;-379.905;256.337;31.069;21.607;15.832
4754356.924;-244.416;-77.561;-217.222;-376.105;241.883;39.525;29.951;26.077
4754356.932;-255.518;-88.960;-227.503;-386.126;236.556;41.872;31.218;29.095
4754356.940;-269.115;-103.265;-238.381;-396.483;217.892;31.814;23.581;20.154
4754356.948;-264.086;-101.402;-225.902;-394.024;231.266;35.986;28.163;23.209
4754356.956;-265.539;-105.947;-229.068;-396.147;215.396;37.216;26.673;24.587
4754356.964;-277.348;-117.980;-243.820;-405.535;199.787;32.894;20.117;20.079
4754356.972;-277.646;-119.060;-241.064;-402.294;198.185;35.837;19.632;22.352
4754356.980;-283.048;-126.474;-246.093;-405.535;189.282;33.118;16.578;19.670
4754356.988;-286.587;-132.062;-248.924;-408.739;179.894;31.516;18.701;18.142
4754356.996;-285.283;-131.913;-246.130;-406.951;177.696;32.037;23.469;18.477
4754357.004;-289.343;-136.271;-249.259;-408.217;171.177;27.306;22.277;15.758
4754357.001;-293.888;-141.487;-250.265;-409.000;168.793;20.303;19.111;11.958
4754357.009;-292.249;-141.822;-246.838;-410.788;160.486;20.750;19.334;13.784
4754357.017;-290.349;-140.779;-247.546;-408.776;152.588;15.832;13.746;8.419
4754357.025;-284.091;-138.171;-238.642;-403.784;155.903;21.271;19.409;11.176
4754357.033;-279.434;-137.724;-233.315;-403.039;153.370;22.687;18.217;13.188
4754357.041;-270.307;-131.540;-223.704;-395.030;151.433;33.118;27.157;23.209
4754357.049;-272.393;-135.936;-224.449;-398.010;143.535;29.430;22.165;19.372
4754357.057;-266.433;-130.497;-219.122;-391.118;142.306;37.923;30.100;27.567
4754357.065;-264.868;-133.030;-217.073;-390.075;135.191;37.365;27.493;28.126
4754357.073;-263.341;-132.471;-210.777;-387.765;140.667;33.416;22.650;25.406
4754357.081;-263.527;-134.818;-207.946;-388.995;131.913;30.734;19.856;24.401
4754357.089;-266.284;-137.687;-214.279;-390.522;108.033;21.495;9.425;15.721
4754357.097;-261.329;-134.185;-206.754;-385.121;112.355;22.985;9.574;15.646
4754357.105;-260.249;-136.420;-203.885;-386.015;107.512;22.687;7.935;15.683
4754357.113;-252.016;-130.720;-193.864;-380.091;101.663;33.900;19.781;26.748
4754357.121;-254.586;-134.520;-194.088;-381.880;90.115;36.433;24.810;29.169
4754357.129;-257.529;-137.910;-197.925;-382.699;71.712;24.810;16.242;19.073
4754357.137;-254.475;-133.999;-193.715;-375.696;64.522;21.793;11.474;17.323
4754357.145;-246.987;-127.628;-184.402;-369.065;67.726;28.834;17.546;24.252
4754357.153;-243.299;-126.548;-180.602;-364.222;57.407;31.106;21.495;25.220
4754357.161;-241.958;-127.107;-178.404;-361.390;45.933;30.287;21.979;23.134
4754357.169;-249.222;-135.377;-186.898;-369.735;16.354;22.091;13.895;14.491
4754357.177;-237.674;-124.276;-173.450;-356.995;20.266;23.432;15.460;15.795
4754357.185;-232.868;-123.046;-166.111;-354.201;21.271;22.128;15.087;15.944
4754357.239;-238.866;-129.864;-173.226;-357.181;5.253;17.062;12.517;14.044
4754357.247;-260.174;-151.098;-192.747;-378.639;-17.323;8.158;3.763;4.359
4754357.255;-237.748;-133.477;-167.340;-360.347;-4.843;9.201;3.353;5.960
4754357.263;-188.872;-91.121;-117.794;-319.704;36.508;28.163;19.409;25.630
4754357.271;-164.732;-69.551;-87.917;-294.819;55.879;36.322;25.518;32.783
4754357.279;-159.405;-68.024;-80.056;-298.098;54.762;27.418;16.540;24.661
4754357.287;-154.860;-67.391;-72.569;-300.221;64.783;25.667;16.391;22.538
4754357.295;-149.794;-63.814;-66.049;-298.396;61.691;22.911;17.360;18.291
4754357.303;-139.922;-54.166;-56.028;-287.853;67.763;32.261;28.014;24.475
4754357.311;-138.506;-54.650;-49.472;-286.624;72.308;40.643;35.502;32.559
4754357.319;-158.772;-75.996;-68.285;-300.370;50.627;24.810;19.893;18.664
4754357.327;-160.038;-78.157;-74.655;-299.998;46.566;17.509;10.133;12.927
4754357.335;-153.482;-70.035;-69.328;-292.026;54.687;24.997;10.841;26.375
4754357.343;-143.498;-57.928;-52.974;-268.146;59.940;35.167;22.538;37.402
4754357.351;-156.835;-76.070;-68.173;-279.769;47.460;32.261;23.916;30.845
4754357.359;-158.213;-82.217;-72.792;-285.916;40.978;34.384;25.183;28.200
4754357.367;-162.050;-88.029;-72.420;-287.779;41.351;34.012;20.787;24.438
4754357.375;-161.752;-87.544;-74.953;-285.469;37.067;37.886;23.507;26.785
4754357.383;-170.171;-98.534;-88.550;-294.372;17.621;30.547;20.042;17.174
4754357.391;-178.888;-111.796;-94.175;-299.476;8.047;20.713;13.672;6.743
4754357.399;-176.691;-106.804;-93.728;-290.610;9.760;19.819;14.268;9.537
4754357.407;-202.134;-134.110;-126.921;-309.236;-12.442;-6.333;-11.548;-9.127
4754357.415;-218.563;-147.894;-137.873;-326.075;-26.748;-26.524;-31.143;-22.613
4754357.423;-158.921;-99.838;-70.892;-265.054;24.028;21.495;19.111;25.593
4754357.539;-137.053;-80.019;-55.395;-241.436;35.912;44.182;45.188;46.045
4754357.547;-169.538;-115.149;-85.831;-280.216;11.995;12.778;11.064;17.248
4754357.555;-156.797;-99.875;-81.845;-249.036;23.805;46.156;45.076;47.833
4754357.563;-170.283;-112.988;-88.364;-252.314;10.096;35.539;35.614;36.359
4754357.571;-163.764;-117.086;-67.912;-262.745;19.819;8.941;8.158;11.846
4754357.579;-160.821;-110.529;-65.602;-253.953;35.837;14.007;11.511;19.819
4754357.587;-139.773;-114.888;-39.116;-252.351;51.595;12.554;10.207;20.675
4754357.595;-165.254;-122.190;-58.450;-242.256;36.061;-8.084;-12.070;1.192
4754357.603;-131.242;-97.938;-13.188;-205.226;67.167;11.027;3.390;21.569
4754357.611;-52.638;-38.818;59.977;-148.602;115.186;37.812;31.404;44.852
4754357.619;-78.790;-56.773;34.980;-160.560;103.004;20.377;15.013;27.418
4754357.627;-79.460;-70.333;39.041;-151.284;112.392;21.607;12.442;28.126
4754357.635;-48.876;-55.283;95.107;-117.458;133.514;47.497;38.594;53.532
4754357.643;-58.115;-68.136;80.578;-103.563;127.032;36.992;29.951;44.145
4754357.651;-66.869;-78.492;66.496;-99.428;117.607;26.412;21.309;33.677
4754357.659;-63.367;-89.519;82.031;-91.754;126.101;27.716;21.234;33.639
4754357.667;-74.953;-109.188;71.749;-96.895;109.076;27.046;18.999;30.734
4754357.675;-73.947;-104.047;66.832;-78.529;105.016;29.653;19.409;34.198
4754357.683;-60.722;-92.871;85.831;-50.068;117.347;46.790;36.731;52.303
4754357.691;-63.777;-111.721;79.572;-60.685;108.704;37.923;29.244;41.910
4754357.699;-69.700;-130.124;63.740;-66.720;96.560;27.902;19.595;31.590
4754357.707;-90.003;-147.112;43.511;-82.478;76.406;5.029;-3.353;11.027
4754357.715;-65.453;-131.652;82.888;-64.299;89.407;22.426;11.735;28.610
4754357.723;-37.029;-107.139;106.432;-25.593;115.037;40.196;26.971;46.194
4754357.661;-49.174;-120.029;85.086;-32.522;96.522;23.805;12.033;30.175
4754357.669;-52.452;-125.915;73.388;-38.818;79.088;20.415;11.064;25.593
4754357.677;-66.124;-138.916;57.444;-50.813;73.314;18.030;8.643;20.899
4754357.685;-47.237;-130.348;73.053;-34.682;83.670;29.765;20.936;29.355
4754357.693;-32.932;-114.702;80.429;-24.773;91.605;38.184;30.324;37.998
4754357.701;-30.436;-108.480;78.678;-18.366;89.630;39.265;33.677;39.786
4754357.709;-23.358;-105.835;94.101;-5.402;89.817;35.875;30.026;37.551
4754357.717;-25.481;-104.792;87.246;-13.635;88.550;26.673;20.750;27.977
4754357.725;-22.389;-108.480;83.148;-19.819;93.617;27.493;21.532;30.138
4754357.733;-33.826;-121.295;59.642;-23.209;75.251;16.801;12.368;17.919
4754357.741;-19.222;-114.553;76.331;-11.027;92.685;34.571;29.318;33.304
4754357.749;-15.087;-111.796;84.043;-16.950;93.319;33.639;26.375;33.192
4754357.757;-25.295;-111.908;70.333;-8.568;80.876;23.171;14.715;23.507
4754357.765;-16.578;-101.887;71.861;-4.023;84.043;23.395;17.360;23.469
4754357.773;-15.832;-111.088;65.938;-7.711;83.335;16.727;14.491;17.025
4754357.781;-20.154;-120.439;63.516;-11.921;74.543;11.697;9.350;12.517
4754357.789;-9.425;-109.896;71.861;-10.878;79.051;18.105;14.640;20.117
4754357.797;-11.101;-119.098;64.932;-9.984;79.125;14.678;8.717;19.707
4754357.805;-10.505;-119.880;64.187;-6.892;75.214;15.534;7.302;20.750
4754357.813;10.729;-98.832;74.431;14.082;91.791;33.602;27.381;35.837
4754357.821;10.431;-97.342;77.635;15.460;90.972;33.565;30.361;32.671
4754357.829;-5.215;-114.329;65.789;2.980;75.139;19.893;19.222;19.819
4754357.837;-4.917;-120.178;66.012;-1.006;77.747;15.311;11.921;20.899
4754357.845;0.410;-106.730;63.963;6.631;78.790;20.675;13.411;31.404
4754357.824;17.099;-92.164;83.707;22.054;90.934;30.361;23.730;40.419
4754357.832;14.007;-104.345;81.919;15.534;91.270;23.656;19.036;29.802
4754357.840;1.714;-113.510;63.814;8.866;74.320;13.523;11.697;15.944
4754357.848;3.576;-111.647;66.236;8.084;73.612;11.809;11.623;12.852
4754357.856;26.971;-93.952;74.320;26.077;82.478;29.504;27.940;30.063
4754357.864;36.694;-75.325;84.788;45.411;92.760;33.565;27.008;35.726
4754357.872;18.664;-92.164;74.767;30.063;82.441;25.630;19.744;28.126
4754357.880;18.440;-98.608;76.406;27.791;80.913;30.287;27.418;33.155
4754357.888;22.724;-105.612;75.102;21.756;76.555;24.848;24.177;27.716
4754357.896;15.609;-119.545;60.946;11.101;67.726;14.231;14.901;15.348
4754357.904;14.976;-115.074;65.751;19.334;65.751;4.843;3.651;6.817
4754357.912;14.454;-102.893;66.236;25.332;64.373;4.023;1.118;8.009
4754357.920;21.830;-95.554;66.571;31.926;77.337;18.105;14.901;23.432
4754357.928;20.750;-106.506;62.287;26.561;73.314;16.801;12.554;22.613
4754357.936;13.709;-114.329;57.928;22.948;65.826;6.743;2.161;12.219
4754357.944;25.108;-105.612;59.940;33.267;77.859;13.597;9.127;18.366
4754357.952;32.894;-98.944;78.641;35.502;84.341;20.005;19.297;23.916
4754357.960;29.132;-95.256;73.649;34.235;80.690;19.446;20.266;24.363
4754357.968;26.636;-98.757;64.783;32.037;78.566;18.254;18.850;25.816
4754357.976;34.310;-96.969;74.543;38.296;86.837;20.824;20.862;29.318
4754357.984;34.310;-96.187;76.368;45.709;87.097;16.429;15.236;23.693
4754357.992;37.365;-95.032;75.214;46.790;81.025;16.913;17.174;22.985
4754358.000;40.270;-94.250;74.208;45.858;78.827;15.087;19.930;19.446
4754358.008;29.430;-104.308;59.940;27.642;73.127;1.229;6.035;6.482
4754358.035;31.069;-107.251;62.212;30.100;75.921;0.298;2.012;7.711
4754358.043;55.917;-82.552;79.758;54.725;99.912;25.779;23.320;34.310
4754358.051;54.687;-74.580;79.237;65.975;94.511;28.051;21.495;38.072
4754358.059;42.468;-91.791;75.437;50.515;82.739;17.211;12.703;27.642
4754358.067;46.827;-90.934;71.526;50.664;79.125;15.423;16.727;23.544
4754358.075;46.007;-96.262;69.030;49.248;82.031;15.944;21.011;22.985
4754358.083;35.167;-107.773;59.493;31.590;74.245;8.307;10.319;15.274
4754358.091;30.808;-110.939;49.286;27.046;66.794;7.749;7.860;13.374
4754358.099;40.010;-97.454;54.389;40.978;72.829;17.099;12.964;23.022
4754358.107;49.770;-87.395;68.992;55.209;82.478;14.789;7.041;23.171
4754358.115;52.005;-81.062;78.566;58.301;89.891;15.907;12.033;28.349
4754358.123;55.619;-79.311;75.698;56.922;82.180;11.623;14.305;24.512
4754358.131;65.714;-78.455;73.165;59.232;82.925;14.380;20.303;23.171
4754358.139;66.534;-77.672;81.286;58.748;89.221;16.131;19.968;21.644
4754358.147;66.422;-76.890;81.137;59.120;88.252;14.566;14.119;20.713
4754358.155;62.920;-78.529;61.095;50.366;82.068;8.941;3.539;17.360
4754358.163;62.957;-84.043;58.301;51.819;83.819;5.551;0.671;13.970
4754358.171;69.812;-72.792;56.289;65.044;81.919;13.486;11.325;19.893
4754358.179;71.898;-73.984;59.679;60.610;81.286;17.062;16.876;21.942
4754358.187;68.471;-83.931;63.293;55.209;78.939;11.921;10.617;18.179
4754358.195;72.271;-75.139;70.632;61.058;87.470;16.466;12.144;22.985
4754358.203;66.534;-80.429;60.871;54.911;84.303;13.039;7.041;18.440
4754358.211;69.253;-70.333;61.281;60.089;79.721;17.174;12.778;20.117
4754358.219;78.492;-66.161;68.024;67.689;85.719;25.071;21.905;27.679
4754358.230;87.097;-61.020;77.188;71.861;97.156;26.599;26.301;28.871
4754358.238;83.148;-66.422;71.116;64.783;88.997;20.042;18.887;21.644
4754358.246;80.615;-64.448;68.732;65.453;86.762;15.348;10.990;19.073
4754358.254;73.500;-69.067;63.628;62.138;75.623;11.064;3.949;16.801
4754358.262;71.190;-73.127;59.977;53.830;79.125;5.886;-2.198;13.523
4754358.270;83.447;-64.969;67.614;60.648;85.942;11.697;5.662;17.621
4754358.278;94.473;-54.911;80.205;67.391;93.691;20.601;20.415;22.165
4754358.286;85.086;-62.026;69.924;60.275;79.758;13.597;15.758;11.735
4754358.294;108.071;-34.869;84.937;87.209;84.639;11.958;15.050;6.370
4754358.302;136.606;-7.488;106.804;112.318;94.436;18.477;16.727;11.250
4754358.310;179.224;37.439;135.563;155.978;101.626;24.177;21.420;16.354
4754358.318;218.526;81.658;162.534;203.364;106.208;20.005;23.991;14.566
4754358.326;264.868;133.552;194.572;254.959;115.633;17.993;26.375;13.299
4754358.334;307.113;181.571;218.712;298.880;117.235;26.375;32.745;16.913
4754358.342;355.765;238.456;252.575;360.012;132.136;33.341;36.210;16.987
4754358.350;383.295;273.809;265.613;396.706;122.972;34.980;36.843;13.374
4754358.358;394.098;291.541;264.011;412.352;106.804;30.734;34.533;9.537
4754358.366;402.331;305.809;261.962;422.858;96.709;28.647;35.614;11.250
4754358.374;411.123;318.736;263.527;432.096;94.660;33.788;42.319;16.876
4754358.382;407.025;321.642;252.612;430.085;79.870;37.476;41.947;21.346
4754358.390;394.285;317.171;232.086;420.287;54.128;23.730;27.157;6.780
4754358.398;385.381;314.042;216.402;410.825;40.717;28.759;33.416;9.835
4754358.406;372.529;308.231;198.111;399.649;28.610;26.226;32.149;7.972
4754358.414;356.026;302.158;177.845;389.256;13.299;33.602;41.761;15.944
4754358.454;331.812;284.538;154.898;361.986;-1.639;33.416;44.666;13.672
4754358.462;294.223;252.128;115.000;325.665;-35.539;26.748;37.253;7.264
4754358.470;270.531;235.848;92.462;306.033;-45.374;35.316;42.468;19.409
4754358.478;255.071;225.119;75.810;285.804;-44.815;36.843;43.176;22.203
4754358.486;230.521;210.777;49.099;265.352;-62.287;34.198;43.884;19.483
4754358.494;221.543;203.922;41.090;258.945;-62.585;45.635;56.252;35.278
4754358.502;194.423;182.018;16.093;237.711;-80.280;46.380;58.599;40.978
4754358.510;162.311;151.508;-11.772;206.977;-102.520;30.249;42.841;30.845
4754358.518;149.831;139.512;-20.564;194.423;-97.863;32.932;47.944;32.000
4754358.526;140.257;128.523;-26.077;180.341;-92.424;49.286;64.000;43.847
4754358.534;119.023;105.500;-42.245;160.076;-100.136;46.529;59.307;41.090
4754358.542;96.969;81.435;-60.089;136.308;-111.982;36.433;46.007;37.439
4754358.550;82.664;64.112;-70.296;119.507;-117.756;28.871;31.143;39.227
4754358.558;71.004;48.876;-77.710;106.841;-120.364;21.793;25.146;35.763
4754358.566;65.714;42.692;-78.082;101.216;-117.384;29.355;39.600;38.929
4754358.574;67.391;41.388;-72.941;103.526;-110.604;42.804;52.713;46.715
4754358.582;65.379;37.253;-71.675;101.551;-106.134;51.484;60.014;51.484
4754358.590;65.863;33.975;-68.061;98.087;-104.904;52.452;56.252;51.185
4754358.598;62.436;26.375;-66.794;92.424;-100.657;49.919;47.088;46.864
4754358.606;53.197;13.150;-72.531;82.329;-106.208;43.958;35.837;41.723
4754358.614;39.153;-4.098;-84.639;69.514;-116.453;35.688;26.971;38.370
4754358.622;36.657;-8.419;-84.899;66.534;-117.570;39.302;32.336;42.990
4754358.630;33.751;-13.411;-85.011;63.851;-119.992;43.847;42.506;46.045
4754358.638;32.298;-16.876;-84.043;60.759;-117.868;43.251;43.251;45.113
4754358.606;35.577;-15.385;-78.864;64.559;-113.323;43.400;42.655;47.013
4754358.614;33.751;-19.521;-79.833;59.716;-113.472;40.270;39.451;44.033
4754358.622;28.498;-24.177;-82.888;55.134;-116.937;40.680;40.568;42.208
4754358.630;33.155;-18.254;-76.443;60.201;-112.616;47.423;47.050;44.331
4754358.638;33.937;-18.030;-74.282;58.152;-112.504;50.962;48.168;44.927
4754358.646;34.757;-16.429;-71.153;56.848;-108.629;52.638;47.125;44.256
4754358.654;28.647;-23.283;-77.039;48.168;-118.427;43.809;36.135;32.634
4754358.662;20.266;-33.192;-86.240;34.645;-130.273;33.826;25.742;21.085
4754358.670;16.429;-36.880;-90.823;29.504;-136.010;26.897;20.377;13.858
4754358.678;16.801;-36.024;-90.487;28.983;-133.477;31.926;29.802;19.334
4754358.686;25.816;-25.518;-82.441;37.625;-125.691;33.975;32.000;22.314
4754358.694;38.520;-11.064;-74.580;52.676;-117.719;24.028;23.022;13.001
4754358.702;27.977;-17.658;-89.146;45.896;-131.950;22.352;20.713;9.388
4754358.710;14.678;-27.865;-101.775;36.657;-137.128;23.805;17.323;11.176
4754358.718;5.290;-32.932;-111.647;32.112;-143.088;28.200;18.924;15.721
4754358.726;-4.992;-38.780;-119.917;26.673;-147.074;29.355;21.793;16.652
4754358.734;-14.007;-45.449;-126.474;18.515;-149.012;22.948;16.056;9.760
4754358.742;-14.044;-41.984;-126.697;20.415;-149.645;25.965;25.406;10.170
4754358.750;-16.764;-40.717;-127.405;21.793;-146.180;32.075;31.367;18.589
4754358.758;-13.225;-35.726;-122.450;25.705;-138.208;34.682;32.336;22.911
4754358.766;-16.987;-36.880;-125.468;23.432;-142.083;29.653;26.934;17.546
4754358.774;-18.440;-37.476;-126.138;22.426;-141.077;25.667;23.395;13.970
4754358.782;-16.466;-34.645;-123.568;25.071;-137.053;29.318;30.771;17.285
4754358.790;-22.873;-40.643;-127.926;18.701;-140.332;29.691;30.510;15.423
4754358.756;-30.696;-47.572;-136.346;11.995;-149.049;26.114;22.613;10.915
4754358.764;-28.498;-46.380;-135.042;12.480;-143.759;30.622;28.461;14.454
4754358.772;-24.922;-41.686;-131.615;18.403;-136.122;32.894;34.980;16.019
4754358.780;-29.020;-45.784;-135.042;15.274;-134.483;28.759;31.106;10.580
4754358.788;-33.118;-50.142;-137.985;10.543;-134.446;29.504;31.926;9.574
4754358.796;-40.680;-59.083;-142.232;0.894;-135.638;28.610;27.902;11.288
4754358.804;-37.812;-56.699;-138.059;6.482;-129.640;30.473;27.493;14.305
4754358.812;-37.588;-58.487;-136.048;4.210;-126.325;28.871;23.954;13.113
4754358.820;-37.216;-58.301;-134.781;1.267;-127.703;27.046;21.532;11.064
4754358.828;-31.479;-54.128;-124.238;7.711;-108.555;30.249;25.593;11.213
4754358.836;-24.997;-48.392;-117.682;13.709;-105.053;35.353;28.722;15.050
4754358.844;-25.108;-49.323;-119.098;15.832;-108.071;32.559;27.008;11.995
4754358.852;-15.385;-43.809;-109.300;21.830;-97.007;33.379;27.828;12.927
4754358.860;-9.574;-40.531;-103.079;23.581;-88.252;32.894;25.742;13.635
4754358.868;-8.717;-40.382;-101.849;23.805;-82.627;32.559;23.730;13.188
4754358.876;-10.915;-46.417;-102.147;16.838;-82.850;27.679;19.744;12.591
4754358.884;-18.142;-54.650;-106.879;9.984;-87.097;19.707;13.672;6.892
4754358.892;-23.432;-60.834;-113.063;5.104;-93.654;13.858;10.468;1.155
4754358.900;-21.458;-58.264;-111.125;9.015;-93.803;18.589;14.529;6.482
4754358.908;-18.068;-56.215;-105.202;10.729;-84.862;22.054;15.832;10.543
4754358.916;-21.234;-59.642;-109.747;6.929;-90.487;22.687;17.285;9.984
4754358.924;-23.022;-62.957;-110.678;6.221;-91.270;21.122;17.695;7.339
4754358.932;-22.501;-63.442;-110.120;5.066;-93.393;20.787;17.062;7.860
4754358.940;-17.770;-61.691;-102.930;4.992;-83.484;20.377;16.876;8.382
4754358.950;-20.191;-64.671;-105.835;1.900;-86.762;18.738;13.486;7.227
4754358.958;-20.377;-64.261;-105.388;2.161;-87.619;18.105;10.468;9.052
4754358.966;-14.789;-57.220;-99.279;9.835;-82.701;20.191;13.225;13.001
4754358.974;-9.276;-52.825;-93.244;14.342;-77.039;23.209;16.727;15.013
4754358.982;-21.271;-52.899;-90.487;12.182;-73.761;24.661;19.185;15.199
4754358.990;-43.437;-46.566;-83.633;19.409;-67.391;32.857;27.642;22.240
4754358.998;-45.300;-43.921;-79.609;21.867;-65.453;33.379;29.281;22.203
4754359.006;-48.429;-49.099;-83.484;11.027;-74.767;26.189;22.016;16.391
4754359.014;-47.162;-50.180;-79.498;12.778;-67.279;24.326;20.824;14.976
4754359.022;-50.217;-53.458;-82.403;11.586;-70.147;26.934;24.922;15.572
4754359.030;-67.987;-71.488;-98.199;-7.674;-83.447;20.638;17.546;10.580
4754359.038;-71.861;-76.033;-101.812;-9.015;-89.034;19.707;17.509;12.219
4754359.046;-77.002;-83.558;-111.461;-13.560;-100.993;18.328;18.366;12.293
4754359.054;-79.870;-89.742;-114.143;-19.893;-97.826;7.674;4.433;2.831
4754359.062;-75.549;-86.464;-109.412;-14.529;-95.256;9.760;7.004;3.874
4754359.070;-71.935;-83.447;-106.245;-8.941;-95.479;11.884;13.001;6.221
4754359.078;-66.012;-78.715;-102.185;-3.688;-93.244;13.821;16.280;9.313
4754359.086;-61.169;-73.314;-96.746;0.931;-87.433;14.193;16.801;11.660
4754359.094;-56.066;-68.620;-90.301;4.247;-81.249;13.001;15.199;12.405
4754359.102;-50.031;-64.038;-81.845;7.264;-75.363;17.881;20.564;18.179
4754359.110;-56.326;-70.408;-89.742;1.639;-90.040;13.039;15.572;14.305
4754359.118;-49.695;-64.559;-84.005;9.052;-83.782;15.683;18.775;15.758
4754359.126;-45.523;-63.516;-78.529;8.084;-79.200;19.073;18.924;22.054
4754359.134;-43.809;-63.442;-75.921;6.743;-77.933;15.646;14.082;14.976
4754359.234;-36.247;-54.315;-68.806;16.540;-71.190;17.434;14.491;16.838
4754359.242;-35.129;-53.197;-67.279;16.317;-72.084;17.174;10.766;19.222
4754359.250;-35.241;-54.054;-68.657;15.199;-79.349;17.211;9.909;19.707
4754359.258;-26.748;-47.423;-61.058;21.346;-69.477;20.154;15.832;22.948
4754359.266;-17.732;-40.568;-53.570;29.691;-65.081;21.718;19.968;25.034
4754359.274;-15.460;-39.339;-50.217;33.863;-60.275;21.197;19.558;25.146
4754359.282;-12.703;-38.370;-45.896;35.539;-56.922;21.271;22.389;25.667
4754359.290;-13.039;-38.669;-44.443;38.147;-52.787;22.650;23.879;26.748
4754359.298;-20.005;-46.752;-54.128;30.771;-70.371;24.512;23.879;26.375
4754359.306;-32.373;-60.610;-64.597;19.073;-76.592;22.762;21.569;23.656
4754359.314;-22.650;-55.619;-50.552;23.767;-60.275;20.862;18.366;23.469
4754359.322;-7.302;-45.449;-31.143;33.528;-41.090;21.569;19.968;25.369
4754359.330;-1.788;-44.033;-22.165;32.112;-34.161;21.197;19.297;24.512
4754359.338;11.623;-32.783;-7.935;41.872;-25.071;21.942;20.713;23.432
4754359.346;17.285;-29.914;-4.582;44.852;-22.762;19.670;18.030;19.819
4754359.354;21.420;-29.504;1.527;44.182;-16.652;16.540;14.417;19.036
4754359.362;18.626;-32.112;-1.602;43.213;-20.154;15.907;12.890;19.744
4754359.370;17.062;-34.943;-4.917;40.866;-24.475;16.019;12.964;19.185
4754359.378;19.707;-35.092;-1.229;42.357;-19.334;19.483;14.752;22.538
4754359.386;18.999;-37.290;-2.086;39.861;-16.801;24.028;18.775;25.555
4754359.394;23.134;-33.788;1.863;43.921;-18.701;25.108;21.793;25.555
4754359.402;31.330;-26.599;9.760;52.936;-10.207;28.983;24.140;29.914
4754359.410;27.977;-32.075;5.513;48.876;-10.729;23.432;16.838;25.369
4754359.418;21.905;-38.557;0.261;43.958;-17.956;16.689;8.419;21.197
4754359.461;10.952;-47.721;-10.319;35.577;-26.487;4.955;-0.298;11.325
4754359.469;12.703;-47.646;-7.972;33.490;-22.314;-0.298;-2.086;4.843
4754359.477;16.093;-46.082;-7.972;36.359;-27.977;-0.708;-3.353;4.657
4754359.485;12.890;-48.503;-16.280;36.322;-31.739;-0.894;-3.763;4.955
4754359.493;17.621;-44.145;-11.735;41.202;-24.289;3.800;1.527;7.637
4754359.501;20.526;-43.213;-9.872;41.351;-20.675;3.837;2.831;8.568
4754359.509;20.340;-43.772;-11.511;40.457;-20.042;4.396;4.433;9.537
4754359.517;18.142;-47.460;-13.784;36.955;-16.913;10.654;11.921;13.635
4754359.525;11.064;-53.607;-22.054;32.298;-19.744;15.125;15.832;19.334
4754359.533;51.558;-14.491;14.491;70.930;13.188;15.907;16.168;21.197
4754359.541;77.859;9.388;35.018;93.728;26.934;20.526;18.664;24.624
4754359.549;107.177;35.763;59.605;118.762;41.090;27.344;23.805;29.244
4754359.557;134.334;58.338;81.807;137.649;56.699;31.069;29.579;31.665
4754359.565;142.083;66.087;76.815;152.551;52.974;24.438;24.401;24.475
4754359.573;155.196;79.945;87.917;170.693;68.173;30.287;28.834;31.069
4754359.581;153.892;78.380;85.309;166.185;69.663;32.000;30.436;31.665
4754359.589;144.243;70.781;71.973;157.654;70.818;31.739;29.281;31.032
4754359.597;139.512;66.422;68.583;153.743;87.358;31.777;29.430;30.100
4754359.605;129.826;58.226;56.624;143.945;88.960;28.200;29.467;27.008
4754359.613;127.032;54.352;53.532;139.214;96.262;26.561;27.940;23.954
4754359.621;123.829;47.497;52.080;133.738;108.965;23.171;21.122;20.005
4754359.629;113.696;37.104;38.818;125.356;95.107;16.168;14.789;13.262
4754359.637;110.716;33.751;36.545;124.648;109.486;13.746;10.580;9.239
4754359.645;106.581;29.989;29.877;124.164;118.949;14.342;8.754;10.282
4754359.629;96.858;20.675;20.787;113.286;116.117;13.858;6.035;11.511
4754359.637;93.393;14.864;14.752;109.114;116.676;15.572;11.064;12.740
4754359.645;93.058;12.144;14.827;108.182;128.448;14.566;13.076;12.070
4754359.653;93.058;11.697;13.039;108.071;146.702;12.107;14.603;8.196
4754359.661;93.021;10.021;14.305;104.345;154.749;7.153;12.070;4.135
4754359.669;85.793;2.235;5.774;96.336;157.058;0.186;6.706;0.112
4754359.677;84.005;-1.229;8.792;95.777;165.328;-1.043;6.482;0.633
4754359.685;76.331;-5.662;-4.955;93.728;156.537;0.410;5.364;2.645
4754359.693;72.122;-10.915;-6.258;86.650;169.426;-4.284;0.149;-4.210
4754359.701;74.953;-7.153;-6.482;90.599;166.930;-4.768;-0.708;-6.407
4754359.709;84.005;4.135;0.745;103.936;167.787;0.373;4.098;-2.943
4754359.717;83.186;1.714;-1.378;98.720;165.701;-3.502;0.484;-5.402
4754359.725;79.721;-2.533;-10.692;98.534;163.801;-8.568;-4.023;-7.786
4754359.733;80.168;-3.241;-12.182;99.093;173.748;-8.568;-5.551;-6.966
4754359.741;76.666;-4.731;-14.454;98.087;185.519;-7.786;-7.413;-5.960
4754359.749;74.133;-7.674;-20.042;94.138;182.576;-3.986;-4.582;-4.508
4754359.757;74.059;-9.686;-20.936;91.307;180.043;-2.012;-1.341;-2.868
4754359.765;75.698;-6.817;-13.113;93.654;184.923;-5.066;-1.937;-3.912
4754359.773;69.663;-12.331;-19.111;88.215;182.390;-11.958;-9.909;-7.451
4754359.781;59.493;-22.911;-32.522;80.988;170.209;-20.936;-18.813;-13.672
4754359.789;58.040;-25.742;-32.000;80.653;172.332;-21.830;-19.148;-15.423
4754359.797;54.874;-31.404;-35.465;73.239;169.948;-24.624;-22.203;-18.701
4754359.805;61.318;-25.816;-24.959;79.684;173.114;-17.583;-15.162;-13.448
4754359.813;57.630;-27.455;-37.141;79.013;166.148;-11.139;-9.760;-7.227
4754359.819;50.738;-34.571;-43.102;77.449;157.394;-14.827;-15.460;-11.213
4754359.827;47.721;-37.849;-45.411;73.239;153.892;-21.569;-20.154;-16.205
4754359.835;48.243;-37.700;-42.170;73.537;158.846;-28.647;-28.051;-21.271
4754359.843;45.635;-40.196;-47.125;70.333;150.986;-30.287;-29.579;-24.214
4754359.851;46.752;-40.047;-44.815;71.675;149.310;-32.075;-30.324;-26.822
4754359.859;44.554;-41.723;-48.690;70.259;144.355;-30.659;-30.026;-24.848
4754359.867;55.060;-32.857;-37.514;79.796;155.494;-25.854;-24.699;-21.085
4754359.875;58.599;-30.994;-35.018;82.143;150.390;-28.759;-27.120;-23.432
4754359.883;60.275;-29.132;-34.720;83.931;147.447;-28.796;-26.375;-24.401
4754359.891;66.757;-21.718;-27.791;87.470;149.272;-21.607;-17.807;-21.085
4754359.899;62.473;-23.842;-35.278;83.074;137.873;-24.624;-21.271;-25.481
4754359.907;55.507;-32.261;-41.127;75.214;131.764;-31.404;-27.157;-31.255
4754359.915;67.018;-20.191;-30.436;88.178;132.844;-35.614;-29.914;-33.006
4754359.923;69.775;-17.323;-29.653;93.542;134.557;-30.100;-25.705;-27.865
4754359.931;72.271;-13.672;-27.940;96.858;127.479;-30.510;-26.859;-29.467
4754359.939;73.090;-13.933;-28.946;97.789;122.562;-34.943;-30.771;-34.794
4754359.947;65.342;-21.085;-37.588;89.221;117.496;-31.814;-28.722;-31.404
4754359.955;64.932;-19.893;-38.631;89.817;111.014;-29.840;-24.624;-29.542
4754359.963;68.136;-16.429;-30.622;89.630;118.874;-26.859;-22.314;-26.561
4754359.971;74.320;-10.282;-22.240;95.069;122.264;-23.879;-20.564;-22.352
4754359.979;70.669;-12.964;-31.106;91.903;108.778;-25.779;-24.848;-22.836
4754359.987;67.465;-14.566;-34.012;88.476;108.853;-27.195;-26.450;-25.108
4754359.995;68.173;-16.019;-29.914;84.825;111.833;-26.263;-25.406;-25.369
4754360.003;64.075;-19.856;-36.582;80.615;104.941;-25.071;-22.203;-25.555
4754360.045;55.656;-28.238;-44.964;71.786;103.153;-28.200;-27.157;-27.344
4754360.053;53.346;-31.255;-47.758;68.545;102.967;-32.485;-32.261;-29.355
4754360.061;65.044;-22.948;-33.826;76.666;118.613;-29.616;-28.946;-26.524
4754360.069;68.359;-19.446;-32.336;80.392;117.868;-23.916;-21.867;-21.346
4754360.077;66.347;-19.930;-34.533;80.913;114.031;-21.718;-22.464;-19.595
4754360.085;66.720;-22.054;-31.404;74.990;116.900;-20.638;-21.681;-19.036
4754360.093;64.485;-24.103;-34.086;71.414;107.810;-24.922;-25.295;-23.469
4754360.101;68.136;-18.403;-31.441;77.002;104.681;-28.387;-27.493;-24.252
4754360.109;69.700;-17.472;-27.269;76.443;104.010;-34.049;-33.081;-29.579
4754360.117;64.783;-21.718;-28.610;69.439;101.030;-35.726;-36.210;-32.224
4754360.125;59.083;-29.467;-30.249;60.648;93.170;-36.135;-37.849;-33.602
4754360.133;50.440;-38.706;-38.892;53.309;84.266;-39.563;-41.053;-37.737
4754360.141;52.527;-36.694;-35.241;53.309;81.882;-34.086;-36.620;-32.634
4754360.149;44.666;-44.294;-42.729;45.784;65.416;-36.992;-42.208;-35.092
4754360.157;43.809;-44.405;-40.494;46.268;63.740;-36.098;-39.525;-34.235
4754360.165;47.050;-40.717;-35.465;49.695;62.920;-32.708;-35.092;-31.516
4754360.173;44.778;-42.804;-35.539;48.541;55.730;-34.682;-38.482;-31.181
4754360.181;37.700;-48.950;-39.898;42.617;41.388;-36.731;-41.798;-33.081
4754360.189;33.714;-54.911;-39.190;34.943;31.777;-37.514;-42.357;-33.900
4754360.197;24.065;-68.471;-44.592;21.383;16.093;-44.964;-50.105;-40.904
4754360.205;19.632;-69.998;-47.609;22.687;-4.694;-42.170;-46.492;-38.855
4754360.213;18.589;-69.104;-44.070;25.667;-14.380;-40.606;-43.102;-37.625
4754360.221;19.707;-67.949;-39.153;28.014;-15.609;-39.376;-39.525;-35.800
4754360.229;14.789;-71.973;-45.076;25.108;-33.416;-43.176;-41.462;-40.159
4754360.193;12.219;-75.698;-41.053;21.830;-35.428;-42.841;-43.176;-37.067
4754360.201;6.817;-81.658;-42.617;18.887;-35.763;-47.684;-49.956;-39.935
4754360.209;4.321;-83.372;-42.953;24.661;-40.121;-49.397;-51.185;-40.606
4754360.217;-5.700;-101.402;-50.850;0.298;-55.991;-58.524;-61.430;-48.690
4754360.225;-7.190;-101.700;-58.301;4.433;-63.069;-57.966;-61.244;-47.050
4754360.233;6.780;-92.089;-33.788;15.385;-26.710;-55.060;-60.238;-42.990
4754360.241;9.127;-87.880;-40.382;24.736;-35.949;-49.472;-49.584;-43.921
4754360.249;5.811;-89.742;-51.931;29.020;-40.792;-39.749;-41.462;-31.590
4754360.257;-8.307;-109.002;-60.722;5.588;-4.545;-56.848;-63.516;-48.131
4754360.265;-3.912;-106.730;-55.768;9.499;43.958;-53.793;-62.622;-45.076
4754360.273;10.207;-93.468;-25.928;23.656;91.009;-48.503;-54.389;-39.339
4754360.281;-4.917;-100.508;-41.872;14.193;94.697;-58.524;-62.250;-48.988
4754360.289;-6.147;-94.622;-37.290;19.707;146.627;-64.932;-66.869;-50.627
4754360.297;-3.725;-93.170;-19.819;16.727;199.862;-67.987;-66.645;-53.123
4754360.305;31.628;-74.916;47.684;30.510;262.819;-60.722;-60.983;-45.523
4754360.313;17.472;-79.572;7.227;33.490;257.529;-62.026;-62.026;-42.990
4754360.321;-25.518;-110.753;-82.515;5.849;236.593;-82.962;-82.813;-68.024
4754360.329;-14.380;-102.632;-69.253;18.999;297.017;-80.205;-75.921;-72.457
4754360.337;5.476;-94.175;-34.459;26.301;351.258;-68.732;-65.863;-57.928
4754360.345;-1.937;-101.440;-59.195;23.879;390.485;-76.257;-74.096;-67.502
4754360.353;0.633;-98.087;-62.622;29.616;428.110;-75.139;-75.363;-63.404
4754360.361;9.760;-92.573;-46.827;34.682;468.194;-66.347;-64.559;-50.627
4754360.369;13.858;-86.911;-46.156;39.637;511.110;-71.786;-64.634;-58.375
4754360.377;20.377;-76.666;-34.384;48.466;523.366;-68.285;-59.679;-54.091
4754360.330;20.079;-77.039;-33.639;49.211;519.529;-70.259;-63.442;-52.899
4754360.338;13.858;-85.272;-36.806;39.712;568.852;-84.117;-75.810;-69.700
4754360.346;23.730;-77.151;-36.880;52.080;562.556;-77.561;-69.700;-62.361
4754360.354;5.178;-92.350;-75.251;39.749;609.048;-83.335;-73.388;-67.465
4754360.362;12.517;-89.034;-61.430;43.362;626.557;-84.154;-74.878;-69.477
4754360.370;11.139;-90.823;-70.967;43.586;655.092;-83.372;-78.641;-69.626
4754360.378;16.950;-89.072;-60.163;44.256;677.668;-83.148;-76.331;-70.855
4754360.386;15.572;-89.072;-67.577;47.684;680.797;-80.615;-72.755;-68.247
4754360.394;9.574;-92.983;-87.172;46.976;673.979;-83.223;-72.904;-71.302
4754360.402;21.160;-84.005;-69.402;53.868;695.325;-79.982;-67.130;-69.365
4754360.410;16.838;-88.327;-78.492;49.770;699.908;-84.452;-71.153;-72.680
4754360.418;19.409;-86.352;-76.070;51.782;700.988;-86.911;-74.171;-73.835
4754360.426;23.358;-84.713;-73.276;52.527;703.931;-83.484;-72.643;-69.030
4754360.434;21.644;-87.433;-79.386;52.899;695.810;-85.607;-75.065;-71.302
4754360.442;23.469;-87.358;-74.059;50.701;684.075;-80.615;-71.675;-68.843
4754360.450;21.830;-88.699;-72.569;49.733;664.368;-78.529;-69.477;-69.849
4754360.458;21.644;-90.189;-69.179;46.268;646.263;-77.784;-66.757;-69.328
4754360.466;19.073;-93.840;-83.447;47.199;611.283;-73.835;-65.379;-66.459
4754360.474;26.822;-90.860;-81.658;54.203;598.654;-63.851;-59.865;-57.593
4754360.482;19.781;-97.230;-97.826;48.690;572.316;-64.522;-62.697;-58.450
4754360.490;19.260;-100.881;-95.814;45.747;552.237;-67.987;-65.640;-60.424
4754360.498;22.128;-99.689;-93.617;48.466;527.725;-72.233;-68.024;-63.628
4754360.506;22.314;-101.812;-97.863;48.019;499.338;-73.090;-66.832;-63.404
4754360.514;17.546;-109.859;-113.398;43.325;474.267;-74.841;-65.751;-67.391
4754360.539;18.999;-108.816;-107.698;44.368;449.270;-72.643;-60.983;-65.714
4754360.547;18.924;-109.635;-102.744;42.319;400.618;-73.873;-63.404;-65.453
4754360.555;15.870;-112.429;-109.933;39.265;328.273;-76.629;-66.683;-66.124
4754360.563;24.065;-104.420;-96.820;47.460;281.073;-73.016;-65.118;-61.654
4754360.571;28.722;-99.577;-84.676;51.036;223.257;-70.892;-64.783;-59.381
4754360.579;26.450;-101.365;-79.796;44.554;161.678;-70.147;-64.708;-58.748
4754360.587;30.324;-96.373;-65.975;48.019;110.641;-68.843;-63.293;-56.848
4754360.595;32.373;-94.660;-48.503;46.194;72.345;-71.786;-66.720;-58.822
4754360.603;32.634;-92.946;-41.276;45.933;45.039;-73.873;-68.843;-58.524
4754360.611;29.840;-96.038;-42.245;41.649;20.526;-77.076;-71.973;-61.058
4754360.619;31.814;-95.889;-34.869;44.480;-5.178;-79.833;-73.873;-63.777
4754360.627;36.992;-91.791;-26.561;48.280;-24.922;-83.223;-74.878;-67.241
4754360.635;45.002;-82.403;-15.795;55.730;-35.949;-82.925;-73.798;-66.347
4754360.643;49.062;-77.598;-10.766;58.338;-42.766;-82.180;-73.351;-63.479
4754360.651;52.042;-75.027;-2.310;61.207;-47.609;-79.237;-72.345;-62.026
4754360.659;50.664;-74.357;-1.751;61.020;-69.104;-75.847;-68.769;-61.691
4754360.667;49.248;-73.314;-1.304;61.952;-68.061;-71.824;-63.963;-59.232
4754360.675;54.352;-69.998;8.196;61.505;-68.061;-68.098;-59.828;-56.773
4754360.683;51.297;-70.967;7.600;61.691;-76.666;-64.448;-54.799;-53.607
4754360.691;48.503;-72.382;5.476;61.952;-88.140;-65.751;-55.879;-54.464
4754360.699;43.176;-79.870;3.465;52.638;-92.871;-73.537;-68.322;-59.903
4754360.707;45.113;-80.019;9.835;50.813;-91.605;-74.431;-70.743;-59.158
4754360.715;49.174;-73.016;16.391;56.401;-94.064;-70.632;-66.049;-56.624
4754360.723;53.942;-66.161;23.842;62.473;-91.940;-69.141;-62.063;-57.518
4754360.719;54.128;-64.261;24.885;63.591;-100.583;-69.477;-61.169;-59.754
4754360.727;51.707;-63.926;24.512;64.559;-111.684;-70.520;-61.877;-60.834
4754360.735;48.727;-68.173;25.891;57.258;-113.025;-74.990;-67.130;-62.622
4754360.743;53.234;-64.522;30.734;60.908;-117.347;-70.557;-63.591;-58.524
4754360.751;53.756;-64.299;32.894;61.803;-115.447;-65.826;-59.865;-54.799
4754360.759;56.773;-60.126;37.551;66.645;-116.564;-61.095;-55.432;-52.005
4754360.767;60.350;-55.060;42.319;70.855;-116.378;-54.128;-50.962;-47.497
4754360.775;63.218;-53.570;48.466;72.382;-115.409;-49.770;-48.727;-43.996
4754360.783;68.657;-48.280;55.283;78.827;-112.616;-44.964;-43.735;-41.015
4754360.791;69.067;-47.535;57.854;79.051;-110.008;-43.027;-40.755;-40.382
4754360.799;63.106;-53.383;53.085;72.606;-116.043;-48.541;-44.890;-46.082
4754360.807;60.163;-56.401;51.633;68.583;-120.401;-54.203;-50.180;-51.409
4754360.815;63.404;-51.633;57.034;70.818;-117.458;-53.719;-50.925;-49.323
4754360.823;66.720;-46.045;62.659;75.437;-118.688;-53.942;-51.185;-48.131
4754360.831;68.955;-44.033;66.981;76.257;-115.782;-50.403;-48.131;-44.815
4754360.839;65.006;-48.578;60.834;71.004;-126.138;-52.191;-50.105;-44.741
4754360.847;65.193;-48.317;64.336;70.632;-122.376;-50.105;-48.541;-42.804
4754360.855;63.665;-49.546;62.399;68.210;-126.399;-49.844;-47.795;-43.027
4754360.863;59.605;-53.830;59.828;61.095;-132.471;-55.358;-52.266;-48.056
4754360.871;61.020;-51.260;63.553;62.361;-127.442;-54.613;-51.521;-48.243
4754360.879;61.542;-49.882;62.101;62.436;-130.534;-56.028;-54.240;-48.280
4754360.887;64.336;-46.380;67.055;64.559;-122.637;-54.501;-52.042;-46.641
4754360.895;59.865;-50.031;61.914;61.132;-132.993;-55.023;-53.905;-45.523
4754360.903;57.071;-50.850;58.822;59.828;-139.549;-56.401;-54.017;-45.039
4754360.870;58.003;-49.174;61.952;61.579;-136.606;-54.277;-50.627;-44.070
4754360.878;56.401;-49.733;59.381;61.058;-142.194;-50.403;-47.684;-42.282
4754360.886;51.595;-54.054;56.326;55.507;-143.610;-49.584;-48.392;-41.723
4754360.894;50.552;-53.570;55.768;55.246;-144.318;-49.211;-48.131;-40.233
4754360.902;49.770;-53.607;57.295;54.166;-140.630;-51.446;-49.099;-41.910
4754360.910;46.417;-55.470;52.340;53.979;-149.086;-54.762;-50.142;-45.560
4754360.918;47.721;-53.458;52.452;57.779;-148.602;-53.272;-48.093;-42.878
4754360.926;40.121;-59.195;44.070;50.664;-155.568;-52.340;-49.137;-40.904
4754360.934;36.061;-64.075;40.531;44.890;-163.056;-56.215;-54.054;-43.772
4754360.942;45.747;-55.395;51.595;51.595;-153.482;-55.358;-55.172;-44.107
4754360.950;47.162;-55.209;53.085;51.446;-155.866;-53.383;-55.097;-41.537
4754360.958;40.866;-60.610;47.535;47.088;-160.187;-54.985;-57.220;-42.915
4754360.966;39.265;-60.461;45.486;46.380;-164.285;-57.891;-60.201;-45.151
4754360.974;37.625;-62.473;43.958;44.815;-168.085;-61.654;-63.702;-49.882
4754360.982;43.288;-57.779;52.340;49.137;-164.434;-60.648;-62.101;-50.478
4754360.990;47.684;-52.378;56.848;54.017;-164.472;-58.822;-61.616;-50.962
4754360.998;41.611;-57.295;47.795;47.088;-179.783;-62.063;-65.304;-54.054
4754361.006;45.188;-53.830;52.527;51.484;-169.985;-61.914;-65.751;-53.868
4754361.014;53.160;-46.976;63.293;61.542;-153.147;-56.960;-60.946;-48.392
4754361.022;45.076;-54.576;50.440;55.656;-172.555;-59.493;-60.573;-50.664
4754361.030;39.153;-62.697;47.535;48.988;-168.569;-60.946;-61.616;-53.123
4754361.038;36.806;-65.453;46.678;47.833;-166.893;-57.444;-58.711;-50.552
4754361.046;42.170;-60.834;51.446;52.489;-162.274;-55.507;-56.289;-48.801
4754361.054;48.392;-55.023;56.662;59.940;-160.076;-55.097;-54.426;-48.839
4754361.093;42.878;-57.444;47.646;56.960;-163.689;-57.742;-55.432;-51.260
4754361.101;45.337;-54.389;51.968;59.903;-155.680;-53.309;-52.638;-47.050
4754361.109;43.996;-57.183;51.334;55.954;-151.992;-51.223;-50.627;-44.219
4754361.117;45.151;-54.911;49.770;56.960;-152.588;-52.638;-50.515;-44.480
4754361.125;45.635;-54.874;51.968;56.922;-143.833;-56.066;-52.303;-47.348
4754361.133;42.208;-58.413;50.925;54.166;-146.180;-58.636;-54.874;-48.801
4754361.141;36.284;-61.914;41.388;53.644;-156.909;-56.736;-52.787;-48.615
4754361.149;34.310;-62.659;40.047;53.756;-151.843;-56.624;-53.309;-48.243
4754361.157;37.700;-59.716;44.443;56.997;-146.776;-53.756;-51.707;-43.996
4754361.165;37.998;-60.126;45.523;60.014;-147.633;-51.670;-50.701;-41.425
4754361.173;41.910;-54.054;48.019;65.565;-150.651;-50.925;-49.695;-41.239
4754361.181;52.750;-42.208;58.524;79.796;-138.171;-50.329;-48.205;-42.059
4754361.189;69.812;-24.103;77.561;103.489;-118.800;-50.776;-48.466;-43.511
4754361.197;92.760;1.267;99.204;131.875;-108.816;-46.082;-42.692;-39.227
4754361.205;121.742;30.100;126.958;162.832;-96.150;-47.423;-45.262;-37.663
4754361.213;168.532;79.460;173.226;220.090;-66.757;-45.598;-44.443;-35.055
4754361.221;227.019;139.177;226.386;280.030;-39.898;-42.692;-42.953;-31.814
4754361.229;291.616;201.166;290.908;344.813;0.484;-37.886;-37.514;-29.765
4754361.237;341.088;244.938;333.898;387.542;21.830;-34.720;-33.528;-27.344
4754361.245;378.974;279.993;365.935;421.070;33.118;-29.504;-28.238;-22.352
4754361.253;410.527;308.193;395.067;446.253;45.188;-23.656;-23.134;-19.297
4754361.261;435.151;327.267;420.362;464.022;64.522;-18.626;-17.509;-17.546
4754361.269;451.021;343.025;429.973;476.986;66.683;-19.819;-17.099;-19.297
4754361.277;463.724;351.705;443.906;480.041;78.678;-23.507;-18.328;-20.638
4754361.285;472.441;360.012;452.101;490.695;88.401;-24.512;-18.403;-21.644
4754361.293;477.396;366.271;458.099;495.762;101.849;-21.048;-16.242;-19.260
4754361.301;476.725;367.947;452.958;497.811;87.880;-20.117;-16.466;-17.919
4754361.309;477.843;367.574;451.840;495.799;86.315;-24.773;-19.036;-20.266
4754361.304;478.849;371.300;454.560;500.381;89.966;-23.283;-15.758;-19.260
4754361.312;476.688;367.872;456.646;498.481;97.193;-22.314;-17.546;-19.185
4754361.320;470.616;364.780;450.946;496.693;98.087;-17.509;-14.901;-14.417
4754361.328;459.068;352.971;441.633;483.394;97.342;-15.497;-15.907;-12.480
4754361.336;447.556;342.429;428.893;474.490;83.931;-17.062;-19.595;-13.150
4754361.344;434.965;330.992;415.817;462.346;76.070;-16.987;-18.552;-12.666
4754361.352;422.522;320.747;405.200;452.809;78.641;-18.515;-17.695;-14.678
4754361.360;408.255;308.901;391.826;441.223;76.517;-17.211;-13.113;-13.337
4754361.368;379.346;278.763;362.843;408.925;55.656;-20.564;-14.938;-16.652
4754361.376;350.960;251.308;335.351;380.911;46.529;-20.750;-15.087;-18.366
4754361.384;319.965;223.406;304.468;355.132;30.138;-18.030;-15.199;-14.901
4754361.392;281.408;185.035;267.066;318.252;3.353;-22.277;-20.042;-16.578
4754361.400;256.188;159.070;244.901;288.673;-2.496;-20.750;-18.924;-14.007
4754361.408;234.768;135.899;225.157;262.819;-7.786;-24.177;-22.985;-18.254
4754361.416;211.261;110.082;200.383;236.891;-26.114;-29.430;-30.845;-22.501
4754361.424;182.055;80.876;169.165;207.387;-40.643;-29.765;-34.049;-25.034
4754361.432;165.775;64.299;155.233;183.284;-44.927;-31.814;-34.720;-27.791
4754361.440;147.298;46.641;138.469;167.452;-52.452;-31.255;-26.934;-27.679
4754361.448;126.511;25.630;118.688;144.206;-60.685;-36.284;-29.653;-31.292
4754361.456;107.810;8.903;97.230;128.821;-74.208;-41.276;-34.831;-34.384
4754361.464;91.009;-6.184;80.205;110.604;-81.100;-41.723;-37.998;-34.347
4754361.472;79.349;-18.477;73.835;99.465;-73.723;-40.829;-39.861;-30.696
4754361.480;70.855;-28.946;66.869;85.793;-78.566;-37.961;-40.829;-25.108
4754361.488;64.783;-35.614;58.077;77.561;-76.145;-33.304;-39.749;-21.346
4754361.470;61.467;-39.078;58.785;73.835;-69.216;-31.143;-42.543;-22.985
4754361.478;52.750;-45.225;44.256;68.285;-81.882;-30.994;-42.245;-27.567
4754361.486;50.329;-47.013;42.841;67.540;-74.655;-28.312;-33.788;-27.306
4754361.494;44.145;-51.334;36.024;65.193;-73.500;-28.536;-27.232;-29.691
4754361.502;28.461;-66.571;18.887;48.876;-85.831;-33.937;-31.255;-32.149
4754361.510;9.574;-84.303;-7.376;30.994;-113.435;-44.294;-43.437;-33.379
4754361.518;0.894;-93.617;-15.572;21.122;-104.308;-48.541;-51.856;-31.069
4754361.526;7.227;-89.221;-2.719;25.854;-70.743;-44.443;-49.509;-24.475
4754361.534;11.064;-82.366;-1.788;33.081;-62.883;-42.208;-43.809;-23.656
4754361.542;12.107;-80.317;-4.359;35.949;-49.323;-39.116;-37.998;-24.065
4754361.550;15.087;-79.088;-2.384;38.929;-50.515;-38.072;-36.433;-25.965
4754361.558;8.084;-84.452;-12.331;34.869;-36.210;-42.729;-39.265;-32.447
4754361.566;5.178;-88.848;-12.964;31.516;-19.222;-40.196;-40.084;-30.138
4754361.574;2.347;-91.009;-19.670;30.920;-13.188;-36.322;-40.494;-25.444
4754361.582;3.465;-89.481;-15.870;31.814;15.907;-34.943;-40.010;-23.022
4754361.590;2.310;-88.140;-20.154;33.751;28.051;-34.831;-39.376;-21.756
4754361.598;10.282;-79.870;-13.150;42.170;42.617;-29.579;-33.118;-18.552
4754361.606;12.554;-77.151;-13.113;45.411;73.649;-30.026;-30.547;-22.091
4754361.614;16.242;-74.357;-7.935;46.976;99.316;-31.441;-29.206;-23.618
4754361.622;15.236;-72.308;-18.217;51.334;99.130;-33.006;-32.000;-23.283
4754361.630;13.635;-71.004;-24.624;55.246;116.564;-34.869;-34.608;-22.873
4754361.638;22.016;-64.112;-7.525;60.834;160.970;-31.479;-33.118;-19.185
4754361.646;27.269;-62.361;3.278;61.803;190.884;-30.659;-32.857;-17.025
4754361.654;18.068;-70.073;-19.558;53.085;185.445;-33.565;-34.943;-20.526
4754361.725;3.725;-79.982;-52.378;44.852;204.295;-35.651;-36.061;-26.040
4754361.733;9.052;-78.380;-45.709;46.752;244.938;-33.043;-34.198;-24.997
4754361.741;11.511;-76.443;-41.686;47.460;274.666;-40.755;-40.121;-30.808
4754361.749;17.323;-71.637;-32.373;51.707;297.539;-42.580;-39.861;-31.702
4754361.757;15.721;-69.365;-44.629;54.799;312.366;-40.457;-37.551;-30.696
4754361.765;13.225;-67.726;-58.562;57.183;339.933;-35.837;-33.528;-28.647
4754361.773;15.162;-66.869;-52.378;55.358;374.429;-36.135;-34.086;-28.014
4754361.781;15.870;-66.608;-50.850;53.830;403.412;-38.147;-38.147;-27.679
4754361.789;18.254;-63.926;-51.744;56.885;422.150;-36.098;-37.253;-23.432
4754361.797;22.240;-61.467;-46.827;58.524;440.888;-33.043;-32.336;-19.968
4754361.805;22.128;-60.536;-57.742;59.642;451.095;-33.118;-30.175;-21.346
4754361.813;26.450;-52.303;-62.995;68.918;489.578;-30.547;-26.822;-19.409
4754361.821;38.967;-42.133;-41.276;76.257;513.680;-29.206;-23.916;-22.352
4754361.829;39.451;-38.929;-41.090;79.721;532.120;-26.785;-19.930;-21.607
4754361.837;39.339;-39.935;-37.216;77.374;535.361;-26.897;-19.409;-20.750
4754361.845;34.533;-45.486;-43.549;70.333;536.926;-29.840;-22.799;-21.569
4754361.853;26.785;-50.366;-55.395;65.193;522.211;-32.485;-26.524;-21.942
4754361.861;22.091;-54.203;-60.797;59.642;538.342;-36.098;-29.802;-25.220
4754361.869;28.796;-47.423;-54.985;66.832;560.656;-29.728;-25.481;-19.446
4754361.877;40.568;-36.322;-38.408;77.747;559.278;-25.481;-23.432;-16.466
4754361.885;38.110;-36.471;-43.288;78.119;555.888;-28.685;-25.146;-21.495
4754361.893;38.855;-32.298;-44.256;81.696;576.079;-30.175;-23.097;-24.550
4754361.901;42.059;-26.077;-34.161;86.278;579.990;-28.424;-20.117;-22.352
4754361.909;46.864;-21.942;-10.133;86.650;593.141;-27.902;-20.787;-20.079
4754361.903;40.866;-24.103;-19.222;84.192;586.882;-27.232;-19.483;-19.893
4754361.911;36.694;-25.444;-26.263;83.931;579.767;-25.481;-15.646;-19.483
4754361.919;44.815;-18.515;-17.844;90.636;573.471;-23.767;-15.125;-14.864
4754361.927;41.611;-20.713;-22.352;87.544;589.341;-28.759;-19.185;-19.930
4754361.935;42.655;-19.446;-16.727;89.407;603.758;-28.275;-16.429;-21.458
4754361.943;45.560;-15.013;-17.732;94.734;585.429;-20.452;-11.101;-13.672
4754361.951;49.360;-11.995;-18.701;97.193;569.634;-18.664;-11.772;-11.325
4754361.959;58.115;-8.866;3.166;99.242;577.681;-20.787;-19.744;-12.368
4754361.967;41.611;-18.999;-26.599;91.121;569.224;-27.269;-27.157;-20.564
4754361.975;31.814;-29.020;-42.282;82.329;567.287;-31.292;-28.647;-25.369
4754361.983;33.118;-27.753;-40.233;83.521;553.690;-33.192;-26.673;-24.475
4754361.991;40.829;-17.844;-34.310;93.021;561.476;-34.347;-28.796;-21.905
4754361.999;47.795;-10.468;-29.393;101.291;565.201;-32.783;-26.599;-21.122
4754362.007;49.472;-9.835;-22.016;99.689;566.952;-25.965;-19.781;-16.354
4754362.015;46.752;-10.394;-25.183;100.136;565.238;-17.285;-9.052;-9.835
4754362.023;51.521;-4.359;-20.377;106.655;569.150;-10.729;0.633;-3.912
4754362.031;53.309;-2.272;-19.670;107.996;556.558;-12.144;1.676;-5.066
4754362.039;49.993;-6.631;-20.862;101.849;555.888;-22.091;-9.909;-14.342
4754362.047;51.446;-5.849;-22.985;100.881;554.286;-20.191;-12.703;-12.107
4754362.055;52.378;-5.923;-22.352;100.732;544.377;-15.646;-12.219;-8.643
4754362.063;50.031;-8.047;-26.152;100.583;540.465;-14.305;-11.511;-6.706
4754362.071;49.882;-7.302;-29.355;103.712;529.438;-15.981;-10.878;-7.749
4754362.079;47.460;-10.170;-39.861;103.340;515.915;-18.813;-11.474;-9.388
4754362.087;48.056;-10.803;-37.886;101.589;524.372;-21.793;-13.821;-11.548
4754362.072;46.231;-14.454;-42.133;97.565;517.927;-24.177;-18.440;-14.417
4754362.080;41.090;-19.297;-59.083;94.995;501.424;-21.458;-16.578;-10.692
4754362.088;36.284;-24.959;-59.865;90.003;496.507;-20.787;-13.262;-11.176
4754362.096;35.465;-28.498;-57.556;85.421;485.927;-21.569;-11.064;-12.852
4754362.104;36.173;-26.710;-61.877;88.327;464.097;-21.830;-8.270;-14.268
4754362.112;45.896;-18.217;-58.003;98.497;462.309;-19.036;-5.662;-11.399
4754362.120;48.392;-16.280;-60.461;101.887;454.150;-18.775;-8.829;-9.723
4754362.128;43.511;-24.512;-64.783;94.064;444.762;-24.103;-19.670;-13.039
4754362.136;42.953;-26.375;-66.124;91.530;437.386;-24.699;-22.054;-12.331
4754362.144;48.466;-19.148;-63.106;98.385;428.706;-17.770;-11.139;-6.631
4754362.152;48.354;-19.148;-59.493;98.273;434.443;-14.938;-6.631;-3.874
4754362.160;49.807;-15.236;-56.215;100.918;414.476;-12.405;-5.141;-2.384
4754362.168;56.028;-10.431;-41.984;103.489;423.826;-18.142;-12.405;-7.562
4754362.176;49.360;-14.044;-62.026;103.004;399.500;-29.802;-25.518;-18.030
4754362.184;52.378;-12.666;-54.911;104.122;393.093;-34.273;-31.739;-22.091
4754362.192;48.317;-16.838;-58.450;100.695;380.687;-30.883;-28.908;-20.862
4754362.200;41.239;-22.426;-61.058;95.032;372.343;-22.165;-18.366;-16.391
4754362.208;37.104;-26.114;-65.081;88.587;364.371;-15.534;-8.084;-11.586
4754362.216;40.717;-21.942;-57.332;93.207;361.353;-14.007;-6.147;-8.829
4754362.224;36.918;-22.538;-64.149;92.909;335.798;-15.162;-10.580;-8.419
4754362.232;40.680;-18.775;-57.034;95.479;334.829;-11.437;-10.207;-1.490
4754362.240;46.268;-12.182;-48.876;99.912;337.660;-8.792;-8.941;1.118
4754362.248;51.148;-6.258;-37.290;105.128;337.586;-7.376;-5.625;-0.596
4754362.256;50.366;-5.700;-33.416;105.202;322.759;-7.600;-1.602;-1.192
4754362.264;45.560;-8.494;-36.955;100.918;305.958;-10.654;-1.937;-3.986
4754362.272;50.180;-7.339;-20.862;100.955;301.227;-13.225;-6.445;-5.104
4754362.280;45.039;-11.027;-28.312;97.230;277.236;-17.807;-13.448;-6.557
4754362.288;49.509;-4.582;-16.801;100.881;283.904;-21.234;-19.968;-11.474
4754362.296;61.207;8.233;-0.298;112.131;284.240;-19.968;-19.707;-13.597
4754362.304;63.926;10.803;1.527;114.478;262.335;-21.569;-18.105;-19.036
4754362.312;65.789;13.635;3.688;117.421;269.301;-18.962;-13.523;-18.403
4754362.320;61.505;10.207;2.235;112.727;242.330;-15.087;-7.264;-15.348
4754362.328;55.283;4.917;-4.768;105.947;239.015;-16.280;-6.594;-14.305
4754362.336;53.756;3.837;-2.906;104.085;244.975;-17.844;-10.505;-9.611
4754362.344;50.440;2.831;-5.886;103.340;236.444;-13.784;-9.984;-2.906
4754362.352;42.543;-3.800;-15.646;98.050;217.743;-11.288;-10.021;0.112
4754362.360;43.809;-2.384;-11.139;98.459;217.892;-4.508;-5.141;3.688
4754362.368;45.337;-0.186;-8.680;100.173;208.728;-1.825;-2.161;4.731
4754362.376;48.168;1.676;-2.235;101.812;211.895;-7.376;-6.258;-0.596
4754362.384;54.277;8.233;7.078;107.251;213.869;-11.623;-8.792;-4.023
4754362.392;51.223;8.158;-6.072;110.492;189.431;-16.950;-14.082;-8.792
4754362.400;53.756;10.580;2.012;112.168;192.001;-20.154;-17.956;-10.207
4754362.408;57.444;13.523;11.288;112.765;193.045;-12.629;-9.015;-3.837
4754362.416;57.146;13.858;14.082;113.845;187.345;-2.421;5.178;2.757
4754362.424;48.392;8.009;2.384;105.165;164.621;-0.112;8.792;2.384
4754362.432;36.955;-0.708;-11.809;95.330;141.598;-2.049;3.502;-3.576
4754362.440;33.043;-8.047;-11.772;86.464;140.406;-1.602;-0.596;-3.465
4754362.448;55.283;8.382;22.128;98.199;173.859;-5.551;-8.568;-4.433
4754362.414;56.699;5.662;32.000;89.742;178.441;-8.382;-13.262;-2.570
4754362.422;45.523;-7.339;23.469;68.545;181.198;-15.274;-18.328;-4.694
4754362.430;39.525;-17.136;36.992;50.962;195.876;-15.870;-17.583;-2.943
4754362.438;35.502;-21.979;37.104;38.520;194.423;-18.366;-20.005;-5.774
4754362.446;31.926;-27.157;42.543;26.040;204.444;-24.214;-24.587;-12.778
4754362.454;30.994;-30.063;48.652;16.913;207.983;-24.922;-24.550;-16.280
4754362.462;29.132;-33.937;57.630;6.892;229.813;-20.042;-20.489;-11.586
4754362.470;22.650;-41.611;54.613;-3.725;228.994;-20.228;-21.309;-10.058
4754362.478;11.176;-51.893;47.907;-16.727;215.545;-20.042;-22.985;-7.078
4754362.486;9.239;-53.458;49.435;-20.377;206.381;-20.303;-24.475;-7.041
4754362.494;5.513;-55.879;43.847;-22.389;201.985;-18.962;-22.724;-9.537
4754362.502;-2.198;-63.889;40.531;-32.373;188.090;-19.334;-23.283;-11.474
4754362.510;-10.692;-71.004;30.920;-41.574;175.573;-19.372;-26.412;-8.121
4754362.518;-12.964;-70.818;27.306;-41.872;162.758;-21.197;-31.404;-5.513
4754362.526;-5.811;-65.975;40.792;-38.669;167.638;-19.893;-32.336;-1.863
4754362.534;-0.224;-59.530;45.300;-33.341;165.217;-15.236;-28.610;1.974
4754362.542;-3.576;-58.524;41.313;-34.608;165.254;-13.150;-24.885;0.931
4754362.550;-0.894;-55.730;47.386;-35.539;163.428;-10.803;-19.260;0.298
4754362.558;1.751;-51.931;48.764;-34.794;155.717;-7.153;-14.305;3.949
4754362.566;4.284;-49.099;52.452;-33.639;151.731;-8.605;-10.505;3.465
4754362.574;2.198;-49.770;49.770;-35.763;150.651;-14.082;-11.958;-0.224
4754362.582;2.123;-49.286;50.627;-37.961;148.565;-15.572;-14.380;0.410
4754362.590;-1.118;-53.532;49.211;-42.655;134.781;-16.131;-17.621;1.639
4754362.598;-1.751;-52.452;43.660;-42.655;124.723;-10.505;-15.199;5.886
4754362.549;1.006;-48.839;47.348;-39.786;122.748;-7.115;-13.895;6.482
4754362.557;5.141;-45.225;53.868;-37.998;127.219;-3.800;-12.219;7.674
4754362.565;9.835;-38.445;58.636;-30.994;127.070;2.980;-6.109;11.474
4754362.573;9.276;-38.221;59.605;-31.516;117.794;6.780;-3.614;15.013
4754362.581;9.611;-35.912;59.381;-30.473;106.692;8.345;-0.671;17.248
4754362.589;7.898;-37.551;61.244;-33.677;100.508;8.419;1.453;17.360
4754362.597;5.551;-39.153;59.158;-35.763;90.227;4.023;-3.129;15.087
4754362.605;6.482;-37.253;64.187;-35.577;86.017;-0.559;-7.227;11.027
4754362.613;5.290;-36.284;57.556;-34.757;59.605;-1.714;-8.643;10.990
4754362.621;6.072;-34.869;58.487;-31.553;48.243;0.075;-8.196;11.362
4754362.629;7.823;-32.037;65.863;-27.418;49.137;4.210;-4.843;14.864
4754362.637;10.394;-28.946;71.526;-25.444;48.727;8.531;-1.863;18.813
4754362.645;8.605;-29.542;70.743;-28.871;39.414;10.058;-0.075;20.750
4754362.653;9.537;-29.355;70.930;-31.218;30.696;10.394;0.708;22.799
4754362.661;12.517;-27.567;75.027;-31.032;28.536;4.768;-4.731;18.217
4754362.669;7.078;-31.926;71.563;-36.247;22.724;2.459;-5.923;15.944
4754362.677;3.837;-32.932;68.732;-37.700;11.697;-5.104;-9.947;7.898
4754362.685;8.121;-29.430;82.068;-36.433;15.311;-8.792;-11.325;5.290
4754362.693;4.210;-31.702;72.457;-38.296;-4.433;-8.382;-12.442;6.817
4754362.701;-1.788;-38.110;64.038;-44.033;-22.687;-12.331;-18.068;2.384
4754362.709;-0.931;-37.551;66.645;-43.139;-19.707;-12.442;-18.105;1.192
4754362.717;-1.825;-37.551;68.843;-42.170;-19.707;-12.070;-16.466;0.410
4754362.725;-2.645;-37.886;70.743;-42.655;-22.911;-7.637;-12.368;5.029
4754362.733;-0.894;-36.545;75.214;-40.270;-28.424;-3.427;-7.972;6.519
4754362.729;-4.582;-38.296;73.239;-41.910;-32.410;-1.304;-5.327;7.339
4754362.737;-6.780;-39.935;71.116;-43.213;-44.443;-2.794;-8.009;6.147
4754362.745;-1.602;-36.135;75.959;-40.866;-49.695;-1.527;-7.115;7.898
4754362.753;-0.894;-35.018;75.996;-40.866;-54.277;0.484;-7.115;11.176
4754362.761;0.559;-34.906;79.721;-40.792;-46.864;1.863;-6.817;13.523
4754362.769;1.229;-32.708;82.217;-38.743;-51.446;1.043;-5.737;11.250
4754362.777;9.015;-23.395;94.213;-29.206;-43.921;5.104;1.676;13.746
4754362.785;5.327;-25.481;83.707;-31.814;-63.889;4.321;0.224;12.740
4754362.793;-0.186;-28.796;75.735;-31.963;-62.883;1.416;-1.080;8.717
4754362.801;-4.023;-34.906;75.214;-39.153;-72.643;-1.825;-3.576;5.960
4754362.809;-1.341;-31.888;82.590;-38.445;-64.783;-1.863;-3.465;6.184
4754362.817;-1.974;-30.957;83.260;-37.774;-68.806;-2.943;-3.651;6.929
4754362.825;-8.345;-36.582;71.935;-42.245;-88.103;-8.196;-9.723;3.166
4754362.833;-2.235;-30.175;81.360;-35.837;-80.131;-2.906;-5.886;7.525
4754362.841;-4.061;-31.628;79.125;-38.669;-83.931;-6.929;-11.139;4.023
4754362.849;-10.617;-34.980;71.637;-41.239;-92.573;-10.692;-15.162;1.192
4754362.857;-2.906;-28.498;85.421;-34.720;-81.733;-6.855;-11.958;5.215
4754362.865;-2.943;-27.828;79.647;-34.794;-85.495;-6.668;-14.603;3.502
4754362.873;2.794;-20.713;85.309;-28.424;-80.466;-1.118;-9.127;8.121
4754362.881;6.519;-18.664;92.611;-28.759;-75.623;1.155;-6.370;8.903
4754362.889;4.061;-17.956;85.384;-26.822;-93.579;-2.161;-9.425;5.513
4754362.897;11.101;-10.654;91.456;-18.738;-93.132;-2.719;-8.829;6.333
4754362.905;15.162;-8.084;96.411;-17.993;-85.309;-5.029;-11.064;4.992
4754362.913;14.715;-7.451;95.889;-17.919;-85.346;-4.172;-9.052;7.115
4754362.911;11.958;-7.711;91.754;-18.589;-85.384;-1.900;-6.519;7.264
4754362.919;16.429;-0.857;96.485;-10.654;-83.074;0.559;-3.912;7.451
4754362.927;17.434;-0.261;97.714;-9.537;-91.642;-0.112;-3.092;6.258
4754362.935;16.652;-0.447;93.989;-9.835;-94.660;-0.149;-2.198;6.370
4754362.943;18.179;-0.261;98.869;-10.580;-84.750;0.373;-2.608;6.221
4754362.951;19.781;-0.633;105.910;-11.027;-83.297;1.676;-2.831;7.525
4754362.959;13.411;-3.688;93.952;-14.640;-107.773;-0.037;-5.737;5.029
4754362.967;13.076;-2.943;91.642;-12.591;-101.365;-3.465;-9.872;1.900
4754362.975;20.899;4.023;103.712;-6.370;-98.310;-5.811;-10.021;0.186
4754362.983;19.483;5.327;97.007;-6.407;-104.830;-4.731;-7.674;0.857
4754362.991;21.607;6.035;101.402;-4.843;-97.565;-3.427;-6.892;1.155
4754362.999;21.569;7.525;102.669;-3.055;-96.634;-1.416;-5.923;2.943
4754363.007;20.377;8.158;101.402;-3.316;-101.961;-0.782;-4.172;2.906
4754363.015;24.103;13.262;102.855;1.378;-104.234;1.751;-0.559;6.370
4754363.023;24.810;14.678;104.830;0.484;-105.426;2.570;-0.335;7.674
4754363.031;26.710;16.168;103.824;1.937;-106.208;0.261;-3.055;7.115
4754363.039;29.318;19.707;106.618;6.370;-105.873;-1.304;-4.098;6.892
4754363.047;28.200;19.707;104.159;8.680;-115.633;-1.900;-2.570;4.545
4754363.055;29.691;22.426;106.245;11.772;-120.327;-4.135;-1.788;3.092
4754363.063;33.937;26.785;114.851;14.417;-118.874;-4.619;-0.969;3.465
4754363.071;35.204;28.089;114.962;14.827;-127.442;-4.023;-2.086;4.210
4754363.079;36.955;31.181;116.415;16.503;-133.626;-4.619;-2.645;3.912
4754363.087;41.388;34.124;123.419;18.552;-131.316;-4.359;-0.373;5.141
4754363.095;45.374;38.072;129.789;21.048;-133.105;-5.625;-0.745;4.508
4754363.179;44.666;40.196;125.840;21.569;-136.420;-6.743;-1.565;3.763
4754363.187;44.256;39.674;126.846;21.346;-141.785;-2.347;-0.931;5.737
4754363.195;42.655;40.010;126.362;21.420;-146.478;3.800;1.155;8.866
4754363.203;41.649;39.302;125.393;20.899;-149.794;10.282;5.737;12.070
4754363.211;40.866;37.551;126.995;18.850;-154.786;10.468;6.407;13.672
4754363.219;34.124;33.751;117.235;14.156;-172.444;9.649;7.637;15.944
4754363.227;31.330;31.143;116.043;13.560;-172.444;6.482;5.737;13.970
4754363.235;32.522;31.143;119.321;11.660;-163.727;1.937;1.825;10.133
4754363.243;34.235;33.490;119.656;13.821;-165.552;1.006;1.155;9.798
4754363.251;35.502;34.422;120.811;15.609;-167.638;0.484;-0.224;10.692
4754363.259;34.533;31.739;122.674;14.119;-167.489;1.043;-1.341;10.096
4754363.267;34.235;31.516;121.109;12.890;-163.428;3.874;0.447;12.740
4754363.275;34.347;33.267;122.562;13.970;-165.552;9.313;4.210;15.944
4754363.283;32.559;32.820;120.290;13.299;-166.446;9.947;2.980;16.540
4754363.291;35.353;33.975;128.560;14.901;-157.617;10.394;1.155;17.136
4754363.299;31.218;32.336;115.633;13.560;-184.588;13.150;2.831;19.670
4754363.307;33.118;34.422;117.756;15.572;-167.005;13.858;4.508;18.142
4754363.315;33.937;38.520;117.570;18.068;-164.770;17.211;11.548;19.148
4754363.323;35.688;42.319;120.923;22.613;-160.113;21.718;16.950;23.358
4754363.331;30.510;36.992;113.770;17.658;-168.867;21.420;14.268;23.097
4754363.339;25.518;29.281;111.945;8.903;-168.905;17.509;7.488;20.675
4754363.347;20.079;24.959;102.818;4.955;-175.200;15.609;5.662;18.105
4754363.355;13.262;18.552;95.554;-0.596;-178.367;17.025;9.164;20.377
4754363.363;16.391;30.175;94.250;19.185;-181.869;18.068;10.692;21.160
4754363.375;35.577;49.993;108.480;42.506;-175.685;19.111;12.442;22.352
4754363.383;39.898;58.897;98.683;56.401;-201.166;17.211;11.213;22.128
4754363.391;44.517;66.385;93.281;69.961;-205.114;19.558;11.660;23.805
4754363.399;51.744;73.649;98.906;81.062;-199.601;20.266;13.299;23.022
4754363.407;53.421;76.704;95.665;86.613;-209.063;18.217;13.411;21.197
4754363.415;46.566;72.233;83.894;82.999;-218.116;15.125;13.895;16.950
4754363.423;42.021;67.949;78.082;78.045;-227.205;15.609;16.652;15.087
4754363.431;40.978;66.422;79.162;76.517;-222.065;17.732;18.775;16.987
4754363.439;37.588;65.006;79.684;73.165;-218.004;17.695;16.652;17.695
4754363.447;37.961;64.969;81.621;72.271;-225.082;17.099;14.193;19.036
4754363.455;35.018;64.075;74.804;73.165;-246.428;16.764;13.001;20.452
4754363.463;32.410;63.218;72.196;70.147;-237.711;16.913;15.274;20.042
4754363.471;32.447;62.920;73.090;68.992;-226.088;17.546;14.640;19.446
4754363.479;33.006;65.230;76.294;69.365;-221.767;20.154;15.944;17.807
4754363.487;28.163;62.436;66.832;65.602;-241.436;25.108;18.477;18.515
4754363.495;27.791;62.957;63.479;65.379;-236.668;27.418;19.819;19.521
4754363.503;29.318;64.224;69.514;65.453;-228.062;27.679;21.681;19.930
4754363.511;29.951;64.857;70.781;63.404;-223.406;25.295;21.160;18.328
4754363.519;33.788;68.992;77.076;64.559;-218.600;23.320;24.214;17.770
4754363.527;33.192;70.855;72.084;65.342;-224.262;22.836;27.642;19.446
4754363.535;31.628;69.439;67.800;63.851;-231.341;21.346;27.753;17.993
4754363.543;33.192;71.861;71.526;65.751;-222.959;23.171;28.238;19.893
4754363.551;30.883;68.694;72.457;60.759;-222.735;20.452;21.048;18.738
4754363.559;29.393;68.098;75.474;59.046;-222.661;21.718;18.366;20.489
4754363.554;22.240;64.932;60.648;55.954;-228.696;24.550;19.670;22.650
4754363.562;25.630;68.173;65.081;58.860;-225.976;25.257;22.091;22.352
4754363.570;22.464;65.975;63.106;55.358;-229.403;25.406;22.314;22.128
4754363.578;20.377;60.797;61.914;51.484;-230.707;25.816;22.240;24.326
4754363.586;18.440;57.444;63.777;46.827;-221.469;28.796;26.338;29.542
4754363.594;15.348;54.315;54.985;44.480;-235.327;29.132;28.126;30.138
4754363.602;17.472;56.773;59.791;47.833;-230.148;27.642;26.748;28.126
4754363.610;17.807;57.369;62.026;47.348;-227.876;27.232;26.189;26.785
4754363.618;21.420;60.163;64.634;50.142;-228.062;30.547;28.424;28.051
4754363.626;20.675;60.238;66.459;49.211;-218.675;28.908;24.475;26.189
4754363.634;24.401;63.106;71.451;52.154;-218.749;27.753;22.687;25.555
4754363.642;32.894;72.122;79.684;61.020;-211.038;27.679;24.289;23.991
4754363.650;30.547;74.059;72.867;62.995;-219.233;26.040;22.948;21.942
4754363.658;29.355;71.041;75.661;58.301;-213.645;23.246;20.750;21.160
4754363.666;31.218;71.228;78.753;58.115;-212.677;20.042;18.775;19.930
4754363.674;30.287;71.116;73.314;58.338;-213.124;23.469;21.942;22.314
4754363.682;32.783;72.196;78.045;59.307;-203.773;24.699;24.438;20.489
4754363.690;33.937;74.506;79.572;62.399;-207.387;26.636;28.461;21.458
4754363.698;31.181;73.425;75.772;61.989;-208.952;24.624;26.003;18.962
4754363.706;34.831;77.225;80.317;64.671;-202.321;22.314;20.675;17.695
4754363.714;30.771;75.810;77.002;64.746;-204.742;19.036;16.727;17.695
4754363.722;28.685;73.947;76.443;62.250;-209.026;14.827;14.231;15.125
4754363.730;30.287;74.953;77.933;63.851;-202.097;15.236;15.758;15.199
4754363.738;31.330;76.443;78.641;65.602;-194.870;17.285;20.228;14.827
4754363.794;25.593;69.924;72.271;58.413;-206.567;20.042;23.395;16.466
4754363.802;31.255;77.412;77.151;70.930;-204.630;17.509;20.042;15.981
4754363.810;37.849;84.601;79.870;83.782;-206.381;15.311;17.285;15.572
4754363.818;33.751;84.080;69.626;86.203;-222.400;17.136;19.521;15.609
4754363.826;37.327;90.152;65.789;96.858;-225.790;19.632;22.091;16.764
4754363.834;36.322;91.046;59.456;101.402;-232.533;18.775;22.985;14.789
4754363.842;32.820;90.525;48.243;106.096;-243.485;20.899;25.630;17.919
4754363.850;32.373;91.940;48.131;109.226;-241.473;24.512;29.281;21.867
4754363.858;34.198;92.462;56.587;106.916;-231.117;22.389;25.779;19.930
4754363.866;29.467;89.593;44.405;107.661;-253.581;18.440;23.842;15.423
4754363.874;25.854;86.986;38.221;106.022;-246.912;21.458;26.450;16.466
4754363.882;22.985;83.782;37.923;102.744;-251.047;21.979;26.561;16.391
4754363.890;19.446;81.994;31.590;99.875;-252.686;18.515;23.060;13.076
4754363.898;25.630;87.805;42.208;104.271;-238.642;18.179;24.699;11.772
4754363.906;23.618;85.235;40.233;103.675;-242.516;17.509;24.363;12.554
4754363.914;16.429;79.088;31.441;96.522;-246.465;17.285;21.048;15.609
4754363.922;16.280;78.268;35.986;95.479;-235.587;20.824;18.850;20.191
4754363.930;14.678;76.070;30.696;93.505;-249.892;18.142;13.448;18.179
4754363.938;16.242;78.678;29.914;97.081;-250.190;17.025;16.131;18.403
4754363.946;14.342;77.635;27.120;95.814;-244.491;10.990;14.640;11.735
4754363.954;14.156;77.449;26.524;96.224;-244.230;9.276;17.583;6.296
4754363.962;18.477;79.609;35.614;96.224;-234.731;9.276;19.856;4.098
4754363.970;21.532;84.825;35.837;103.004;-232.942;12.629;22.277;7.413
4754363.978;22.352;87.060;36.992;105.426;-232.719;17.583;26.114;13.225
4754364.004;20.564;83.931;35.278;100.955;-225.604;16.466;23.693;13.039
4754364.012;18.738;82.031;36.843;100.099;-219.233;17.397;21.756;13.784
4754364.020;15.497;78.268;28.573;95.852;-234.246;18.664;21.607;15.721
4754364.028;16.987;79.945;29.504;96.858;-230.111;18.515;21.122;17.323
4754364.036;19.036;83.037;32.969;100.769;-226.125;22.091;24.997;18.552
4754364.044;18.477;80.802;36.582;98.646;-222.139;25.034;25.555;21.644
4754364.052;11.958;73.798;28.275;91.642;-232.980;23.730;22.985;20.489
4754364.060;10.096;72.569;23.320;91.270;-230.186;25.146;24.363;21.160
4754364.068;13.486;75.400;27.716;93.095;-232.570;24.848;26.599;21.346
4754364.076;13.821;75.698;28.759;90.562;-226.423;21.718;23.544;18.738
4754364.084;16.056;77.821;32.075;92.611;-224.374;23.134;24.214;19.632
4754364.092;16.466;79.460;29.318;92.983;-225.417;23.730;25.630;19.073
4754364.100;22.091;83.260;33.900;96.112;-222.325;22.538;24.810;18.068
4754364.108;22.165;84.341;35.688;96.783;-222.102;17.583;20.489;12.852
4754364.116;25.332;88.364;39.078;99.763;-222.288;18.179;21.197;13.895
4754364.124;25.891;88.960;40.904;99.391;-219.084;19.595;20.415;16.131
4754364.132;24.550;89.891;39.153;100.322;-222.921;20.601;19.558;18.589
4754364.140;25.555;90.003;42.953;98.646;-216.477;18.813;18.850;16.876
4754364.148;22.426;86.911;36.396;95.740;-225.008;17.881;19.446;14.976
4754364.156;23.507;88.513;38.221;96.150;-221.580;20.638;24.252;16.131
4754364.164;24.363;89.854;41.910;97.789;-218.190;16.801;23.507;14.715
4754364.172;26.152;91.344;48.280;98.348;-213.496;15.013;22.016;14.305
4754364.180;16.689;86.129;32.149;93.319;-231.974;17.881;23.283;16.540
4754364.188;18.179;85.868;38.035;90.823;-225.902;21.234;24.848;19.148
4754364.155;19.409;86.501;40.382;91.083;-224.113;23.097;27.455;20.489
4754364.163;11.884;80.615;30.585;86.650;-231.899;22.426;26.859;20.005
4754364.171;10.766;78.231;31.590;82.813;-229.105;21.234;22.613;19.111
4754364.179;15.125;80.131;40.196;83.968;-221.618;18.664;17.695;17.360
4754364.187;17.919;83.372;46.082;84.527;-205.636;16.205;16.429;16.354
4754364.195;17.360;84.043;41.611;85.607;-217.967;16.689;19.819;14.268
4754364.203;15.125;81.286;36.247;83.670;-220.239;17.360;23.395;14.901
4754364.211;17.509;84.043;40.010;85.123;-213.459;18.738;24.177;17.360
4754364.219;19.521;86.166;42.543;86.911;-214.167;20.824;24.028;19.111
4754364.227;19.930;85.197;44.443;86.464;-208.132;16.540;19.222;16.652
4754364.235;17.099;85.756;40.084;87.321;-212.751;12.331;15.534;11.511
4754364.243;19.334;86.501;44.703;86.650;-203.997;15.274;16.205;15.646
4754364.251;20.713;88.252;42.170;87.582;-210.479;20.042;21.458;20.862
4754364.259;22.575;90.711;44.890;90.599;-210.553;24.922;27.977;22.314
4754364.267;21.309;89.891;44.368;89.556;-209.399;28.424;30.845;25.593
4754364.275;26.599;95.256;51.036;93.058;-202.581;31.665;35.167;26.897
4754364.283;31.479;100.546;58.226;100.546;-191.070;32.783;37.998;27.344
4754364.291;25.891;96.560;52.713;96.411;-197.887;30.324;34.943;26.859
4754364.299;16.801;85.570;41.164;83.745;-212.714;27.306;32.000;25.108
4754364.307;9.947;77.412;32.820;76.927;-215.396;20.377;24.587;19.670
4754364.315;9.649;74.618;34.757;72.755;-213.310;15.497;19.670;16.317
4754364.323;12.591;76.965;39.786;74.469;-203.922;17.062;21.197;17.621
4754364.331;17.844;84.192;45.076;80.802;-196.248;18.775;23.432;17.844
4754364.339;20.154;87.693;46.529;85.123;-198.707;17.695;21.979;15.497
4754364.305;18.030;86.837;43.921;85.905;-207.052;18.105;23.730;15.125
4754364.313;17.993;85.421;47.833;81.621;-196.397;19.260;24.103;15.423
4754364.321;20.601;88.029;49.025;84.862;-187.978;20.489;24.363;17.546
4754364.329;24.922;91.530;53.532;87.805;-181.682;21.905;25.928;19.483
4754364.337;24.848;91.866;52.899;89.221;-188.984;22.016;26.375;21.383
4754364.345;17.583;85.644;43.660;82.888;-199.266;20.787;22.613;21.197
4754364.353;16.913;83.186;45.151;78.529;-192.337;20.452;19.446;21.942
4754364.361;16.168;82.068;46.305;78.604;-195.689;18.328;20.228;20.489
4754364.369;17.658;83.670;49.323;79.162;-187.531;15.534;19.558;17.099
4754364.377;21.532;87.284;53.942;82.143;-181.310;18.664;20.713;19.744
4754364.385;16.056;82.180;45.598;78.194;-192.560;17.583;18.440;19.185
4754364.393;20.824;87.172;52.601;83.148;-183.247;20.303;20.862;20.899
4754364.401;23.320;90.413;55.209;85.272;-177.063;22.277;22.873;22.128
4754364.409;21.346;89.332;51.893;82.739;-178.851;20.191;22.128;18.962
4754364.417;22.724;90.450;53.979;81.509;-177.287;17.174;19.334;17.770
4754364.425;22.650;90.338;54.538;80.615;-168.420;11.586;13.337;14.454
4754364.433;23.805;91.083;55.730;80.056;-168.756;13.262;14.752;15.907
4754364.441;25.220;90.860;61.356;79.460;-161.193;18.701;18.477;19.893
4754364.449;20.713;87.209;49.397;75.288;-172.220;17.472;18.217;19.148
4754364.457;21.979;86.389;53.458;70.855;-166.520;14.380;17.136;17.770
4754364.465;22.240;85.086;56.885;68.285;-162.125;11.288;14.603;14.380
4754364.473;27.157;91.940;63.516;74.767;-154.898;15.087;18.738;15.870
4754364.481;26.375;94.138;57.444;78.194;-156.946;17.583;22.464;16.727
4754364.489;26.897;92.797;58.524;74.618;-157.207;17.472;21.383;16.764
4754364.498;26.152;91.530;55.805;73.649;-156.872;18.813;20.675;17.993
4754364.506;20.303;87.507;48.652;69.030;-158.511;18.515;19.670;16.838
4754364.514;17.919;85.272;49.137;67.540;-155.382;17.919;20.228;14.715
4754364.522;14.566;80.317;48.205;62.250;-154.153;25.220;27.679;19.558
4754364.530;24.475;87.768;58.413;66.943;-138.953;23.358;25.257;19.707
4754364.538;35.875;97.267;69.924;72.047;-124.462;21.420;19.893;20.936
4754364.546;41.686;98.869;81.770;68.024;-115.149;18.142;13.523;19.260
4754364.554;38.557;94.958;76.182;62.436;-127.442;12.182;7.004;14.305
4754364.562;37.961;91.381;79.200;58.115;-113.398;9.872;6.258;13.337
4754364.570;31.032;86.017;70.557;52.936;-123.307;9.201;7.600;14.156
4754364.578;22.836;78.939;65.491;45.300;-127.032;10.990;7.935;15.870
4754364.586;20.489;75.176;64.075;42.357;-128.858;13.486;9.499;16.578
4754364.594;24.587;79.460;67.167;46.119;-130.832;16.876;12.778;18.068
4754364.602;24.140;80.392;62.622;47.162;-132.620;21.160;14.454;19.297
4754364.610;28.461;83.111;67.279;48.913;-123.940;23.395;13.858;19.260
4754364.618;32.075;85.346;76.480;52.191;-110.269;25.108;14.864;20.824
4754364.626;29.504;83.148;72.196;51.893;-118.092;23.805;12.256;20.154
4754364.634;23.358;79.386;62.808;48.950;-122.413;20.750;8.270;17.509
4754364.642;21.905;78.380;61.058;48.876;-121.519;20.936;9.723;17.323
4754364.650;23.432;79.982;63.032;52.638;-124.089;24.252;14.603;19.707
4754364.658;23.693;80.802;66.012;54.501;-119.582;28.312;21.830;21.867
4754364.666;18.105;76.182;57.630;50.403;-126.511;23.842;20.713;18.589
4754364.674;19.334;74.320;64.671;45.709;-121.295;20.638;18.887;17.956
4754364.682;23.358;76.592;69.924;47.944;-116.713;18.813;17.583;18.626
4754364.635;21.197;78.939;57.593;52.229;-132.397;18.366;17.434;18.068
4754364.643;29.206;85.868;69.290;59.046;-110.678;20.862;18.142;17.285
4754364.651;32.075;87.917;74.990;60.014;-105.090;20.675;16.913;15.087
4754364.659;29.542;86.129;73.090;57.817;-109.524;21.346;18.142;14.342
4754364.667;23.954;83.223;65.602;55.507;-110.678;19.260;17.360;13.933
4754364.675;17.919;78.008;60.499;49.546;-116.304;13.970;12.890;10.580
4754364.683;20.377;78.455;65.789;49.546;-113.733;15.572;14.678;15.087
4754364.691;16.429;73.835;57.556;44.666;-121.184;11.064;9.276;10.990
4754364.699;19.893;77.114;60.722;48.168;-116.080;14.566;10.729;12.852
4754364.707;23.358;81.435;66.124;51.334;-110.120;17.434;13.001;12.666
4754364.715;21.495;81.025;60.387;51.446;-118.800;17.583;13.076;11.250
4754364.723;23.916;83.521;61.654;52.452;-114.925;17.956;13.411;14.007
4754364.731;24.922;83.260;65.193;52.117;-110.343;14.752;10.543;13.225
4754364.739;20.638;78.380;65.155;45.672;-110.753;11.995;9.760;12.405
4754364.747;16.876;76.368;56.848;43.437;-113.808;8.568;7.600;9.350
4754364.755;17.844;77.486;58.189;44.443;-104.494;5.737;5.215;6.296
4754364.763;12.331;72.233;53.905;38.780;-110.306;4.321;3.837;4.545
4754364.771;6.855;67.651;45.225;35.912;-125.170;2.831;2.123;2.645
4754364.779;8.941;69.663;54.091;37.849;-108.778;6.109;5.104;3.986
4754364.787;4.210;65.193;44.964;33.639;-114.739;8.531;7.972;7.674
4754364.795;6.296;68.806;47.088;38.929;-104.159;11.586;12.442;10.803
4754364.803;7.004;68.173;48.243;38.184;-114.478;9.686;11.027;9.537
4754364.811;3.241;66.049;37.067;36.694;-115.708;5.066;6.668;4.359
4754364.819;6.519;69.663;43.847;39.600;-100.322;3.725;7.078;2.682
4754364.891;6.892;69.812;47.684;39.898;-95.405;5.923;8.531;3.166
4754364.899;7.004;70.520;43.809;40.829;-112.168;4.433;6.445;1.080
4754364.907;10.505;72.420;52.080;42.357;-99.391;1.527;2.757;-1.229
4754364.915;5.998;67.391;44.741;37.141;-101.738;-0.484;1.080;-1.788
4754364.923;5.029;67.800;39.563;37.551;-112.578;-3.017;-0.261;-3.390
4754364.931;6.631;69.998;39.451;39.749;-101.663;-2.012;0.261;-1.527
4754364.939;8.717;71.265;41.276;41.015;-99.987;-4.172;-2.459;-4.098
4754364.947;12.256;73.239;48.280;41.947;-94.883;-3.912;-5.215;-1.490
4754364.955;9.313;72.345;40.680;42.990;-102.930;-5.364;-7.786;-0.708
4754364.963;3.353;66.385;30.845;39.153;-104.830;-7.823;-9.313;-2.533
4754364.971;3.688;65.155;34.310;36.918;-99.577;-8.978;-11.809;-5.402
4754364.979;3.316;64.746;29.355;36.433;-101.589;-8.829;-9.313;-6.817
4754364.987;3.278;64.746;27.716;38.408;-96.671;-8.531;-7.674;-5.886
4754364.995;4.023;64.969;30.994;37.327;-93.840;-7.823;-5.215;-6.631
4754365.003;5.215;64.932;32.932;35.651;-86.874;-8.196;-6.557;-9.090
4754365.011;4.880;62.436;29.579;33.043;-86.650;-8.270;-7.451;-8.047
4754365.019;7.339;63.777;30.585;35.577;-85.123;-9.686;-8.866;-8.754
4754365.027;5.141;62.175;26.897;36.992;-80.094;-11.660;-12.182;-9.723
4754365.035;0.782;58.338;17.025;33.416;-93.579;-8.196;-10.654;-5.700
4754365.043;5.998;60.201;28.312;35.688;-73.537;-2.384;-4.135;-0.633
4754365.051;3.316;56.662;25.891;32.932;-67.875;-0.149;-2.794;2.645
4754365.059;-4.396;51.223;12.033;27.567;-76.108;-4.210;-6.892;-2.868
4754365.067;2.384;58.226;20.191;33.937;-67.018;-1.676;-4.359;-3.316
4754365.075;2.831;57.779;18.477;34.533;-78.082;-1.565;-5.215;-3.129
4754365.071;1.304;56.066;14.529;33.751;-62.920;-4.992;-7.525;-5.178
4754365.079;6.221;58.860;23.954;38.855;-42.021;-6.147;-5.886;-4.247
4754365.087;6.557;61.095;17.136;42.990;-61.058;-9.425;-5.886;-7.078
4754365.095;9.350;61.207;19.707;42.692;-52.229;-10.543;-7.935;-8.456
4754365.103;7.972;58.897;16.391;39.749;-48.019;-9.052;-8.605;-8.717
4754365.111;5.737;57.630;9.462;41.164;-55.060;-5.849;-4.545;-6.407
4754365.119;10.729;59.865;20.601;42.133;-47.348;-1.900;-2.496;-1.229
4754365.127;3.465;54.277;6.184;37.998;-43.958;-3.502;-5.774;-0.224
4754365.135;0.931;48.839;9.350;32.261;-29.393;-9.127;-12.890;-3.725
4754365.143;-0.857;47.311;1.714;31.069;-47.646;-11.437;-15.870;-5.253
4754365.151;1.118;50.366;5.029;32.857;-37.514;-7.786;-10.431;-4.582
4754365.159;6.221;56.140;8.345;38.780;-29.355;-1.527;0.000;-1.229
4754365.167;7.786;57.220;7.488;40.308;-32.410;1.080;4.508;-1.080
4754365.175;4.098;52.825;4.508;36.135;-26.599;1.974;7.115;-0.559
4754365.183;-3.278;44.033;-0.186;29.355;-25.034;-1.602;0.149;-1.006
4754365.191;-10.468;34.571;-5.588;20.452;-39.265;-8.605;-9.127;-6.035
4754365.199;-17.509;29.281;-17.807;15.199;-48.093;-12.666;-14.491;-8.233
4754365.207;-18.291;29.691;-24.214;20.042;-50.440;-13.225;-15.981;-7.749
4754365.215;-10.543;33.341;-15.162;23.358;-39.339;-11.288;-13.076;-6.855
4754365.223;-6.445;35.129;-11.027;25.779;-31.851;-9.611;-11.511;-6.855
4754365.231;2.123;41.872;2.794;32.149;-22.128;-5.066;-7.637;-3.688
4754365.239;1.192;42.021;-5.290;33.230;-25.965;-1.900;-6.519;-2.757
4754365.247;-4.470;38.370;-16.801;31.739;-44.443;-0.671;-6.482;-3.800
4754365.255;-4.172;38.967;-15.758;31.926;-31.665;-2.682;-6.258;-7.898
4754365.266;2.310;43.884;-6.035;34.273;-20.750;-2.943;-6.557;-7.115
4754365.274;3.427;46.678;-4.992;37.886;-10.841;-1.341;-4.694;-4.359
4754365.282;8.531;50.105;-0.969;40.978;-12.480;2.533;-2.161;0.559
4754365.290;6.072;47.162;-6.147;37.029;-22.911;0.596;-4.657;-1.937
4754365.298;-0.559;42.319;-14.789;32.820;-19.819;2.310;-3.166;0.522
4754365.306;0.000;40.382;-9.239;31.330;-16.689;2.198;-3.204;-0.708
4754365.314;-1.378;40.568;-11.101;32.224;-22.873;2.980;-1.825;-0.186
4754365.322;-2.049;39.116;-12.703;29.318;-19.819;4.917;-0.633;3.800
4754365.330;-3.166;35.204;-12.815;24.736;-20.936;2.459;-5.811;2.496
4754365.338;-0.745;36.061;-10.952;27.195;-22.799;5.253;-5.737;5.998
4754365.346;-3.241;35.353;-13.635;26.561;-17.658;4.768;-7.004;4.508
4754365.354;-0.596;38.147;-7.935;28.983;1.267;5.923;-5.402;4.470
4754365.362;1.974;38.967;-5.849;28.834;-3.241;7.041;-1.378;5.774
4754365.370;-0.969;37.998;-12.703;26.152;-17.434;5.290;-1.304;4.619
4754365.378;2.049;42.245;-4.694;29.020;2.906;4.992;0.186;5.290
4754365.386;-1.378;40.084;-14.007;26.152;-11.586;2.384;-2.459;1.676
4754365.394;1.378;40.904;-11.101;25.369;-13.001;7.115;-0.261;4.582
4754365.402;2.235;41.984;-8.680;28.089;-0.857;8.456;0.894;7.339
4754365.410;0.820;38.482;-4.359;22.873;-0.671;3.353;-2.757;3.316
4754365.418;-1.937;35.986;-10.617;20.377;-7.749;4.098;0.596;5.513
4754365.426;-4.880;35.651;-17.695;20.638;-7.860;1.751;0.820;4.508
4754365.434;2.570;42.915;-5.811;27.046;4.731;8.382;7.041;7.674
4754365.442;5.402;44.592;-4.694;28.349;-0.633;14.566;11.399;10.990
4754365.450;3.800;41.798;-2.980;25.593;-2.347;13.374;10.468;8.792
4754365.413;6.557;42.431;-2.235;26.487;-5.215;12.927;9.499;8.270
4754365.421;8.643;43.139;0.000;25.928;1.937;9.909;5.998;4.806
4754365.429;6.370;42.282;-2.310;25.369;8.717;6.929;1.490;3.688
4754365.437;16.354;48.988;12.070;31.851;19.446;4.321;-0.335;3.874
4754365.445;15.274;47.460;10.394;31.441;7.413;2.570;-1.229;3.688
4754365.453;11.884;45.225;3.986;28.685;-0.447;5.662;1.118;6.407
4754365.461;12.070;43.921;4.917;26.859;6.258;6.966;1.602;6.333
4754365.469;10.766;43.809;5.774;27.455;8.047;7.749;4.284;6.407
4754365.477;10.096;42.766;6.370;26.636;16.205;6.557;4.284;6.184
4754365.485;9.499;43.921;6.668;28.238;11.921;5.141;4.061;5.290
4754365.493;8.456;44.703;5.551;29.467;4.545;4.731;5.476;3.129
4754365.501;5.588;42.021;-1.229;23.954;-5.253;0.522;2.235;1.192
4754365.509;8.307;44.741;7.488;25.220;7.041;0.782;5.364;1.416
4754365.517;9.127;46.082;7.190;26.748;11.288;2.868;7.078;1.341
4754365.525;11.362;46.641;8.866;27.306;4.619;4.917;5.439;3.353
4754365.533;11.027;45.262;9.798;25.667;12.666;3.874;2.943;4.135
4754365.541;11.548;46.305;8.903;27.530;9.947;5.104;3.427;6.147
4754365.549;15.385;49.286;17.174;29.355;16.056;10.692;8.494;9.388
4754365.557;14.231;49.248;11.139;28.946;6.892;12.927;11.884;7.674
4754365.565;15.832;53.458;10.245;33.230;11.474;12.740;14.678;4.508
4754365.573;17.546;54.166;15.274;33.528;18.515;13.486;14.231;7.488
4754365.581;16.168;50.366;18.254;30.734;20.266;11.586;9.798;8.084
4754365.589;13.076;47.870;16.689;27.008;15.497;12.144;10.841;9.127
4754365.597;16.317;49.509;23.954;26.897;16.205;14.454;13.448;11.474
4754365.535;4.098;40.270;3.465;18.552;0.782;11.250;9.686;9.015
4754365.543;2.682;38.631;1.527;19.670;1.714;12.256;9.798;9.276
4754365.551;9.760;42.059;13.225;22.613;13.374;14.305;11.921;12.778
4754365.559;6.445;37.253;9.909;17.807;7.711;12.256;11.623;12.480
4754365.567;4.657;34.384;12.405;15.795;8.754;10.468;8.829;12.703
4754365.575;3.874;36.061;8.643;17.658;1.751;10.692;8.754;14.044
4754365.583;6.035;39.339;10.617;19.558;10.245;9.276;9.835;11.399
4754365.591;8.866;38.221;22.985;18.105;27.120;6.445;8.047;5.849
4754365.599;4.284;34.049;13.299;15.795;3.427;5.774;5.886;2.980
4754365.607;1.304;30.585;7.898;12.703;-6.370;2.682;0.596;0.522
4754365.615;3.390;32.820;14.156;12.182;13.635;3.986;1.155;5.066
4754365.623;2.235;31.665;16.168;11.586;6.221;7.190;5.774;10.431
4754365.631;6.184;36.396;17.546;17.844;7.153;8.829;8.494;12.256
4754365.639;5.998;37.700;17.174;19.483;12.219;6.333;7.786;7.711
4754365.647;11.176;41.910;29.132;23.171;26.301;6.631;10.617;5.364
4754365.655;2.943;35.949;16.019;18.477;2.235;5.253;9.164;2.868
4754365.663;2.235;33.900;14.529;15.870;3.166;6.966;11.437;5.588
4754365.671;1.490;31.292;17.323;12.890;1.453;4.321;7.711;3.129
4754365.679;1.602;32.000;15.423;14.119;-2.459;3.316;6.706;3.465
4754365.687;2.533;32.857;15.646;14.976;-5.923;4.470;7.190;5.476
4754365.695;5.923;36.135;21.681;17.248;7.115;6.631;7.190;7.823
4754365.703;13.746;42.990;32.336;23.171;19.111;11.176;10.133;9.723
4754365.711;7.339;38.259;19.073;19.483;-0.186;11.101;10.356;9.164
4754365.719;5.178;34.794;25.257;15.534;11.288;10.878;11.213;8.792
4754365.745;-1.937;26.375;17.695;6.631;-11.809;6.668;9.425;4.917
4754365.753;-2.310;25.742;14.342;6.557;-9.649;2.347;6.706;2.049
4754365.761;7.078;35.018;25.295;14.752;1.937;8.084;11.995;9.313
4754365.769;12.256;40.606;32.075;20.415;5.513;11.958;13.672;12.480
4754365.777;11.362;40.680;31.628;21.383;4.210;8.978;12.107;7.004
4754365.785;11.511;40.904;31.888;23.134;3.166;9.276;14.938;6.221
4754365.793;16.354;45.225;38.184;25.518;10.394;11.884;17.211;8.121
4754365.801;13.113;42.319;35.316;21.420;8.233;11.250;15.944;7.302
4754365.809;13.039;40.904;41.053;19.707;9.649;8.270;13.709;4.694
4754365.817;9.052;37.290;35.912;15.609;-4.843;7.860;12.554;4.023
4754365.825;7.488;34.831;28.051;13.560;-9.201;10.170;13.784;6.817
4754365.833;8.009;34.049;28.685;13.150;-5.737;12.964;14.268;9.611
4754365.841;7.562;32.745;34.496;12.293;7.749;14.231;13.262;11.139
4754365.849;10.021;35.502;32.485;16.131;0.484;14.268;12.219;11.884
4754365.857;16.131;42.766;38.110;23.805;-0.298;17.583;16.764;15.646
4754365.865;15.758;42.133;41.090;20.936;4.396;16.391;17.583;15.572
4754365.873;16.131;41.425;45.896;19.595;4.433;14.454;17.546;12.256
4754365.881;13.150;38.892;37.923;18.403;-5.849;13.001;17.323;9.686
4754365.889;8.903;33.751;31.143;13.635;-10.058;9.201;13.560;8.382
4754365.897;6.557;32.783;29.504;13.299;-11.846;8.233;11.250;9.313
4754365.905;4.582;29.802;28.312;9.723;-9.798;5.811;8.605;8.866
4754365.913;8.196;31.032;36.247;9.872;-4.359;3.800;7.823;8.978
4754365.921;15.013;36.582;40.755;15.534;-5.886;4.880;7.935;9.760
4754365.929;14.305;36.471;35.204;15.013;-2.012;6.035;6.892;8.643
4754365.970;16.280;38.520;38.482;15.907;-5.849;8.978;10.803;9.611
4754365.978;16.429;37.886;43.735;15.981;4.917;10.990;12.591;10.990
4754365.986;6.519;27.828;31.777;6.370;-16.987;9.201;9.090;8.941
4754365.994;2.943;22.054;30.547;0.335;-19.781;8.792;8.754;7.637
4754366.002;0.186;18.477;28.051;-1.155;-30.100;11.809;11.511;10.394
4754366.010;-3.278;16.466;22.165;-4.694;-32.485;10.207;12.964;8.792
4754366.018;4.731;23.246;35.055;0.633;-18.738;9.649;15.385;8.084
4754366.026;9.425;28.498;37.216;7.823;-15.162;9.127;15.683;8.680
4754366.034;14.193;32.857;41.276;12.517;-10.021;9.909;16.987;9.798
4754366.042;18.030;37.551;42.357;17.323;-18.217;11.846;18.924;10.617
4754366.050;18.626;38.892;45.560;16.801;-14.007;12.666;19.819;11.846
4754366.058;9.947;29.616;39.861;6.519;-21.197;0.782;6.184;4.917
4754366.066;0.075;18.775;27.753;-5.402;-47.982;-8.419;-6.631;-2.868
4754366.074;-0.522;18.291;22.165;-3.874;-54.464;-3.539;-2.868;0.224
4754366.082;7.525;24.736;35.726;1.453;-38.631;-0.298;1.639;3.539
4754366.090;10.543;26.673;40.568;1.080;-32.894;-0.894;3.390;5.662
4754366.098;5.923;21.756;36.210;-2.123;-40.606;-2.198;5.215;5.327
4754366.106;17.658;38.408;40.084;18.366;-34.198;-0.335;7.860;3.316
4754366.114;25.928;48.019;43.996;30.324;-38.743;3.949;13.188;3.688
4754366.122;23.507;47.386;35.018;36.135;-52.825;4.061;13.709;3.614
4754366.130;31.106;54.128;43.586;44.107;-42.208;7.488;17.360;5.662
4754366.138;29.281;52.005;37.812;42.617;-53.272;8.307;18.105;4.508
4754366.146;23.544;45.635;34.124;34.310;-53.123;7.898;18.403;4.880
4754366.154;14.454;37.551;21.607;25.034;-62.063;8.419;21.048;4.694
4754366.195;13.523;35.688;23.656;21.420;-50.999;9.723;18.217;8.121
4754366.203;11.437;32.634;25.071;18.142;-50.776;10.096;13.858;10.580
4754366.211;0.931;25.257;6.370;12.554;-66.869;5.700;10.692;6.184
4754366.219;2.533;25.667;13.486;12.144;-59.232;3.837;8.829;5.178
4754366.227;5.215;28.238;17.993;12.405;-54.426;2.831;8.196;4.470
4754366.235;1.937;25.705;16.578;7.600;-48.913;-1.043;1.527;2.570
4754366.243;0.857;25.555;15.721;7.860;-49.211;3.017;2.943;5.811
4754366.251;-0.596;24.550;11.474;6.147;-58.748;6.072;5.960;9.686
4754366.259;-1.341;25.220;8.568;6.296;-56.140;8.121;10.021;9.313
4754366.267;6.407;31.777;20.713;9.649;-42.692;13.672;19.893;11.027
4754366.275;12.368;38.669;25.220;14.380;-41.276;16.801;26.003;11.995
4754366.283;15.199;40.904;27.157;16.727;-40.531;13.337;22.873;10.431
4754366.291;16.913;42.766;31.218;16.652;-31.963;11.362;18.552;9.201
4754366.299;22.762;48.839;37.998;23.209;-24.848;13.299;19.148;12.703
4754366.307;23.767;49.137;33.714;20.787;-29.206;13.188;17.658;12.964
4754366.315;24.252;48.578;35.539;22.501;-27.306;10.766;16.764;11.548
4754366.323;18.217;41.313;31.628;14.901;-24.028;6.333;13.150;8.792
4754366.331;9.090;33.230;25.742;6.668;-39.563;8.009;15.087;9.760
4754366.339;16.503;48.093;20.042;27.940;-57.258;6.817;13.672;8.643
4754366.347;37.439;67.689;35.577;49.658;-40.345;9.984;14.380;11.511
4754366.355;52.303;87.060;45.933;79.013;-42.059;20.377;24.103;20.303
4754366.363;60.238;99.950;44.890;101.477;-49.546;21.420;27.828;19.968
4754366.371;66.832;107.214;39.637;115.149;-61.579;20.526;28.126;18.440
4754366.379;70.669;110.939;35.949;122.562;-74.096;22.352;33.006;19.483
4754366.419;71.004;113.733;32.671;129.044;-72.867;24.922;36.098;21.420
4754366.427;68.694;112.467;26.748;130.087;-86.427;24.512;34.384;22.389
4754366.435;58.897;104.830;12.815;129.081;-101.030;18.626;26.934;16.913
4754366.443;54.426;100.881;8.866;128.709;-97.305;16.615;26.897;14.454
4754366.451;50.925;96.858;9.760;125.132;-96.299;19.521;31.888;18.068
4754366.459;37.961;86.837;-10.505;115.670;-122.562;20.377;32.932;19.483
4754366.467;36.359;81.435;-5.476;107.288;-106.171;23.246;33.304;22.650
4754366.475;30.622;74.916;-8.456;101.253;-104.792;26.450;34.310;25.854
4754366.483;26.897;69.104;-8.456;97.081;-104.941;23.544;29.877;24.252
4754366.491;23.581;65.528;-10.766;93.877;-105.910;25.593;30.957;26.114
4754366.499;25.965;67.502;-8.531;93.915;-94.622;30.436;36.247;29.467
4754366.507;25.146;67.055;-8.047;92.089;-97.379;26.785;32.596;26.412
4754366.515;24.289;65.267;-8.754;89.332;-104.532;24.475;30.175;24.922
4754366.523;29.653;67.279;1.453;92.015;-84.788;28.238;33.714;28.387
4754366.531;27.232;66.124;-0.335;89.221;-92.648;25.667;34.980;25.630
4754366.539;27.716;64.224;2.980;85.197;-91.270;25.257;38.259;23.916
4754366.547;24.326;60.759;-2.123;79.684;-90.189;21.867;34.980;20.191
4754366.555;26.785;61.095;0.969;80.429;-84.937;24.661;36.843;23.283
4754366.563;34.012;66.645;10.394;87.246;-74.990;27.083;40.866;26.934
4754366.571;29.542;62.883;3.427;84.043;-79.311;26.748;39.227;27.604
4754366.579;30.436;60.871;10.133;80.839;-70.669;28.238;38.520;28.834
4754366.587;30.324;59.307;10.915;76.145;-68.694;24.326;32.149;26.599
4754366.595;27.493;56.848;7.600;74.394;-69.663;22.873;29.467;25.183
4754366.603;26.338;54.613;9.090;72.382;-70.669;24.028;30.845;25.257
4754366.556;17.881;50.329;0.559;68.732;-71.637;21.197;26.152;23.618
4754366.564;21.085;50.031;6.706;65.863;-68.769;21.346;23.916;23.618
4754366.572;22.016;49.733;6.594;62.957;-73.761;24.550;25.630;26.189
4754366.580;19.781;46.603;4.657;58.375;-66.385;24.661;25.630;25.928
4754366.588;16.652;41.425;2.161;52.676;-67.279;20.042;22.501;24.140
4754366.596;9.798;36.843;0.410;47.386;-65.863;17.472;21.048;22.538
4754366.604;13.746;40.308;5.998;49.882;-60.759;22.948;26.338;24.587
4754366.612;19.297;43.996;9.313;58.003;-58.115;25.183;30.883;26.934
4754366.620;16.019;43.847;-0.484;60.275;-70.781;20.266;27.604;25.667
4754366.628;27.157;49.248;16.168;61.654;-54.501;15.050;22.985;22.799
4754366.636;27.120;49.844;14.156;60.201;-55.432;9.537;19.297;18.440
4754366.644;28.796;52.117;15.274;62.063;-47.199;15.199;24.773;25.406
4754366.652;27.940;49.360;17.993;57.667;-48.652;13.597;23.581;22.724
4754366.660;27.865;49.211;24.065;56.624;-38.557;13.039;23.730;20.377
4754366.668;31.739;51.036;24.475;57.593;-39.153;13.337;22.054;22.352
4754366.676;27.791;46.566;18.030;52.713;-46.752;12.629;18.887;21.942
4754366.684;25.406;43.586;21.495;49.360;-44.592;13.597;18.217;22.389
4754366.692;20.675;39.749;14.901;45.337;-42.468;9.909;13.523;20.117
4754366.700;23.320;41.239;20.228;46.864;-33.192;6.780;12.293;16.764
4754366.708;33.192;49.286;33.267;53.681;-21.793;9.462;17.397;20.713
4754366.716;30.808;47.795;28.275;54.725;-28.126;8.345;16.950;20.936
4754366.724;28.685;45.113;26.412;51.297;-27.232;9.201;18.254;20.675
4754366.732;27.940;42.170;30.212;47.833;-24.252;11.660;17.397;21.011
4754366.740;27.381;41.611;28.796;47.684;-18.552;15.721;17.770;23.656
4754366.809;36.284;51.260;39.078;56.811;-15.870;21.495;23.544;30.100
4754366.817;37.178;52.154;34.608;56.513;-21.085;18.552;22.799;28.089
4754366.825;38.706;52.005;37.663;56.736;-20.713;18.328;23.954;27.455
4754366.833;41.127;51.148;45.076;55.172;-9.984;16.987;21.160;27.716
4754366.841;41.574;51.707;45.411;58.897;-10.841;15.348;18.589;27.269
4754366.849;36.582;48.429;37.588;57.966;-7.004;9.276;14.454;21.420
4754366.857;39.265;51.185;43.884;59.307;-0.708;9.462;16.354;20.005
4754366.865;40.755;50.217;46.901;59.120;-0.969;10.058;18.626;19.819
4754366.873;37.216;45.858;44.778;53.272;-6.147;8.009;15.572;18.440
4754366.881;33.230;39.786;43.809;46.343;-4.284;5.066;12.182;16.876
4754366.889;33.677;39.451;37.439;46.454;-18.589;8.792;15.609;19.670
4754366.897;40.233;44.517;46.603;50.962;-4.210;14.529;18.775;25.220
4754366.905;38.110;41.239;46.082;47.646;2.235;11.921;15.981;22.724
4754366.913;34.571;37.551;43.660;41.462;-5.290;6.817;11.548;18.291
4754366.921;28.163;34.086;36.806;38.892;-11.958;-1.788;5.066;10.356
4754366.929;33.453;37.625;39.749;46.678;-2.533;-0.112;7.823;10.207
4754366.937;44.256;50.180;50.925;57.742;7.898;10.319;15.907;18.701
4754366.945;40.680;47.572;47.460;58.189;5.886;13.821;17.285;19.558
4754366.953;37.104;42.543;44.554;55.172;-0.596;9.686;13.486;15.683
4754366.961;33.192;39.265;39.823;49.323;-2.459;5.476;8.643;13.746
4754366.969;38.035;41.723;47.907;50.142;4.321;2.719;7.451;12.480
4754366.977;38.818;41.202;53.607;49.286;14.827;0.522;5.998;11.735
4754366.985;38.147;42.133;47.274;46.864;3.465;3.539;10.245;12.890
4754366.993;41.798;47.125;48.131;56.885;-4.172;6.706;14.715;12.368
4754366.945;39.786;43.623;47.237;54.017;1.565;3.986;10.096;9.872
4754366.953;42.319;43.176;52.787;49.844;8.866;7.600;11.660;14.789
4754366.961;39.414;40.494;52.713;45.449;4.843;4.396;7.190;14.044
4754366.969;33.118;34.720;44.294;46.492;0.149;6.519;7.376;16.503
4754366.977;36.880;39.302;47.237;50.999;5.811;8.643;6.407;17.472
4754366.985;44.815;50.887;54.613;59.456;10.952;13.337;12.480;19.968
4754366.993;46.864;54.352;57.332;64.597;16.466;18.068;21.532;21.979
4754367.001;49.882;54.166;64.969;64.299;19.521;16.764;21.905;21.160
4754367.009;43.586;45.262;52.005;54.091;-9.090;9.462;14.640;15.534
4754367.017;38.296;39.861;46.901;48.652;-9.239;0.745;5.364;7.749
4754367.025;43.809;45.300;53.942;55.432;-2.831;4.694;8.382;12.256
4754367.033;45.598;47.386;54.128;56.922;-3.837;6.482;8.382;12.368
4754367.041;43.288;45.933;49.584;54.613;0.596;9.611;10.841;15.162
4754367.049;38.482;41.761;47.088;51.111;0.931;8.568;10.207;15.199
4754367.057;38.259;40.270;48.429;49.211;-1.043;6.296;6.594;11.660
4754367.065;42.208;42.170;54.054;53.197;-1.341;7.898;9.052;12.368
4754367.073;41.425;43.474;51.670;57.667;0.261;7.078;8.792;10.729
4754367.081;43.251;47.125;57.109;61.728;2.645;8.568;10.505;11.623
4754367.089;35.875;41.388;43.847;54.985;-10.207;8.531;10.245;10.096
4754367.097;45.225;48.801;52.862;60.685;2.235;8.307;10.170;11.027
4754367.105;48.317;52.787;59.977;61.430;7.674;12.629;12.890;15.795
4754367.113;50.664;54.054;63.144;62.883;6.892;16.838;14.752;18.515
4754367.121;46.305;47.721;48.764;58.785;1.863;15.385;13.560;16.838
4754367.129;45.002;44.741;54.799;53.532;12.815;16.056;13.635;17.360
4754367.095;44.703;46.343;56.326;54.576;10.058;11.325;8.978;11.846
4754367.103;42.208;45.225;52.005;55.470;3.055;12.070;10.952;11.548
4754367.111;39.972;43.772;45.113;53.234;1.639;16.168;15.311;16.466
4754367.119;36.582;39.004;43.362;45.933;6.333;13.113;13.709;14.715
4754367.127;36.359;39.488;41.574;45.300;8.903;10.617;11.921;13.262
4754367.135;41.164;43.623;50.887;50.738;16.205;9.611;11.027;12.368
4754367.143;44.554;49.733;51.819;54.389;10.692;7.562;8.605;12.219
4754367.151;48.429;51.893;60.610;54.799;25.965;5.774;6.147;12.256
4754367.159;43.251;49.509;51.260;50.813;20.042;5.737;3.129;14.082
4754367.167;49.584;55.023;54.389;56.401;22.464;13.746;10.505;20.824
4754367.175;55.023;58.264;60.350;57.705;30.510;18.142;16.615;21.011
4754367.183;53.532;55.209;55.991;57.183;24.028;15.646;15.534;18.291
4754367.191;51.856;52.489;56.997;53.868;29.132;10.207;10.841;14.529
4754367.199;52.303;53.234;60.275;53.681;28.759;8.196;8.196;14.119
4754367.207;52.676;54.315;56.289;53.048;29.169;15.721;15.348;19.819
4754367.215;48.801;49.658;53.234;47.274;28.573;16.354;15.721;20.042
4754367.223;46.901;44.256;55.544;39.004;28.387;15.646;15.497;21.569
4754367.231;49.397;46.864;56.177;42.766;24.103;20.899;22.203;25.146
4754367.239;45.635;47.609;47.572;47.982;20.452;22.724;23.656;25.332
4754367.247;45.560;44.554;50.515;44.778;20.079;20.415;21.830;21.905
4754367.255;49.025;47.609;54.650;48.131;28.908;24.550;25.630;24.959
4754367.263;50.627;50.403;54.948;52.862;28.238;27.902;27.344;26.040
4754367.271;55.730;52.154;58.264;52.899;33.639;25.146;22.985;25.295
4754367.279;55.917;50.738;58.189;49.137;34.720;20.526;18.068;22.091
4754367.260;52.676;47.237;52.489;45.486;26.785;18.142;15.721;20.750
4754367.268;54.352;45.486;59.158;46.156;36.098;17.807;13.448;20.824
4754367.276;57.556;46.901;63.293;46.752;37.625;20.638;15.199;24.065
4754367.284;50.180;45.262;49.248;46.082;33.192;16.689;11.884;20.117
4754367.292;48.503;41.574;52.638;40.121;38.818;16.615;11.362;20.601
4754367.300;45.635;36.880;44.964;34.980;26.040;20.675;15.385;21.309
4754367.308;49.546;40.792;53.123;41.649;35.390;22.911;15.944;23.469
4754367.316;47.646;40.084;50.813;44.741;35.726;21.495;12.666;23.693
4754367.324;46.231;39.972;46.603;45.262;25.183;20.899;11.213;22.165
4754367.332;41.388;35.539;42.021;40.047;29.355;17.025;8.084;17.136
4754367.340;41.649;33.639;44.741;34.794;29.504;17.099;10.319;16.838
4754367.348;55.507;46.231;58.077;46.715;36.173;28.051;20.675;27.455
4754367.356;51.968;44.815;51.148;48.317;33.528;27.828;19.483;26.897
4754367.364;53.383;43.474;57.034;45.709;46.380;24.401;18.179;22.836
4754367.372;53.681;47.088;52.154;48.168;37.625;28.573;25.928;26.599
4754367.380;59.903;50.813;60.461;51.856;43.139;32.149;29.951;28.946
4754367.388;59.605;51.297;56.513;53.905;28.759;28.908;25.555;26.263
4754367.396;61.318;54.762;54.725;60.089;38.818;26.338;22.501;25.071
4754367.404;60.499;49.956;54.054;55.134;41.164;26.040;20.377;25.667
4754367.412;58.077;48.578;48.578;51.111;29.579;23.358;17.732;24.252
4754367.420;56.066;46.492;48.429;50.962;27.083;22.911;17.621;24.885
4754367.428;51.819;41.686;45.411;46.454;35.651;19.260;12.927;21.942
4754367.436;57.742;45.784;57.034;48.988;53.272;25.705;16.615;26.561
4754367.444;54.017;42.096;45.858;45.002;23.469;26.785;17.658;25.257
4754367.486;52.266;41.984;40.159;46.231;29.728;32.336;22.985;30.473
4754367.494;51.148;41.164;42.617;46.603;32.969;35.428;23.730;33.006
4754367.502;50.180;41.611;42.431;43.400;35.986;35.167;23.320;31.665
4754367.510;54.650;42.915;53.123;42.059;46.194;33.900;23.842;29.877
4754367.518;48.876;37.365;44.592;38.892;35.912;30.249;23.469;28.126
4754367.526;42.580;32.485;35.763;33.565;33.341;28.200;23.283;26.710
4754367.534;40.419;28.312;35.204;29.691;30.398;28.871;20.862;28.312
4754367.542;33.453;22.165;26.040;26.301;19.372;25.779;18.254;25.257
4754367.550;31.292;19.409;24.959;22.948;17.770;22.687;16.913;23.134
4754367.558;39.488;24.959;37.774;28.834;33.043;26.301;20.973;25.891
4754367.566;38.743;26.710;32.894;29.579;19.521;26.189;21.346;25.555
4754367.574;35.390;25.667;28.014;30.994;24.103;24.624;18.105;24.512
4754367.582;36.471;26.152;31.143;31.181;31.367;24.736;17.062;23.246
4754367.590;36.471;27.642;30.324;30.436;24.736;26.152;17.993;24.363
4754367.598;36.173;27.232;28.238;30.957;17.062;26.450;19.297;25.444
4754367.606;40.457;30.957;39.116;34.757;42.096;24.885;19.632;23.395
4754367.614;35.278;28.089;25.593;31.963;25.220;24.438;19.073;23.358
4754367.622;36.694;29.132;23.395;34.869;21.756;25.183;17.583;24.028
4754367.630;44.294;35.018;30.659;42.394;32.708;29.020;21.644;27.157
4754367.638;50.776;39.376;41.388;46.603;42.766;31.851;24.661;29.653
4754367.646;46.641;34.235;40.755;39.786;41.053;27.753;20.601;27.008
4754367.654;40.792;31.516;31.479;40.196;33.304;27.232;20.452;25.705
4754367.662;42.617;34.347;32.634;43.958;35.539;25.742;20.899;25.369
4754367.670;43.809;32.783;34.124;38.408;32.037;19.446;14.901;21.756
4754367.679;45.188;35.167;34.086;42.431;47.050;16.838;11.548;18.701
4754367.687;49.956;41.798;39.786;50.180;49.360;18.366;13.411;19.372
4754367.695;45.933;36.769;34.422;43.400;41.164;15.907;9.313;16.764
4754367.703;43.176;34.235;29.244;41.723;36.880;15.460;8.456;17.434
4754367.711;45.337;35.837;35.129;43.437;34.235;14.603;8.456;18.179
4754367.719;38.445;29.616;24.661;34.533;41.276;9.239;3.092;13.150
4754367.727;38.967;31.255;24.624;37.849;43.772;14.268;6.333;15.609
4754367.735;46.194;36.880;36.284;42.096;57.667;22.277;14.491;22.762
4754367.743;39.339;28.946;25.816;36.582;50.031;20.973;15.050;19.558
4754367.751;36.135;25.854;24.289;34.198;52.676;19.930;16.987;16.503
4754367.759;38.221;28.461;24.699;38.743;54.352;21.048;19.372;17.099
4754367.767;40.643;31.814;24.661;39.451;54.650;23.767;20.452;20.713
4754367.775;42.170;33.714;27.269;42.915;60.461;22.091;17.546;19.521
4754367.783;39.041;30.994;19.856;39.041;52.713;16.615;11.474;13.262
4754367.791;40.494;32.671;24.475;37.104;63.032;18.924;13.299;15.572
4754367.799;43.586;35.278;30.361;40.941;69.253;20.787;15.646;19.409
4754367.807;41.053;33.118;27.828;40.047;63.367;19.632;13.746;19.781
4754367.815;37.439;29.840;18.105;35.353;52.229;19.111;13.001;19.521
4754367.823;43.996;36.173;29.393;40.345;66.087;21.793;17.434;19.968
4754367.831;46.454;39.302;28.908;42.133;57.071;22.948;18.813;19.372
4754367.839;46.194;37.663;23.730;40.717;55.805;25.779;19.483;21.420
4754367.847;44.592;36.210;27.604;36.955;62.622;27.530;20.899;21.905
4754367.855;39.004;29.765;23.395;29.802;59.456;23.805;18.217;18.328
4754367.863;39.153;28.536;23.246;32.075;62.212;19.744;15.534;14.752
4754367.921;42.431;32.187;29.914;34.049;63.740;24.401;18.366;17.621
4754367.929;35.055;27.716;11.101;28.051;42.543;21.420;14.640;13.635
4754367.937;37.849;30.920;19.446;31.330;58.599;18.291;14.640;11.437
4754367.945;40.755;31.888;23.320;33.192;57.369;24.065;19.707;17.360
4754367.953;39.041;30.808;21.085;35.092;59.456;26.971;24.028;19.297
4754367.961;36.135;27.977;21.271;31.143;52.601;28.387;28.610;18.813
4754367.969;31.069;21.867;15.497;24.624;52.378;24.475;22.203;15.423
4754367.977;33.863;23.879;23.097;25.928;58.115;22.091;17.136;14.119
4754367.985;31.106;24.810;12.964;26.189;48.280;23.283;16.987;15.497
4754367.993;32.708;26.189;12.219;26.748;43.176;24.363;19.856;17.248
4754368.001;36.322;27.120;18.366;26.897;51.297;24.103;21.346;15.572
4754368.009;40.866;29.802;22.762;28.275;55.581;25.108;20.936;14.491
4754368.017;40.345;31.255;24.438;29.355;60.014;23.954;18.142;11.884
4754368.025;37.849;31.106;20.824;29.318;55.507;23.879;16.689;11.288
4754368.033;38.296;30.734;18.477;28.349;60.014;23.991;17.174;13.486
4754368.041;38.147;30.063;23.022;27.977;63.442;25.630;19.595;17.025
4754368.049;31.590;26.077;12.442;24.140;40.382;21.905;16.578;12.070
4754368.057;28.946;22.426;8.978;21.085;43.474;20.079;12.778;10.394
4754368.065;30.883;24.252;10.319;21.830;41.611;21.197;13.374;8.941
4754368.073;34.533;28.983;14.752;27.567;53.681;25.146;16.280;12.927
4754368.081;37.588;30.957;21.607;26.897;56.513;28.908;20.675;16.131
4754368.089;37.514;31.404;15.981;29.206;56.773;28.014;22.128;15.348
4754368.097;38.855;30.585;22.165;26.003;65.602;23.022;17.136;11.921
4754368.105;36.843;28.200;20.713;22.240;47.199;20.377;10.580;10.654
4754368.130;37.998;32.596;14.342;26.450;50.478;26.859;15.311;17.360
4754368.138;43.400;36.769;22.277;29.802;62.138;31.479;22.054;21.607
4754368.146;42.357;32.149;22.501;24.699;62.808;28.424;19.632;19.781
4754368.154;39.190;30.287;18.887;21.309;61.393;23.842;17.397;14.976
4754368.162;39.972;32.037;19.297;20.377;57.481;24.624;19.409;13.970
4754368.170;41.611;31.926;28.387;17.919;63.926;23.991;18.552;14.752
4754368.178;29.504;23.842;-0.522;9.239;29.616;20.899;16.950;12.219
4754368.186;27.157;20.713;-0.782;6.147;39.525;19.819;14.231;11.101
4754368.194;29.430;22.389;4.359;5.364;46.790;21.160;12.703;13.821
4754368.202;37.700;30.510;14.193;10.617;50.552;25.406;16.317;18.254
4754368.210;38.408;29.691;15.832;11.250;56.103;25.295;15.832;16.727
4754368.218;35.688;27.455;12.517;8.419;53.570;22.650;15.572;14.715
4754368.226;30.920;22.203;7.525;7.786;47.050;17.025;12.405;11.027
4754368.234;37.663;28.051;19.856;12.107;55.581;18.887;13.448;12.070
4754368.242;41.276;30.026;25.257;10.505;52.154;23.022;15.907;14.342
