Timestamp,AFz,AF3,AF4,AF7,AF8,Pz,P3,P4,2024-04-18 12:32:20.987,fs=125
3028672.003;-67.726;-60.163;-72.494;-69.849;-18.738;-16.168;-16.838;-10.505
3028672.011;-71.675;-69.402;-72.755;-70.855;-15.385;-11.697;-15.199;-4.955
3028672.019;-81.807;-80.056;-88.699;-92.015;-35.800;-12.517;-17.583;-7.227
3028672.027;-81.286;-81.323;-86.762;-96.522;-34.310;-15.646;-22.203;-8.717
3028672.035;-73.761;-72.420;-69.849;-88.252;-12.256;-17.509;-24.289;-9.425
3028672.043;-75.102;-71.824;-70.781;-83.558;-12.554;-24.363;-30.547;-15.907
3028672.051;-69.588;-74.878;-72.680;-77.747;-14.305;-18.924;-23.656;-12.666
3028672.059;-64.038;-64.373;-74.878;-73.463;-16.876;-16.913;-17.658;-13.448
3028672.067;-61.579;-59.530;-66.683;-70.184;-26.003;-18.664;-15.348;-15.497
3028672.075;-59.903;-52.601;-58.338;-65.863;-6.817;-17.919;-14.417;-15.050
3028672.083;-55.507;-54.017;-54.762;-61.579;1.565;-11.548;-9.090;-9.760
3028672.091;-66.236;-67.875;-72.196;-77.449;-17.807;-10.878;-11.623;-7.786
3028672.099;-76.294;-75.139;-80.727;-81.286;-31.404;-13.448;-17.397;-10.096
3028672.107;-76.219;-73.202;-80.504;-84.154;-30.138;-13.784;-18.105;-8.158
3028672.115;-77.039;-79.758;-82.627;-84.788;-37.476;-11.548;-15.236;-7.302
3028672.123;-75.363;-74.245;-76.257;-82.105;-27.418;-11.250;-15.236;-8.978
3028672.131;-73.537;-73.314;-75.474;-86.576;-13.374;-11.213;-15.274;-10.766
3028672.139;-70.855;-68.285;-77.263;-75.772;-21.793;-8.121;-13.411;-9.611
3028672.147;-69.141;-67.987;-73.500;-84.415;-23.022;-8.680;-15.646;-10.058
3028672.155;-74.618;-76.480;-76.480;-90.152;-26.859;-5.588;-13.672;-10.133
3028672.163;-75.661;-78.045;-76.890;-85.235;-33.341;-6.035;-15.311;-11.623
3028672.171;-68.694;-75.661;-71.339;-75.698;-18.142;-4.545;-14.827;-10.170
3028672.179;-64.820;-67.130;-61.207;-75.884;-14.864;0.745;-12.219;-3.837
3028672.187;-57.444;-51.148;-53.830;-70.371;-9.649;2.868;-12.554;0.671
3028672.208;-48.131;-43.064;-47.907;-56.513;3.204;-0.186;-16.056;-2.496
3028672.216;-28.238;-25.630;-29.393;-40.755;14.827;4.545;-10.356;1.527
3028672.224;-14.678;-8.270;-17.025;-28.573;20.340;7.078;-6.594;2.831
3028672.232;5.849;23.022;6.482;10.729;39.004;7.637;-3.390;2.719
3028672.240;41.872;68.545;44.592;55.619;76.815;3.837;-5.513;0.559
3028672.248;64.932;85.905;68.210;77.300;103.004;2.384;-6.519;-1.080
3028672.256;85.123;111.982;85.570;89.779;111.274;-0.559;-8.531;-1.974
3028672.264;102.781;130.720;108.220;108.071;125.393;4.582;-3.539;3.055
3028672.272;103.302;127.144;113.696;99.875;143.573;7.637;-1.602;6.109
3028672.280;107.810;135.154;118.092;102.855;146.031;12.293;0.745;12.033
3028672.288;112.914;142.008;127.330;121.035;153.296;10.692;-1.341;11.548
3028672.296;106.916;142.679;112.988;120.997;136.346;7.227;-2.906;7.749
3028672.304;91.381;124.089;92.424;105.985;115.745;6.072;-5.253;7.227
3028672.312;74.431;97.826;71.786;77.747;99.801;1.229;-11.511;3.614
3028672.320;63.330;91.009;55.954;62.734;84.229;-1.229;-13.113;1.378
3028672.328;43.809;65.491;39.078;36.284;74.878;-4.061;-14.789;-1.788
3028672.336;32.298;42.878;26.561;25.034;70.743;-5.774;-15.609;-0.782
3028672.344;20.154;32.187;14.603;18.589;48.056;-4.917;-12.368;0.373
3028672.352;5.811;16.131;6.035;-6.035;33.937;-11.437;-17.136;-7.562
3028672.360;-7.078;-4.880;-11.772;-29.430;38.445;-17.248;-20.564;-12.442
3028672.368;-22.501;-19.521;-31.479;-45.709;15.758;-23.209;-24.550;-16.540
3028672.376;-31.888;-31.628;-36.508;-45.337;0.931;-28.983;-30.659;-20.452
3028672.384;-35.726;-36.880;-41.202;-51.297;3.427;-28.722;-35.018;-17.285
3028672.392;-44.852;-45.225;-54.017;-55.917;-9.350;-27.418;-38.035;-15.609
3028672.373;-49.248;-50.291;-54.501;-75.400;1.416;-21.532;-33.565;-11.846
3028672.381;-55.954;-59.232;-57.109;-84.490;1.751;-18.105;-29.020;-10.431
3028672.389;-62.883;-69.812;-70.557;-81.882;-13.411;-19.483;-27.977;-12.480
3028672.397;-61.020;-67.241;-67.316;-79.907;-18.068;-17.732;-23.805;-13.448
3028672.405;-57.481;-63.218;-58.375;-78.045;-0.671;-20.415;-25.183;-16.391
3028672.413;-61.132;-66.459;-63.553;-85.272;3.465;-26.748;-30.100;-21.309
3028672.421;-69.626;-80.131;-71.116;-92.573;-14.864;-30.696;-32.969;-24.065
3028672.429;-76.406;-83.745;-74.841;-102.445;-20.191;-33.900;-35.167;-27.046
3028672.437;-74.320;-77.374;-78.231;-97.938;-21.197;-30.510;-30.138;-23.618
3028672.445;-75.959;-81.882;-77.412;-93.617;-16.354;-27.828;-25.816;-22.501
3028672.453;-77.747;-82.068;-73.798;-93.691;-12.629;-29.393;-28.275;-22.948
3028672.461;-84.825;-88.923;-86.054;-112.876;-24.587;-31.255;-32.559;-23.954
3028672.469;-84.862;-88.513;-86.427;-110.008;-29.020;-32.485;-34.198;-25.630
3028672.477;-81.845;-89.630;-89.929;-100.061;-38.296;-30.324;-31.851;-21.197
3028672.485;-84.676;-95.181;-89.295;-106.208;-40.196;-33.453;-35.726;-23.767
3028672.493;-84.192;-97.342;-88.736;-106.134;-17.509;-29.840;-32.000;-20.154
3028672.501;-86.352;-96.224;-88.513;-112.839;-27.083;-26.859;-27.604;-15.870
3028672.509;-89.891;-96.075;-88.662;-120.141;-33.900;-31.441;-32.075;-18.328
3028672.517;-87.954;-93.915;-88.811;-115.782;-29.653;-28.685;-30.287;-16.689
3028672.525;-93.244;-104.979;-96.709;-120.513;-42.766;-29.914;-31.367;-21.011
3028672.533;-86.091;-96.560;-90.599;-110.604;-31.888;-27.753;-27.530;-20.377
3028672.541;-85.086;-97.007;-87.395;-105.575;-24.699;-25.779;-23.693;-20.117
3028672.549;-79.498;-91.344;-79.945;-110.790;-24.289;-19.036;-16.801;-15.646
3028672.557;-76.145;-87.731;-82.292;-104.122;-32.932;-14.454;-12.778;-11.586
3028672.586;-75.474;-83.447;-75.698;-104.420;-21.867;-13.635;-13.337;-8.494
3028672.594;-79.200;-87.768;-73.947;-112.690;-14.640;-14.380;-15.870;-5.551
3028672.602;-87.991;-97.528;-84.639;-116.713;-25.518;-17.136;-18.626;-7.972
3028672.610;-87.693;-97.752;-94.958;-111.982;-34.496;-22.054;-24.177;-11.325
3028672.618;-90.860;-103.749;-100.881;-125.132;-43.474;-29.579;-31.330;-15.534
3028672.626;-83.707;-100.285;-85.756;-105.016;-33.043;-26.226;-26.189;-13.895
3028672.634;-70.706;-73.910;-77.337;-92.983;-18.887;-19.930;-16.838;-9.239
3028672.642;-69.514;-72.978;-75.325;-102.930;-21.160;-18.477;-16.280;-10.617
3028672.650;-68.992;-76.182;-76.108;-93.840;-24.512;-20.154;-19.297;-15.460
3028672.658;-63.591;-71.861;-76.666;-78.343;-23.879;-21.383;-21.644;-18.589
3028672.666;-67.130;-78.641;-81.584;-91.307;-18.999;-19.968;-19.670;-21.458
3028672.674;-67.465;-76.257;-70.669;-88.364;-11.176;-19.148;-15.721;-22.352
3028672.682;-62.473;-72.196;-63.032;-93.430;-6.743;-22.054;-19.372;-22.613
3028672.690;-75.996;-95.330;-79.125;-117.905;-25.146;-25.146;-25.481;-20.117
3028672.698;-81.658;-95.889;-88.252;-119.656;-34.049;-21.271;-22.277;-11.697
3028672.706;-91.791;-98.497;-98.348;-118.688;-39.525;-18.999;-22.650;-6.668
3028672.714;-91.344;-101.551;-100.918;-124.648;-41.574;-18.403;-24.624;-4.768
3028672.722;-82.701;-89.966;-84.899;-107.624;-26.301;-20.452;-28.424;-7.488
3028672.730;-84.266;-90.078;-85.682;-100.881;-23.507;-29.504;-36.396;-18.254
3028672.738;-81.956;-87.656;-87.991;-104.904;-19.521;-34.571;-39.376;-24.363
3028672.746;-83.521;-94.250;-91.121;-111.274;-25.034;-35.129;-40.419;-26.897
3028672.754;-78.529;-85.831;-82.105;-100.583;-31.553;-29.579;-34.943;-22.724
3028672.762;-77.486;-87.991;-74.171;-101.030;0.075;-22.799;-27.791;-19.893
3028672.770;-78.790;-92.834;-82.329;-105.314;-4.619;-13.560;-20.675;-11.623
3028672.764;-86.315;-93.952;-92.052;-108.890;-26.934;-12.256;-21.681;-9.798
3028672.772;-100.620;-108.816;-104.867;-132.173;-45.598;-16.019;-26.114;-13.597
3028672.780;-102.855;-117.011;-105.165;-137.389;-38.184;-18.850;-27.902;-15.944
3028672.788;-97.267;-117.794;-94.920;-123.829;-25.406;-16.056;-24.773;-14.044
3028672.796;-95.777;-109.859;-96.262;-122.860;-31.628;-17.583;-26.003;-14.640
3028672.804;-93.356;-97.416;-99.279;-119.023;-40.159;-21.495;-29.169;-19.185
3028672.812;-84.229;-87.768;-94.287;-102.893;-41.313;-18.328;-24.997;-21.905
3028672.820;-70.333;-77.263;-73.947;-94.436;-14.715;-14.380;-18.515;-21.495
3028672.828;-63.442;-75.288;-67.465;-85.868;-0.596;-14.491;-19.744;-23.209
3028672.836;-62.883;-77.337;-68.359;-88.215;-4.992;-15.907;-24.736;-23.060
3028672.844;-60.759;-69.998;-60.536;-86.278;-1.416;-15.236;-28.461;-20.526
3028672.852;-63.963;-70.222;-65.044;-88.476;-14.976;-11.772;-26.710;-17.993
3028672.860;-62.771;-76.927;-61.095;-101.551;-2.123;-6.296;-21.569;-11.437
3028672.868;-69.812;-90.972;-71.712;-112.839;-4.396;-3.725;-20.936;-6.706
3028672.876;-79.237;-99.987;-77.821;-118.576;-12.442;-3.092;-20.191;-5.513
3028672.884;-67.353;-82.739;-69.104;-104.606;-14.380;-0.633;-15.423;-4.582
3028672.892;-66.496;-80.466;-73.537;-94.138;-23.134;-3.241;-15.311;-7.600
3028672.900;-72.382;-94.697;-74.431;-111.796;-27.977;-11.548;-22.165;-16.280
3028672.908;-71.190;-94.101;-70.073;-115.074;-10.319;-13.821;-24.103;-19.185
3028672.916;-69.737;-89.444;-72.531;-102.483;-2.757;-14.380;-23.730;-18.515
3028672.924;-67.651;-82.925;-68.806;-96.895;-13.523;-13.262;-22.613;-15.013
3028672.932;-72.978;-83.931;-70.110;-99.912;-31.702;-13.225;-23.954;-15.385
3028672.940;-76.666;-92.685;-68.396;-111.945;-14.864;-12.815;-25.742;-15.385
3028672.948;-78.641;-99.801;-74.096;-114.366;-1.527;-8.866;-21.979;-13.225
3028672.957;-76.219;-100.359;-72.271;-113.659;-8.121;-6.370;-17.583;-10.915
3028672.965;-73.351;-92.797;-68.843;-112.839;-22.352;-7.600;-17.583;-11.250
3028672.973;-73.574;-90.264;-70.110;-102.818;-19.297;-11.213;-18.328;-14.044
3028672.981;-72.047;-83.409;-71.079;-91.791;-9.462;-14.566;-19.185;-13.895
3028672.989;-73.723;-87.954;-67.875;-98.683;-2.570;-15.050;-19.446;-12.778
3028672.997;-77.486;-97.305;-72.606;-103.042;-20.564;-17.881;-21.867;-13.374
3028673.005;-72.718;-91.046;-69.216;-100.881;-20.266;-14.864;-19.409;-9.201
3028673.013;-70.855;-87.842;-67.800;-102.036;-14.715;-18.254;-21.569;-13.858
3028673.021;-66.049;-86.464;-61.877;-91.754;-16.280;-21.383;-21.756;-19.856
3028673.029;-58.524;-65.826;-62.101;-72.010;-19.893;-21.122;-17.993;-23.283
3028673.037;-49.844;-56.699;-47.125;-69.849;10.729;-19.222;-12.852;-22.352
3028673.045;-49.584;-58.189;-40.680;-72.718;23.097;-22.352;-14.193;-21.681
3028673.053;-57.779;-73.835;-53.197;-75.586;0.410;-24.885;-17.360;-18.962
3028673.061;-68.024;-77.970;-69.588;-83.819;-20.601;-27.418;-21.048;-17.434
3028673.069;-73.388;-80.504;-68.434;-90.152;-24.252;-23.432;-19.968;-13.895
3028673.077;-75.623;-82.813;-70.743;-96.187;-22.650;-16.205;-15.609;-7.525
3028673.085;-72.308;-78.082;-66.198;-88.029;-11.995;-14.007;-13.672;-5.215
3028673.093;-69.477;-76.257;-58.301;-85.123;-2.459;-18.254;-15.795;-9.276
3028673.101;-65.528;-72.606;-55.358;-85.607;-10.170;-17.360;-12.182;-9.239
3028673.109;-61.579;-72.904;-55.656;-80.876;-8.866;-16.391;-10.133;-10.692
3028673.117;-59.083;-67.465;-55.246;-72.494;-4.955;-17.062;-11.586;-12.368
3028673.125;-58.375;-65.044;-52.527;-76.294;5.513;-15.721;-10.729;-11.958
3028673.133;-63.181;-68.620;-57.966;-77.710;0.708;-13.225;-10.133;-9.462
3028673.141;-66.310;-72.569;-65.565;-80.839;-18.254;-8.531;-6.557;-3.390
3028673.168;-68.620;-70.333;-64.857;-84.341;-16.317;-5.625;-4.768;-1.639
3028673.176;-70.222;-69.477;-63.330;-81.919;-12.815;-9.090;-11.101;-2.496
3028673.184;-68.992;-76.108;-59.828;-88.699;-5.774;-0.969;-3.539;7.115
3028673.192;-64.336;-73.053;-56.326;-85.197;-9.499;4.284;5.141;12.405
3028673.200;-62.883;-67.279;-56.513;-81.249;-3.837;-3.129;1.267;5.960
3028673.208;-66.310;-67.130;-65.789;-74.171;-8.494;-8.978;-2.086;-2.682
3028673.216;-69.141;-68.732;-66.757;-75.921;-25.555;-11.846;-4.135;-7.600
3028673.224;-63.665;-66.608;-55.395;-85.756;-10.766;-9.872;-2.347;-7.115
3028673.232;-65.602;-76.033;-57.891;-86.464;-12.480;-11.176;-4.135;-9.425
3028673.240;-67.763;-73.649;-61.914;-81.882;-19.446;-15.385;-10.282;-12.107
3028673.248;-68.136;-67.316;-60.089;-81.360;-12.405;-17.136;-13.039;-13.709
3028673.256;-67.204;-72.084;-61.318;-82.068;-12.740;-11.995;-7.637;-7.898
3028673.264;-72.345;-84.452;-59.605;-98.161;-22.501;-9.201;-3.651;-5.290
3028673.272;-74.282;-80.690;-70.818;-93.505;-21.532;-11.660;-3.017;-10.170
3028673.280;-69.439;-69.477;-61.356;-74.171;-12.442;-3.763;5.551;-4.768
3028673.288;-71.898;-78.827;-57.817;-79.721;-16.801;-0.373;10.282;-1.974
3028673.296;-72.010;-76.629;-63.665;-86.427;-26.599;-1.974;8.941;-0.224
3028673.304;-70.408;-82.031;-64.075;-96.485;-26.152;-1.490;8.978;1.676
3028673.312;-73.463;-77.561;-68.396;-80.168;-25.220;-5.737;4.582;-3.912
3028673.320;-68.247;-68.806;-63.330;-72.867;-12.815;-8.047;1.863;-7.451
3028673.328;-68.992;-68.545;-67.316;-84.825;-23.618;-11.586;-2.496;-11.139
3028673.336;-61.691;-64.261;-51.968;-78.753;-16.354;-3.688;3.614;-3.763
3028673.344;-59.418;-63.553;-45.560;-74.916;-7.898;0.857;10.207;-0.745
3028673.352;-66.534;-71.712;-54.985;-74.357;-17.732;1.825;11.884;-0.335
3028673.332;-70.743;-78.045;-63.814;-82.105;-22.128;2.384;8.605;3.688
3028673.340;-72.420;-76.406;-63.367;-85.384;-23.693;3.874;8.382;6.743
3028673.348;-70.222;-71.935;-62.883;-81.286;-24.550;9.649;13.895;10.729
3028673.356;-65.193;-65.491;-61.505;-76.182;-22.985;9.909;12.852;10.468
3028673.364;-61.765;-60.275;-57.183;-72.829;-12.368;4.582;7.935;3.874
3028673.372;-54.389;-58.599;-49.472;-67.577;-9.052;7.190;12.219;4.806
3028673.380;-55.060;-65.081;-46.603;-76.368;-14.082;9.798;14.789;5.402
3028673.388;-57.034;-66.794;-44.890;-75.139;-18.142;8.345;13.374;2.533
3028673.396;-53.868;-57.071;-45.337;-64.522;-11.064;5.476;11.921;-0.559
3028673.404;-54.725;-56.215;-46.045;-67.689;-10.766;2.682;10.468;-3.017
3028673.412;-57.407;-59.530;-45.970;-69.328;-8.382;-3.763;4.470;-6.296
3028673.420;-61.505;-69.812;-46.343;-73.984;-9.574;-2.757;3.800;-2.347
3028673.428;-63.367;-69.439;-53.011;-81.211;-25.854;-5.588;-2.608;-1.118
3028673.436;-60.350;-67.353;-47.721;-85.868;-21.309;-6.594;-8.158;3.092
3028673.444;-62.510;-71.786;-44.443;-87.544;-13.188;-10.133;-12.442;0.596
3028673.452;-61.616;-67.167;-50.068;-75.847;-16.727;-13.895;-15.311;-5.402
3028673.460;-55.134;-60.536;-42.394;-74.171;-15.572;-11.027;-8.605;-8.345
3028673.468;-50.031;-54.389;-41.425;-70.408;-3.725;-8.866;-0.373;-11.474
3028673.476;-46.901;-57.966;-31.404;-70.706;-3.874;-4.098;6.855;-11.101
3028673.484;-43.437;-51.260;-30.436;-59.828;-3.763;-0.708;9.127;-10.245
3028673.492;-42.990;-51.595;-36.694;-60.759;-4.321;-1.825;5.402;-9.686
3028673.500;-43.884;-53.346;-43.251;-65.044;-10.245;-0.410;3.614;-8.345
3028673.508;-49.323;-55.134;-49.062;-74.655;-10.692;-2.049;-1.267;-8.531
3028673.516;-48.690;-54.054;-41.276;-69.290;-8.754;0.820;-3.763;-4.210
3028673.529;-46.827;-55.283;-32.820;-73.984;-3.725;5.066;-3.166;-0.373
3028673.537;-42.580;-57.183;-36.098;-71.339;-8.047;10.319;2.421;3.651
3028673.545;-42.059;-54.799;-32.634;-69.290;-11.548;9.649;4.955;1.006
3028673.553;-38.594;-46.529;-26.897;-68.769;2.086;7.004;5.029;-1.565
3028673.561;-24.177;-32.261;-14.603;-52.080;19.446;15.087;15.832;5.700
3028673.569;-21.718;-23.842;-11.437;-38.892;19.297;15.348;14.789;5.290
3028673.577;-21.234;-29.430;-5.923;-44.480;8.941;15.236;12.591;5.402
3028673.585;-19.260;-32.596;2.123;-50.031;19.036;15.385;10.394;4.843
3028673.593;-23.060;-32.894;-6.407;-50.254;15.907;12.107;4.694;3.651
3028673.601;-25.332;-32.634;-2.682;-54.240;19.483;9.909;2.757;4.657
3028673.609;-35.688;-42.655;-15.683;-58.226;7.972;9.537;3.353;6.296
3028673.617;-38.780;-47.609;-24.959;-66.310;-13.150;11.213;6.407;9.201
3028673.625;-32.149;-39.898;-12.070;-58.077;-1.788;14.640;9.276;11.176
3028673.633;-30.100;-41.127;-9.164;-57.071;9.350;13.709;10.431;9.276
3028673.641;-24.624;-36.620;-4.508;-51.409;9.798;13.486;14.789;8.903
3028673.649;-18.142;-24.326;-4.135;-42.990;10.766;16.615;20.005;9.052
3028673.657;-18.254;-26.040;-4.545;-43.549;11.362;18.366;21.383;13.225
3028673.665;-23.134;-28.908;-2.570;-51.148;0.447;19.595;21.048;15.758
3028673.673;-21.271;-25.593;1.788;-37.439;14.454;19.148;20.787;16.727
3028673.681;-19.595;-28.946;1.341;-36.955;21.830;20.489;21.718;19.781
3028673.689;-26.822;-37.663;-9.909;-55.805;9.537;15.460;17.509;16.615
3028673.697;-33.043;-39.861;-18.775;-60.610;-8.084;5.215;7.711;10.096
3028673.705;-32.149;-38.259;-9.574;-56.513;-3.651;-1.304;3.576;3.688
3028673.713;-26.636;-31.441;-6.445;-46.492;3.763;-1.788;2.794;4.098
3028673.722;-21.346;-34.794;-0.708;-48.429;8.047;3.353;7.078;10.356
3028673.730;-16.168;-25.928;5.662;-44.256;18.366;12.778;15.758;17.807
3028673.738;-13.560;-17.509;6.892;-34.869;19.111;22.985;26.934;24.885
3028673.746;-16.540;-18.105;-0.410;-28.089;14.231;31.628;37.625;28.126
3028673.754;-25.630;-25.257;-13.821;-37.588;-8.978;23.320;32.485;20.787
3028673.762;-31.851;-37.588;-17.099;-46.492;-9.015;9.537;21.607;9.239
3028673.770;-38.072;-43.623;-19.595;-63.367;4.470;-0.894;11.921;-1.900
3028673.778;-30.957;-35.949;-10.394;-54.687;3.651;0.931;11.995;1.751
3028673.786;-22.128;-25.257;-0.037;-36.173;3.837;2.757;12.070;6.221
3028673.794;-21.681;-26.822;-5.104;-45.672;3.204;3.390;12.405;7.004
3028673.802;-21.160;-27.381;-4.135;-46.343;10.692;8.009;16.168;12.219
3028673.810;-30.138;-40.270;-6.743;-62.846;3.353;0.000;7.488;4.135
3028673.818;-29.877;-35.353;-13.597;-55.470;-4.843;-3.241;5.774;4.098
3028673.826;-22.240;-25.742;-5.811;-45.858;10.170;-5.886;5.439;4.247
3028673.834;-20.340;-29.355;-4.135;-43.958;8.531;-10.207;-0.820;0.335
3028673.842;-18.105;-16.913;-8.307;-34.645;0.633;-0.224;7.227;4.619
3028673.850;-18.328;-15.721;-8.494;-35.539;-9.127;15.087;20.601;13.076
3028673.858;-12.890;-14.082;-1.751;-27.642;5.141;32.373;36.880;25.854
3028673.866;-17.993;-20.713;-7.153;-36.471;6.333;35.204;41.351;26.859
3028673.874;-25.295;-30.510;-13.597;-49.621;-6.706;27.157;34.571;21.867
3028673.882;-27.977;-35.465;-10.468;-56.215;-15.497;14.603;22.687;14.976
3028673.890;-30.100;-36.582;-10.207;-58.264;0.782;4.061;12.107;8.866
3028673.898;-19.483;-27.157;4.023;-44.852;13.858;-0.149;6.780;8.941
3028673.906;-12.442;-17.434;4.098;-38.072;13.635;-2.608;0.522;9.611
3028673.918;-2.868;-9.909;10.431;-30.473;16.503;-2.980;-3.092;13.225
3028673.926;3.017;0.745;17.919;-19.670;17.025;-2.645;-2.682;12.480
3028673.934;4.917;-0.112;20.452;-14.119;17.621;10.096;15.348;13.523
3028673.942;3.763;2.123;19.036;-16.987;12.517;25.481;34.980;19.558
3028673.950;-5.923;-6.594;12.852;-29.244;10.207;31.553;43.809;19.968
3028673.958;-7.674;-8.792;9.723;-25.555;8.531;36.396;47.609;23.022
3028673.966;-9.499;-4.582;5.849;-25.518;8.121;36.247;44.666;27.269
3028673.974;-14.715;-11.586;6.668;-25.332;5.998;28.834;34.198;25.183
3028673.982;-20.601;-27.493;0.633;-43.325;-3.427;14.119;16.093;17.732
3028673.990;-21.644;-30.361;-8.680;-47.386;-8.158;2.608;5.066;9.388
3028673.998;-16.801;-20.042;-3.316;-40.270;-5.178;0.633;1.639;7.339
3028674.006;-6.407;-4.284;18.962;-30.622;7.227;-4.284;-4.433;4.396
3028674.014;16.429;15.981;42.804;-11.623;38.557;-7.153;-4.396;0.335
3028674.022;24.624;19.222;48.801;-17.546;58.338;-2.570;3.166;3.241
3028674.030;23.134;20.415;50.478;-23.209;53.570;3.017;13.001;3.912
3028674.038;20.862;12.703;42.580;-27.418;50.366;10.058;22.538;5.551
3028674.046;14.193;-1.714;36.396;-42.617;40.159;17.062;27.828;8.792
3028674.054;3.204;-1.453;32.634;-58.487;46.231;16.131;22.687;7.413
3028674.062;-5.439;-13.895;24.103;-69.849;51.819;13.113;12.890;11.362
3028674.070;-20.079;-30.994;5.998;-92.946;38.855;3.651;-1.565;8.196
3028674.078;-29.653;-45.039;3.725;-110.194;30.436;-6.333;-12.517;3.800
3028674.086;-30.920;-54.725;3.427;-116.192;36.322;-15.683;-22.352;-2.384
3028674.094;-38.296;-56.289;-15.683;-111.870;11.511;-26.561;-34.384;-14.827
3028674.102;-22.128;-30.361;7.078;-80.690;36.694;-18.701;-26.561;-8.568
3028674.127;-9.276;-16.093;21.011;-65.193;46.045;-5.960;-11.697;0.782
3028674.135;-12.852;-24.363;14.268;-73.947;44.405;0.112;-3.688;3.166
3028674.143;-14.938;-24.252;8.456;-80.243;35.763;10.617;8.233;8.792
3028674.151;-14.603;-26.487;9.909;-77.449;34.869;25.816;24.140;18.775
3028674.159;-17.509;-28.163;10.990;-72.047;36.992;32.596;30.026;24.661
3028674.167;-27.679;-36.806;0.000;-84.937;26.375;26.748;23.507;18.589
3028674.175;-40.606;-51.223;-11.623;-107.288;19.372;14.305;9.760;7.823
3028674.183;-35.912;-46.119;-8.196;-104.867;18.738;15.460;7.525;10.356
3028674.191;-36.024;-47.758;-4.582;-95.665;24.922;12.703;-0.559;11.362
3028674.199;-49.435;-65.379;-19.707;-112.876;16.168;-1.453;-24.512;2.943
3028674.207;-55.805;-49.919;-9.239;-97.491;18.179;1.192;-25.667;4.433
3028674.215;-43.958;-30.063;-1.155;-84.266;26.114;17.323;-6.817;16.615
3028674.223;-44.107;-36.955;-3.427;-87.731;25.518;23.283;3.688;17.919
3028674.231;-58.375;-60.126;-10.245;-97.379;15.087;16.578;1.565;7.972
3028674.239;-57.183;-48.392;-14.901;-96.075;14.864;18.366;5.737;9.984
3028674.247;-56.736;-50.701;-17.732;-90.115;16.801;22.054;10.468;12.591
3028674.255;-55.842;-49.584;-14.454;-92.275;19.856;18.701;5.737;12.182
3028674.263;-50.515;-40.270;-11.474;-76.704;17.807;16.317;0.410;14.044
3028674.271;-46.492;-39.674;-0.261;-80.988;28.126;13.970;-3.017;12.293
3028674.279;-49.323;-46.678;-4.284;-92.015;27.530;10.543;-6.072;11.213
3028674.287;-61.914;-61.505;-23.581;-103.638;13.784;0.782;-13.448;3.204
3028674.295;-52.154;-49.286;-13.523;-90.078;13.262;4.210;-8.494;5.811
3028674.303;-39.414;-36.061;-2.608;-67.167;23.060;9.909;-1.043;10.245
3028674.311;-43.400;-36.731;2.086;-73.984;22.613;0.782;-9.350;0.820
3028674.293;-43.698;-29.914;-1.937;-69.886;21.122;0.112;-11.884;2.533
3028674.301;-50.180;-44.592;-9.127;-85.235;16.764;-3.278;-15.385;0.298
3028674.309;-52.713;-51.856;-16.540;-102.110;14.119;-8.196;-17.472;-2.906
3028674.317;-55.805;-49.882;-23.693;-87.544;2.086;-7.041;-14.231;-2.943
3028674.325;-53.458;-44.517;-17.136;-69.030;8.196;-3.129;-9.127;-0.112
3028674.333;-52.080;-42.841;-15.050;-71.898;11.064;-4.619;-10.245;1.490
3028674.341;-59.195;-56.699;-19.595;-97.193;0.894;-13.299;-16.950;-6.780
3028674.349;-55.730;-52.452;-20.415;-96.895;4.657;-13.150;-17.583;-4.694
3028674.357;-44.145;-33.416;-14.156;-78.119;11.772;-7.227;-13.523;2.198
3028674.365;-44.778;-34.682;-10.319;-70.296;5.439;-11.809;-21.383;-1.639
3028674.373;-42.766;-32.224;-9.872;-62.138;13.784;-6.333;-16.503;4.731
3028674.381;-48.727;-42.245;-13.188;-81.062;5.588;0.298;-9.127;8.307
3028674.389;-50.403;-40.196;-16.652;-75.139;2.645;1.453;-6.035;6.445
3028674.397;-43.735;-31.814;-11.288;-70.073;10.915;1.825;-2.198;7.041
3028674.405;-40.233;-27.344;-5.439;-65.789;11.846;3.055;1.527;7.264
3028674.413;-43.474;-31.032;-10.133;-73.165;14.566;-0.186;-1.192;5.700
3028674.421;-40.494;-34.682;-8.196;-65.789;13.970;0.633;0.149;7.264
3028674.429;-28.200;-24.214;9.276;-58.450;16.503;7.078;6.333;14.156
3028674.437;-30.622;-21.867;4.843;-58.524;20.824;1.192;-0.820;10.654
3028674.445;-35.912;-21.905;-1.192;-59.828;15.348;-0.969;-4.172;9.052
3028674.453;-40.419;-27.679;-10.319;-66.757;8.196;-4.545;-9.499;7.413
3028674.461;-41.947;-29.914;-12.070;-69.402;7.078;-3.353;-10.654;7.674
3028674.469;-34.869;-21.942;-2.906;-63.591;6.147;-1.825;-7.227;7.711
3028674.477;-33.863;-29.467;-2.682;-61.877;5.178;-4.433;-8.531;6.892
3028674.487;-33.639;-24.512;0.745;-55.060;23.134;-6.631;-11.250;4.880
3028674.495;-34.161;-28.722;-4.284;-62.659;12.480;-3.129;-8.047;8.270
3028674.503;-38.035;-26.636;-7.078;-68.359;2.272;0.298;-4.023;10.729
3028674.511;-40.121;-21.942;-5.923;-63.665;0.820;-0.782;-4.284;10.766
3028674.519;-42.170;-27.604;-10.617;-61.058;-3.166;1.267;-1.416;14.380
3028674.527;-49.993;-41.686;-19.372;-71.563;-8.717;-3.055;-5.513;9.052
3028674.535;-43.176;-34.012;-13.411;-64.783;-1.602;-3.614;-4.470;10.878
3028674.543;-39.674;-27.865;-13.001;-61.952;2.123;-8.643;-7.190;6.519
3028674.551;-32.559;-16.317;-4.210;-52.154;9.276;-17.099;-15.199;-0.782
3028674.559;-32.112;-15.050;3.539;-52.117;8.754;-21.197;-22.911;-5.662
3028674.567;-29.728;-12.554;3.390;-49.807;9.947;-15.646;-20.452;-1.676
3028674.575;-25.779;-13.746;0.820;-40.643;7.488;-5.439;-11.399;7.525
3028674.583;-30.734;-22.873;-0.186;-48.205;8.941;-0.559;-4.619;9.686
3028674.591;-33.304;-22.165;0.037;-53.532;11.660;-1.080;-1.788;8.643
3028674.599;-29.206;-6.855;2.123;-43.474;8.792;5.737;7.860;14.044
3028674.607;-40.643;-12.591;-14.752;-51.260;-13.858;0.149;6.258;5.402
3028674.615;-38.110;-16.093;-13.299;-49.844;-9.611;0.820;9.201;7.227
3028674.623;-32.075;-16.131;-0.298;-43.958;4.619;2.012;9.015;9.835
3028674.631;-30.212;-17.583;1.974;-39.898;5.513;-2.980;3.837;7.898
3028674.639;-31.963;-22.277;-2.533;-48.168;2.049;-10.282;-5.253;3.017
3028674.647;-35.651;-16.205;-12.591;-52.042;-4.768;-14.119;-11.101;0.298
3028674.655;-24.512;-6.855;2.757;-41.388;2.347;0.931;1.490;13.486
3028674.663;-25.332;-9.872;4.508;-39.190;1.490;9.313;9.686;17.844
3028674.671;-7.711;12.256;17.099;-13.635;10.356;7.190;9.574;14.044
3028674.682;13.299;31.553;41.537;8.680;25.444;11.101;15.125;18.626
3028674.690;33.490;47.460;59.977;23.916;27.865;16.317;20.601;23.209
3028674.698;62.361;83.745;88.848;47.795;55.842;21.122;24.661;28.238
3028674.706;81.323;104.271;109.524;79.572;63.851;22.016;25.779;26.897
3028674.714;90.674;120.178;118.352;92.350;55.134;19.632;24.736;24.922
3028674.722;94.399;116.825;119.768;98.757;58.003;22.165;28.722;27.977
3028674.730;88.774;107.251;111.759;97.752;48.429;26.375;32.634;29.355
3028674.738;87.880;117.160;113.323;98.124;47.572;27.716;32.969;29.244
3028674.746;81.509;108.294;111.349;91.605;48.503;30.510;35.316;29.802
3028674.754;76.443;92.946;108.182;78.268;51.223;35.577;39.116;35.241
3028674.762;70.222;90.860;99.167;81.733;45.523;34.384;36.322;35.278
3028674.770;63.181;83.745;90.376;76.219;32.298;29.989;29.653;31.739
3028674.778;62.808;90.227;89.556;74.841;31.739;35.800;31.777;36.806
3028674.786;60.052;86.352;83.633;71.675;33.565;43.623;38.967;39.525
3028674.794;56.066;77.114;77.896;71.749;21.532;45.337;41.313;39.488
3028674.802;53.234;66.385;78.902;60.685;22.687;41.462;39.339;35.204
3028674.810;54.203;74.208;85.570;64.187;31.032;36.731;36.024;28.722
3028674.818;58.860;87.470;87.656;75.921;33.639;37.216;37.327;29.802
3028674.826;68.620;97.342;95.442;88.513;44.554;45.449;42.915;39.302
3028674.834;64.895;83.968;86.576;81.137;42.394;46.566;42.096;40.792
3028674.842;57.705;77.225;81.845;67.316;32.112;46.678;40.047;40.755
3028674.850;50.142;70.892;84.899;59.418;33.677;46.976;38.333;40.419
3028674.858;61.505;83.260;93.132;70.967;40.308;41.053;33.379;33.379
3028674.866;66.757;88.252;93.505;77.300;40.568;42.878;34.384;32.596
3028674.891;69.663;88.885;92.350;82.105;32.261;46.007;37.067;34.608
3028674.899;75.512;91.791;97.491;84.713;36.247;44.219;37.439;33.006
3028674.907;76.965;102.557;103.116;81.174;50.291;41.835;37.774;30.212
3028674.915;79.609;104.159;107.512;88.401;52.266;45.449;41.761;35.204
3028674.923;79.051;100.061;104.271;101.030;40.643;46.380;41.947;35.465
3028674.931;79.833;101.961;105.388;97.305;56.103;43.437;37.253;34.943
3028674.939;81.807;106.618;106.283;91.903;63.479;47.907;38.743;42.096
3028674.947;74.767;103.787;97.416;84.415;39.414;48.578;35.986;43.213
3028674.955;75.363;98.906;97.491;91.195;39.451;54.725;41.351;47.646
3028674.963;73.090;91.977;92.611;97.863;45.933;59.679;48.466;49.770
3028674.971;67.391;94.548;92.871;88.103;49.286;52.564;43.921;43.847
3028674.979;69.663;98.348;94.101;91.009;47.609;49.360;43.698;41.239
3028674.987;75.176;101.626;95.218;96.746;38.296;47.944;46.231;42.170
3028674.995;76.517;104.606;97.640;96.932;45.337;39.823;39.935;39.302
3028675.003;71.116;102.818;93.691;97.416;49.472;27.493;29.095;32.000
3028675.011;63.218;97.305;85.644;94.585;33.453;18.403;20.564;26.263
3028675.019;54.203;90.860;73.463;89.258;23.767;17.025;18.366;22.985
3028675.027;48.988;82.403;71.339;80.355;27.567;21.085;21.048;23.656
3028675.035;50.031;89.817;69.663;79.833;15.907;28.461;26.040;29.616
3028675.043;50.701;89.221;70.371;73.798;19.297;34.235;32.447;33.341
3028675.051;51.558;82.068;67.092;81.286;18.813;33.900;32.671;34.571
3028675.059;51.185;85.831;70.333;79.274;18.254;25.965;26.114;28.498
3028675.067;54.836;81.845;77.076;77.635;29.020;21.234;23.730;24.065
3028675.075;64.336;94.250;81.956;88.364;32.783;17.732;20.340;23.320
3028675.072;71.079;105.649;94.287;96.858;39.712;13.039;17.211;18.552
3028675.080;73.202;106.953;93.840;101.402;46.007;8.456;15.125;13.560
3028675.088;70.743;99.279;86.501;93.877;34.757;14.827;21.532;18.664
3028675.096;62.138;92.350;80.131;86.576;27.977;19.856;22.687;22.724
3028675.104;62.957;91.232;75.400;89.034;22.389;28.014;27.195;31.963
3028675.112;53.719;84.676;69.104;81.249;18.366;31.777;30.883;34.757
3028675.120;44.964;77.859;64.038;72.606;9.649;22.724;23.060;26.487
3028675.128;41.649;68.396;60.797;64.373;6.743;18.626;21.048;23.171
3028675.136;43.698;77.561;56.736;72.569;5.141;16.727;21.346;20.079
3028675.144;48.280;77.374;59.269;80.727;8.568;8.978;14.901;14.268
3028675.152;60.461;87.656;75.959;93.654;22.165;14.491;22.240;18.477
3028675.160;60.312;86.427;75.735;86.576;23.469;12.070;19.893;16.503
3028675.168;58.264;88.289;74.245;90.189;18.142;7.562;14.305;15.125
3028675.176;61.058;93.691;82.068;91.456;26.636;10.952;16.578;18.626
3028675.184;61.169;86.017;78.976;82.739;33.490;17.472;22.165;26.263
3028675.192;55.395;78.045;70.259;78.157;31.814;15.758;20.489;23.097
3028675.200;54.576;80.653;72.494;84.341;12.554;15.907;18.626;22.054
3028675.208;52.378;85.048;68.024;85.011;6.631;15.125;16.391;21.458
3028675.216;54.948;84.862;69.663;83.819;10.319;17.248;18.775;22.128
3028675.224;59.046;82.813;71.004;79.684;17.025;14.380;16.354;20.675
3028675.232;64.857;87.880;78.492;98.571;27.828;13.374;17.732;18.813
3028675.240;73.500;97.007;88.140;103.898;26.226;16.503;25.518;19.781
3028675.248;77.374;108.890;89.295;106.767;23.767;8.456;20.340;12.442
3028675.256;74.171;104.532;86.725;98.832;26.487;-2.570;11.101;0.745
3028675.254;76.965;100.024;85.235;106.841;28.014;2.235;12.890;6.855
3028675.262;78.082;103.265;83.223;113.025;28.014;15.795;22.762;19.558
3028675.270;75.251;105.277;85.421;106.879;25.369;29.430;32.447;31.032
3028675.278;71.302;100.099;84.192;101.253;31.181;34.086;32.187;35.651
3028675.286;59.791;88.736;78.417;91.977;28.573;28.759;25.481;30.622
3028675.294;56.103;79.721;71.004;77.747;18.664;24.773;20.750;26.338
3028675.302;57.593;78.678;70.035;77.114;8.754;25.220;22.091;23.358
3028675.310;56.028;74.767;71.079;72.643;8.568;21.979;21.383;19.521
3028675.318;57.817;74.394;77.672;76.965;18.291;20.675;22.240;16.540
3028675.326;63.814;86.203;83.931;85.682;29.430;13.709;17.583;9.201
3028675.334;65.453;86.837;84.750;89.407;27.195;6.966;13.001;7.786
3028675.342;59.977;82.999;73.314;87.880;18.254;0.149;7.637;4.657
3028675.350;60.610;82.962;75.214;88.364;17.770;5.700;12.480;10.319
3028675.358;63.181;79.237;78.268;81.658;18.366;12.405;17.025;16.280
3028675.366;56.736;73.873;72.122;72.196;16.131;15.311;15.944;18.068
3028675.374;53.607;75.363;67.204;74.618;13.597;19.819;17.360;21.718
3028675.382;49.435;73.500;63.218;73.165;9.313;20.191;15.087;21.979
3028675.390;47.944;71.637;68.881;70.073;6.780;15.758;8.941;19.558
3028675.398;55.097;69.439;75.176;71.377;13.374;20.005;11.735;23.358
3028675.406;62.920;71.898;78.529;74.059;26.599;24.140;17.285;26.934
3028675.414;59.716;76.741;73.984;73.090;21.756;17.881;13.597;20.415
3028675.422;54.576;76.331;69.328;75.586;16.168;11.586;7.637;12.331
3028675.430;50.329;73.723;68.136;69.439;8.196;8.792;4.731;8.009
3028675.438;54.315;71.079;78.119;77.784;24.326;12.927;8.009;10.394
3028675.449;47.795;60.461;70.110;69.030;17.844;15.795;8.456;11.176
3028675.457;46.417;57.705;66.198;56.699;17.397;23.805;14.268;18.403
3028675.465;45.337;71.786;63.032;71.488;13.150;32.783;20.266;28.163
3028675.473;39.823;63.926;54.091;67.987;2.980;28.424;13.672;25.854
3028675.481;41.686;58.115;54.091;66.124;8.345;20.862;7.115;19.446
3028675.489;44.852;62.101;62.101;65.416;4.806;14.268;2.757;12.480
3028675.497;56.736;72.047;79.870;77.412;26.785;13.635;5.960;11.474
3028675.505;67.912;83.335;87.358;92.238;43.586;16.168;15.758;10.468
3028675.513;58.413;77.449;70.296;91.158;23.171;11.660;15.795;1.900
3028675.521;59.605;84.043;71.079;88.513;20.713;14.342;22.203;-0.894
3028675.529;57.407;79.647;65.342;87.544;12.591;17.583;26.226;-0.857
3028675.537;59.083;73.351;64.708;82.143;17.881;23.283;28.647;6.482
3028675.545;59.940;70.706;73.500;81.360;32.112;31.553;32.745;15.832
3028675.553;55.470;69.849;76.890;79.162;22.948;33.341;31.106;21.271
3028675.561;42.915;66.347;62.585;71.973;17.956;29.579;24.252;23.171
3028675.569;35.614;62.250;47.386;81.249;14.231;24.810;17.434;22.203
3028675.577;43.586;71.079;52.266;86.240;15.721;23.469;17.658;25.295
3028675.585;50.962;75.176;60.610;80.913;17.658;22.314;20.117;25.518
3028675.593;53.085;83.037;65.602;82.925;35.204;19.185;18.999;21.793
3028675.601;57.667;83.670;70.557;96.858;35.204;18.254;21.495;19.521
3028675.609;56.066;78.753;62.250;93.095;14.007;15.087;20.303;12.331
3028675.617;50.925;78.976;59.493;93.095;6.743;17.062;23.060;12.442
3028675.625;49.323;90.823;62.063;81.807;6.072;24.550;31.143;16.391
3028675.633;53.421;114.404;66.981;95.032;16.540;28.685;31.665;23.022
3028675.645;54.315;119.358;63.404;87.321;12.927;27.232;26.040;24.885
3028675.653;51.633;133.030;62.436;86.278;11.139;22.911;19.819;23.805
3028675.661;52.974;139.773;63.479;88.625;11.511;21.644;16.987;24.773
3028675.669;51.707;143.573;56.364;85.197;0.186;15.497;11.288;20.638
3028675.677;54.948;154.898;57.369;91.344;-0.373;12.368;9.388;17.732
3028675.685;65.714;188.015;65.677;109.263;8.941;20.377;18.440;22.538
3028675.693;74.357;214.465;76.294;116.229;24.065;25.332;24.363;24.252
3028675.701;74.953;214.986;77.598;115.484;20.042;21.569;20.675;18.515
3028675.709;67.726;212.304;70.743;103.489;10.096;19.856;17.881;14.119
3028675.717;63.553;218.861;61.952;104.941;4.582;18.813;15.087;12.778
3028675.725;70.408;248.849;65.230;121.444;11.921;24.475;21.197;18.999
3028675.733;74.431;259.578;73.202;121.482;19.521;23.916;20.191;19.222
3028675.741;73.537;255.518;72.159;112.802;17.621;23.134;18.254;22.091
3028675.749;66.087;241.101;62.846;106.134;2.347;22.165;20.042;23.767
3028675.757;63.665;238.419;64.410;107.661;4.582;20.303;20.377;21.681
3028675.765;66.459;243.299;59.269;114.292;10.468;21.011;21.309;23.395
3028675.773;60.350;234.693;53.197;100.508;4.768;13.225;13.821;17.099
3028675.781;67.204;240.766;63.963;104.196;9.835;10.468;10.394;16.764
3028675.789;71.377;241.064;66.236;116.266;6.221;6.333;4.061;11.809
3028675.797;67.614;229.515;64.410;107.437;4.508;5.774;2.496;10.729
3028675.805;65.230;231.452;54.501;109.486;9.164;13.709;9.947;16.168
3028675.813;58.264;213.422;39.637;106.096;-4.359;23.320;22.016;20.750
3028675.821;61.132;220.798;46.790;99.838;-6.221;30.175;31.441;26.263
3028675.829;58.264;217.557;55.656;99.652;6.743;26.152;26.263;22.128
3028675.852;51.372;201.426;45.300;86.054;-1.118;19.036;15.758;17.770
3028675.860;49.286;197.627;41.723;87.619;-0.857;14.305;7.972;18.589
3028675.868;55.507;202.172;49.658;96.373;1.527;15.236;10.133;21.420
3028675.876;56.103;187.084;50.217;96.075;-2.235;11.586;6.743;20.191
3028675.884;57.183;176.877;51.558;92.201;1.639;7.935;4.433;15.013
3028675.892;60.797;173.785;58.115;99.838;7.898;8.643;7.339;12.740
3028675.900;67.018;172.257;67.465;99.614;26.971;14.752;15.311;16.168
3028675.908;70.967;178.143;70.110;113.025;15.609;20.936;22.352;20.824
3028675.916;65.565;168.718;60.573;105.202;8.084;22.091;20.340;23.507
3028675.924;53.532;151.508;47.684;89.481;0.708;11.660;9.052;15.162
3028675.932;55.023;146.478;59.865;89.109;6.482;13.113;11.548;18.589
3028675.940;56.177;152.476;58.450;96.411;16.838;15.199;12.293;21.607
3028675.948;54.091;151.135;50.776;92.350;2.049;16.391;13.076;20.713
3028675.956;52.527;144.579;50.515;90.636;1.490;16.317;13.821;20.415
3028675.964;53.160;146.329;58.636;85.942;10.654;14.082;12.033;16.317
3028675.972;58.003;149.831;65.118;93.803;17.285;10.952;9.649;12.852
3028675.980;59.530;154.041;61.430;98.683;8.456;3.800;2.570;6.296
3028675.988;55.954;155.456;56.885;89.109;9.574;-1.937;-3.949;0.782
3028675.996;59.158;161.082;55.879;91.419;11.548;0.298;-1.900;4.955
3028676.004;57.630;156.723;63.404;81.137;18.179;1.453;-3.241;7.451
3028676.012;51.595;151.321;55.991;86.501;8.568;4.470;-4.843;12.070
3028676.020;48.988;147.372;58.860;87.433;11.139;4.210;-5.029;11.958
3028676.028;51.036;150.986;57.407;82.552;15.907;12.405;4.806;16.913
3028676.036;54.054;154.562;56.550;84.750;9.723;19.297;13.486;20.154
3028676.033;54.687;152.402;53.532;83.447;-1.341;22.724;20.526;19.148
3028676.041;56.773;151.806;59.083;88.923;13.933;20.005;19.446;15.236
3028676.049;58.636;149.384;60.610;94.734;26.077;20.824;21.271;15.162
3028676.057;64.149;158.660;72.718;90.338;23.060;22.314;22.091;14.231
3028676.065;66.012;166.148;67.800;98.087;19.968;19.446;18.552;10.319
3028676.073;54.985;145.510;55.432;78.864;-6.855;12.666;9.760;3.166
3028676.081;53.868;138.730;60.387;72.233;20.079;13.635;7.227;5.588
3028676.089;56.215;142.418;60.983;88.885;27.902;19.521;8.754;13.113
3028676.097;56.140;146.851;59.232;85.719;18.999;30.883;17.472;20.154
3028676.105;54.836;145.063;55.805;81.658;13.635;39.525;26.412;26.077
3028676.113;47.982;137.240;45.858;69.663;-2.645;37.402;25.667;20.489
3028676.121;49.584;132.285;54.762;63.367;8.419;29.020;20.489;10.096
3028676.129;54.762;129.268;55.544;72.755;13.895;23.581;17.770;3.651
3028676.137;64.597;148.341;65.528;89.817;22.799;20.750;15.534;1.304
3028676.145;70.557;161.566;72.531;101.179;31.963;12.778;7.078;-1.565
3028676.153;69.179;154.339;68.508;90.599;27.753;6.519;1.416;-5.662
3028676.161;69.775;150.688;72.047;87.023;27.344;4.619;-1.155;-5.737
3028676.169;67.949;139.363;70.781;82.962;26.636;11.884;0.745;0.298
3028676.177;66.347;137.761;68.359;83.447;27.269;24.587;10.915;9.499
3028676.185;65.602;135.675;67.949;87.135;31.255;33.639;18.217;18.924
3028676.193;58.934;137.277;61.281;77.225;26.561;35.018;18.701;20.973
3028676.201;55.209;128.560;63.851;69.477;14.156;31.069;15.162;18.626
3028676.209;54.091;123.903;59.940;65.826;21.495;25.667;10.170;15.385
3028676.217;52.787;120.774;51.782;60.238;20.415;20.154;7.302;9.872
3028676.213;57.444;118.911;58.748;73.649;23.283;15.013;5.476;6.519
3028676.221;64.485;134.446;70.482;86.166;36.694;8.270;3.390;-1.639
3028676.229;71.451;141.673;80.764;83.521;44.443;11.064;9.947;-0.894
3028676.237;68.359;135.973;74.990;81.733;36.508;8.270;9.798;-0.522
3028676.245;64.261;136.048;62.361;79.162;33.453;9.835;8.196;2.980
3028676.253;62.622;129.938;66.459;77.188;29.802;16.950;10.952;12.256
3028676.261;53.905;115.782;57.779;70.557;20.862;18.813;9.201;16.056
3028676.269;43.809;108.369;48.503;70.035;29.206;16.131;2.384;15.683
3028676.277;43.176;110.567;53.942;66.236;24.065;15.907;-0.261;15.311
3028676.285;45.262;116.974;55.619;56.550;20.787;16.838;5.104;13.858
3028676.293;43.251;110.902;54.203;57.705;24.885;14.491;8.531;8.270
3028676.301;46.268;106.059;52.229;69.328;23.842;17.993;15.534;8.345
3028676.309;53.123;109.412;59.791;67.838;24.252;15.981;14.566;6.668
3028676.317;64.075;123.531;66.310;76.480;38.557;18.142;20.973;8.494
3028676.325;72.047;137.538;77.300;86.166;51.931;19.595;27.306;9.574
3028676.333;71.190;133.552;86.538;81.360;53.905;17.062;22.426;10.580
3028676.341;66.273;126.921;69.886;90.078;45.300;14.342;14.640;11.027
3028676.349;67.130;126.623;68.434;90.897;34.869;15.087;11.660;15.981
3028676.357;62.510;120.886;67.055;77.635;33.192;16.578;10.543;18.664
3028676.365;45.411;99.801;54.203;50.403;34.943;13.039;6.966;15.162
3028676.373;36.284;94.958;45.635;43.064;15.274;11.660;6.706;14.603
3028676.381;28.796;83.968;39.004;41.202;17.472;8.978;5.402;9.835
3028676.389;19.968;71.600;28.647;37.737;2.682;5.774;4.768;5.402
3028676.397;24.885;77.523;39.078;39.786;13.970;9.239;11.325;7.115
3028676.408;34.943;84.825;43.511;44.443;28.983;17.546;22.762;14.119
3028676.416;54.687;102.222;63.702;63.032;46.343;27.455;35.912;22.613
3028676.424;54.464;106.953;59.791;69.439;40.978;19.073;29.244;11.735
3028676.432;54.352;104.345;66.273;75.623;39.153;10.841;20.228;4.582
3028676.440;47.982;99.316;63.293;58.860;36.694;6.184;12.703;3.017
3028676.448;37.886;82.627;52.825;46.082;30.845;1.416;3.241;3.688
3028676.456;33.639;77.710;42.878;37.551;25.518;0.782;-1.714;7.935
3028676.464;34.980;83.968;41.835;44.815;17.658;5.700;5.066;13.895
3028676.472;30.026;74.022;41.872;46.231;20.675;8.121;8.233;15.423
3028676.480;29.206;73.984;44.517;35.837;26.077;16.242;16.466;20.899
3028676.488;25.257;68.098;41.723;32.745;19.744;15.348;16.913;19.483
3028676.496;23.991;62.659;35.167;27.940;21.234;14.529;18.775;16.354
3028676.504;24.214;70.706;33.900;40.382;17.732;14.231;22.985;11.660
3028676.512;37.849;88.513;43.958;68.210;28.610;19.260;30.883;15.609
3028676.520;40.382;87.246;51.185;54.948;31.777;20.973;31.330;16.019
3028676.528;40.010;82.515;49.248;42.878;33.416;16.876;23.618;13.001
3028676.536;43.623;83.148;55.730;47.311;34.012;10.692;13.672;12.405
3028676.544;37.700;81.658;48.131;44.778;29.579;2.943;2.161;8.829
3028676.552;26.561;68.136;32.037;41.239;21.346;0.745;-3.278;9.723
3028676.560;23.879;63.665;37.998;35.018;22.054;12.442;9.499;18.664
3028676.568;26.077;68.024;35.278;37.141;18.030;23.022;23.879;23.320
3028676.576;30.547;64.708;33.751;36.918;20.936;28.163;32.932;26.189
3028676.584;35.055;73.649;44.331;44.778;25.183;28.200;34.682;22.985
3028676.592;35.539;76.145;42.096;50.440;28.983;19.483;26.934;13.411
3028676.604;50.664;97.975;55.507;72.345;38.855;19.185;25.630;14.305
3028676.612;57.258;102.594;61.244;75.698;38.892;13.225;18.775;10.766
3028676.620;47.982;81.249;52.080;54.874;28.089;-4.470;-0.261;-2.049
3028676.628;39.078;71.079;42.990;38.221;22.762;-12.405;-10.505;-8.047
3028676.636;35.129;68.732;43.437;37.812;27.940;-12.852;-12.107;-5.811
3028676.644;24.810;60.722;29.765;33.975;17.472;-8.196;-8.158;-2.198
3028676.652;16.354;50.962;17.472;18.924;-3.651;7.749;8.792;7.376
3028676.660;36.657;66.534;40.233;35.204;20.266;24.661;27.977;20.191
3028676.668;34.943;60.275;39.339;29.802;35.949;30.883;35.726;22.873
3028676.676;13.858;38.445;14.752;-4.806;16.801;22.314;28.722;13.821
3028676.684;-2.645;33.043;-2.943;-16.354;-5.662;11.884;17.844;5.700
3028676.692;-20.750;15.609;-18.179;-30.771;-17.397;-8.903;-4.843;-10.841
3028676.700;-34.496;-6.817;-36.582;-45.225;-26.561;-26.226;-25.481;-21.905
3028676.708;-57.295;-38.296;-64.261;-87.619;-42.990;-41.723;-47.982;-32.634
3028676.716;-65.565;-53.011;-69.588;-106.283;-52.974;-48.727;-57.817;-37.998
3028676.724;-54.762;-37.700;-59.716;-93.766;-37.178;-29.802;-35.502;-25.220
3028676.732;-50.403;-37.253;-56.289;-92.052;-31.963;-7.600;-9.872;-12.554
3028676.740;-66.087;-56.811;-68.545;-113.584;-40.159;-4.657;-7.972;-11.325
3028676.748;-84.192;-68.136;-90.003;-127.070;-44.815;-0.522;-6.706;-8.009
3028676.756;-92.126;-79.796;-97.863;-135.563;-58.189;1.229;-3.986;-5.290
3028676.764;-91.977;-80.727;-97.267;-130.869;-57.705;-3.055;-7.600;-10.170
3028676.772;-90.785;-73.388;-98.012;-113.584;-67.055;-9.425;-16.019;-18.030
3028676.780;-80.541;-68.583;-82.478;-108.071;-68.992;-10.505;-18.887;-19.670
3028676.788;-76.145;-67.689;-78.864;-111.684;-45.709;-9.425;-18.924;-22.538
3028676.811;-75.661;-67.465;-78.380;-115.074;-31.106;-8.866;-19.930;-25.667
3028676.819;-71.861;-60.871;-74.618;-111.349;-34.384;-4.023;-15.311;-22.501
3028676.827;-74.506;-64.373;-82.105;-114.925;-41.872;-0.410;-9.686;-18.999
3028676.835;-78.082;-75.065;-86.725;-113.063;-53.123;3.129;-4.284;-12.219
3028676.843;-83.260;-82.105;-85.346;-115.223;-58.450;1.267;-4.768;-10.319
3028676.851;-84.192;-76.070;-84.266;-113.361;-45.784;0.820;-3.129;-8.866
3028676.859;-90.599;-87.358;-99.316;-115.633;-63.628;2.645;-1.155;-7.451
3028676.867;-99.652;-94.920;-105.388;-132.807;-72.829;-3.390;-8.605;-13.933
3028676.875;-92.313;-82.701;-99.875;-114.776;-68.843;3.278;-1.676;-9.872
3028676.883;-82.552;-79.311;-83.894;-96.634;-53.309;9.388;4.470;-7.004
3028676.891;-81.770;-80.317;-88.625;-107.214;-48.354;0.373;-6.147;-13.411
3028676.899;-77.635;-75.921;-87.135;-99.726;-50.925;2.608;-5.849;-7.562
3028676.907;-74.841;-80.802;-78.157;-108.220;-49.323;6.258;-3.353;-2.086
3028676.915;-74.357;-83.297;-77.300;-92.983;-48.168;-2.012;-12.480;-7.004
3028676.923;-75.474;-84.527;-73.835;-84.937;-43.176;-4.023;-13.746;-10.058
3028676.931;-80.615;-92.387;-80.913;-98.981;-51.744;-3.129;-12.033;-9.723
3028676.939;-78.082;-98.571;-80.429;-111.833;-51.633;-2.012;-10.543;-8.680
3028676.947;-80.951;-99.391;-85.160;-122.115;-50.291;2.086;-5.923;-4.917
3028676.955;-80.168;-96.820;-88.811;-104.718;-59.977;11.548;4.433;5.551
3028676.963;-52.080;-66.273;-55.693;-71.749;-36.731;5.551;0.782;0.969
3028676.971;-47.013;-63.628;-48.019;-65.528;-39.078;1.416;-1.043;-2.198
3028676.979;-30.361;-42.394;-31.069;-45.933;-40.047;1.118;0.112;-1.490
3028676.987;-4.657;-9.798;-9.388;-19.036;-20.079;4.210;5.066;1.080
3028676.995;14.640;10.282;11.474;7.525;-8.270;12.256;13.970;9.909
3028676.996;27.828;24.810;23.395;23.060;-9.649;17.807;21.271;13.411
3028677.004;38.743;38.147;29.318;37.923;-4.917;23.544;28.759;15.832
3028677.012;50.887;45.113;45.188;57.444;10.245;37.029;41.537;27.046
3028677.020;62.138;51.893;57.556;61.616;7.488;42.208;44.852;30.845
3028677.028;81.584;75.586;77.635;80.243;25.257;39.898;42.357;31.404
3028677.036;107.288;105.016;103.004;111.647;52.117;41.090;44.815;31.851
3028677.044;116.788;120.401;111.572;129.454;62.250;42.319;49.286;31.181
3028677.052;119.694;124.350;109.300;135.265;56.587;33.565;41.798;23.320
3028677.060;131.652;140.443;123.158;156.201;62.138;33.341;42.766;21.532
3028677.068;136.979;141.263;129.975;157.841;73.388;44.107;52.750;33.379
3028677.076;152.588;158.809;143.498;171.214;88.997;42.059;46.603;33.975
3028677.084;155.419;165.999;151.508;170.283;87.023;43.400;46.454;36.731
3028677.092;152.886;167.713;151.470;178.032;90.972;44.107;47.348;39.451
3028677.100;151.917;160.523;151.619;180.602;89.705;45.039;50.925;40.717
3028677.108;151.396;162.572;140.294;180.230;83.335;41.202;48.019;38.370
3028677.116;145.286;160.001;128.448;171.773;72.196;39.451;46.790;34.422
3028677.124;131.503;138.357;117.943;158.101;69.588;32.634;41.164;27.083
3028677.132;120.029;130.199;112.690;149.161;66.161;21.867;33.416;17.360
3028677.140;101.030;110.827;89.556;126.995;47.311;18.738;30.249;14.752
3028677.148;85.197;82.888;76.145;104.271;24.922;16.987;27.008;16.764
3028677.156;66.273;64.634;54.911;82.739;8.494;14.342;24.363;16.876
3028677.164;53.607;53.160;38.110;66.087;-3.278;16.689;26.599;20.340
3028677.172;44.666;34.273;31.106;51.484;-7.264;17.770;25.332;21.085
3028677.180;41.835;32.037;33.565;59.903;0.969;19.632;25.257;20.713
3028677.202;42.096;28.312;37.178;53.830;7.078;21.495;26.412;19.707
3028677.210;34.273;20.415;29.951;40.196;-4.210;21.942;27.902;17.546
3028677.218;26.077;16.876;20.601;30.212;-17.658;19.819;24.661;18.217
3028677.226;16.019;4.247;8.866;22.165;-26.003;17.509;22.426;18.366
3028677.234;4.247;-11.697;-9.350;14.678;-42.729;14.901;21.569;14.864
3028677.242;9.947;-2.421;-4.433;25.667;-29.765;17.174;24.699;16.727
3028677.250;10.319;-7.711;5.588;22.240;-13.933;16.578;25.518;13.858
3028677.258;11.437;-5.215;3.278;15.683;-18.924;20.042;30.585;13.374
3028677.266;16.838;8.903;10.580;21.979;-27.008;22.538;34.906;11.623
3028677.274;7.115;-12.182;2.012;6.817;-34.757;21.085;34.235;9.611
3028677.282;8.270;-20.042;3.316;9.723;-26.487;6.258;17.956;0.857
3028677.290;-7.488;-24.214;-17.583;7.302;-49.695;7.898;16.317;5.141
3028677.298;-21.979;-39.525;-36.880;-14.678;-62.436;7.935;11.399;9.760
3028677.306;-26.934;-49.882;-37.514;-29.653;-64.783;4.247;5.588;10.021
3028677.314;-37.774;-59.903;-44.554;-30.212;-67.726;0.745;2.049;5.253
3028677.322;-34.571;-57.146;-43.847;-28.014;-67.800;2.496;3.465;4.545
3028677.330;-26.450;-55.283;-35.800;-28.834;-61.765;5.625;7.860;4.359
3028677.338;-28.722;-51.297;-37.774;-15.609;-58.189;4.172;8.270;2.123
3028677.346;-32.634;-53.160;-48.578;-22.165;-64.671;7.488;13.337;2.645
3028677.354;-40.792;-64.224;-47.684;-36.433;-80.429;1.974;8.047;-2.459
3028677.362;-32.932;-45.821;-42.543;-13.039;-62.734;10.096;15.572;5.513
3028677.370;-35.353;-55.097;-48.205;-19.185;-62.250;11.884;18.999;5.811
3028677.378;-42.878;-68.657;-52.825;-36.880;-70.892;5.923;11.995;-0.075
3028677.386;-37.588;-59.940;-48.131;-24.810;-67.316;11.213;15.236;4.470
3028677.369;-33.900;-56.550;-43.400;-19.148;-61.877;20.750;23.060;12.815
3028677.377;-39.637;-63.144;-54.985;-31.069;-83.819;18.030;21.122;11.772
3028677.385;-43.586;-65.826;-57.183;-36.247;-88.997;14.752;18.477;7.041
3028677.393;-36.843;-59.530;-47.386;-22.426;-61.616;16.801;19.781;6.519
3028677.401;-31.516;-55.023;-44.852;-19.372;-63.293;21.942;25.705;8.456
3028677.409;-23.469;-45.635;-37.178;-5.215;-62.510;28.461;30.734;10.878
3028677.417;-17.621;-38.482;-30.473;-6.557;-55.879;36.433;36.582;16.354
3028677.425;-21.495;-43.251;-34.459;-14.976;-55.097;32.857;31.516;12.405
3028677.433;-20.824;-49.956;-28.647;-23.507;-49.509;32.671;30.734;13.076
3028677.441;-22.911;-47.982;-38.333;-13.374;-58.971;28.238;24.773;8.382
3028677.449;-28.536;-49.844;-42.506;-19.744;-61.803;22.799;17.323;3.837
3028677.457;-28.014;-51.856;-39.637;-26.748;-54.166;24.773;19.968;8.605
3028677.465;-29.914;-55.358;-36.918;-26.375;-47.982;22.314;18.254;6.892
3028677.473;-28.424;-60.797;-32.485;-29.355;-55.209;21.346;16.093;7.004
3028677.481;-32.261;-70.184;-39.898;-33.453;-56.624;20.973;15.534;6.370
3028677.489;-29.206;-59.456;-42.543;-22.687;-56.587;19.334;14.342;4.433
3028677.497;-26.040;-62.697;-41.462;-19.297;-57.183;17.621;13.560;3.316
3028677.505;-24.699;-70.147;-38.370;-21.644;-65.267;21.160;16.764;5.551
3028677.513;-20.340;-71.526;-31.739;-16.019;-49.248;22.426;18.552;7.302
3028677.521;-25.891;-91.083;-28.536;-21.048;-40.196;21.532;19.297;7.302
3028677.529;-37.141;-101.402;-37.961;-35.651;-55.842;24.624;23.842;9.462
3028677.537;-29.542;-81.919;-40.419;-19.111;-64.299;21.309;20.452;8.531
3028677.545;-22.389;-73.612;-34.161;-22.724;-48.764;15.870;14.864;2.645
3028677.553;-18.962;-71.786;-28.424;-22.724;-38.706;13.709;13.672;1.304
3028677.563;-10.319;-63.479;-17.323;-21.979;-33.304;15.609;15.832;5.737
3028677.571;-6.929;-70.035;-11.846;-16.131;-27.083;16.317;14.603;8.643
3028677.579;-10.617;-78.529;-13.411;-12.927;-30.659;16.764;14.901;10.245
3028677.587;-15.311;-76.555;-14.603;-20.750;-35.502;10.990;11.884;4.582
3028677.595;-13.262;-73.686;-16.652;-27.493;-31.628;10.170;12.219;4.955
3028677.603;-12.405;-70.073;-20.564;-18.179;-33.602;8.307;10.803;3.353
3028677.611;-18.105;-80.243;-26.487;-20.489;-40.494;2.682;6.929;-0.782
3028677.619;-19.334;-81.025;-19.483;-22.389;-25.406;-1.639;2.682;-2.086
3028677.627;-26.338;-86.501;-28.126;-26.524;-39.376;-3.837;0.075;-3.576
3028677.635;-28.014;-92.499;-29.765;-31.255;-45.300;-2.347;-1.006;-0.298
3028677.643;-27.530;-85.607;-33.267;-27.232;-45.374;-0.782;0.335;1.714
3028677.651;-31.143;-85.868;-37.774;-30.920;-52.713;-5.029;-1.229;-5.402
3028677.659;-24.140;-83.074;-31.702;-19.595;-43.288;-2.384;1.639;-2.161
3028677.667;-14.678;-69.477;-20.228;-13.933;-29.616;3.427;7.376;5.774
3028677.675;-17.807;-75.735;-26.375;-13.597;-24.624;-1.863;2.682;2.682
3028677.683;-17.285;-75.772;-21.271;-15.758;-30.696;-0.447;4.247;5.029
3028677.691;-16.876;-76.741;-20.042;-24.252;-37.476;-0.410;3.390;7.302
3028677.699;-22.016;-89.258;-29.914;-30.212;-41.574;-6.855;-3.837;3.166
3028677.707;-20.862;-85.235;-22.613;-28.536;-29.393;-11.399;-8.084;-1.192
3028677.715;-23.618;-87.246;-25.965;-28.759;-33.863;-14.007;-8.158;-3.800
3028677.723;-26.375;-86.315;-29.467;-34.794;-37.998;-14.603;-6.258;-4.619
3028677.731;-25.928;-88.811;-29.989;-33.714;-37.886;-10.021;-0.075;-0.335
3028677.739;-20.973;-87.507;-24.103;-30.696;-34.645;-3.763;6.296;5.141
3028677.747;-28.089;-89.779;-35.614;-31.181;-45.560;-5.588;2.719;2.794
3028677.773;-11.474;-76.108;-18.589;-18.105;-36.322;-8.531;-0.931;2.272
3028677.781;3.241;-60.610;-1.118;-10.096;-15.609;-10.245;-4.582;3.763
3028677.789;18.030;-48.168;15.683;1.118;5.029;-10.543;-6.631;3.651
3028677.797;41.761;-28.089;49.323;19.260;27.493;-3.017;-2.757;12.405
3028677.805;56.624;-8.792;67.279;30.175;44.443;0.671;1.863;14.156
3028677.813;61.579;5.439;65.491;39.861;38.296;-2.496;2.086;8.456
3028677.821;60.312;4.061;66.347;43.213;35.726;-6.072;2.719;3.055
3028677.829;50.105;-12.331;52.713;35.614;35.129;-8.196;3.986;-0.857
3028677.837;47.982;-10.654;56.028;36.433;31.851;-4.247;8.605;2.459
3028677.845;43.400;-12.442;51.521;33.155;26.599;-9.984;1.453;-4.135
3028677.853;39.712;-17.695;40.755;27.157;18.626;-16.354;-6.184;-10.058
3028677.861;39.563;-21.346;40.084;26.003;29.281;-16.242;-7.860;-9.686
3028677.869;36.582;-23.209;40.717;30.324;31.292;-12.107;-4.582;-6.929
3028677.877;32.708;-22.799;38.892;27.828;22.613;-6.519;-0.782;-1.229
3028677.885;34.384;-20.936;37.476;27.455;15.050;-2.123;1.602;4.619
3028677.893;26.524;-33.155;31.479;12.293;20.638;-7.600;-3.465;1.304
3028677.901;22.911;-41.351;26.785;6.631;13.895;-6.706;-0.149;3.129
3028677.909;19.781;-43.809;25.965;4.955;16.727;-9.947;-1.676;-0.708
3028677.917;23.805;-38.110;18.440;11.548;14.715;-13.262;-3.949;-2.906
3028677.925;28.275;-32.410;19.483;22.985;11.288;-14.156;-2.682;-4.061
3028677.933;31.851;-28.722;29.355;20.042;13.262;-16.429;-5.439;-7.600
3028677.941;31.665;-26.338;32.596;19.148;19.483;-16.876;-7.749;-9.425
3028677.949;30.473;-34.273;31.404;18.813;24.363;-17.919;-12.070;-10.803
3028677.957;23.544;-45.933;24.848;0.261;19.968;-18.701;-11.548;-11.660
3028677.952;37.104;-25.332;33.267;18.105;22.464;-10.952;-1.118;-6.966
3028677.960;43.921;-12.368;40.531;30.361;21.905;-5.104;5.439;-2.198
3028677.968;33.788;-25.444;34.571;20.079;11.213;-7.004;2.757;-3.241
3028677.976;30.287;-37.774;28.051;13.150;13.113;-6.706;2.086;-2.086
3028677.984;33.528;-34.794;39.786;9.015;28.275;-4.694;5.029;-0.037
3028677.992;34.459;-24.512;39.414;15.907;30.287;-8.643;-1.304;-4.061
3028678.000;33.751;-21.979;33.937;16.727;10.729;-14.864;-8.345;-9.425
3028678.008;41.984;-17.621;41.574;26.263;23.879;-5.588;0.112;-1.788
3028678.016;35.651;-32.745;33.341;13.299;31.479;-5.960;-0.410;-3.427
3028678.024;35.986;-26.971;31.926;18.552;24.848;-1.863;3.576;-0.894
3028678.032;32.261;-26.226;33.453;17.211;11.399;2.496;8.643;0.186
3028678.040;21.905;-37.178;26.673;7.190;8.754;-0.782;6.557;-5.290
3028678.048;27.791;-37.178;27.530;10.505;20.787;13.560;18.775;4.321
3028678.056;35.092;-32.410;38.147;8.121;31.292;22.613;24.959;9.947
3028678.064;34.310;-22.128;35.204;14.491;27.157;18.254;17.025;7.711
3028678.072;36.769;-18.254;32.745;19.670;21.718;15.907;12.890;7.935
3028678.080;35.912;-25.295;35.428;19.222;21.458;10.654;6.817;4.917
3028678.088;32.596;-31.739;35.167;12.815;27.493;3.949;1.118;-0.671
3028678.096;28.610;-34.906;28.871;-3.912;18.477;-2.347;-2.384;-7.227
3028678.104;30.957;-33.975;29.318;4.619;18.999;-0.261;2.198;-6.333
3028678.112;31.106;-29.244;29.169;8.903;26.226;4.359;8.196;-6.668
3028678.120;29.095;-29.579;28.685;8.047;18.887;8.941;13.374;-4.023
3028678.128;29.579;-36.098;27.567;8.084;26.897;16.317;18.664;4.172
3028678.136;31.777;-27.306;35.428;6.035;31.404;23.060;22.911;10.505
3028678.134;35.726;-21.979;38.892;14.864;19.111;25.742;25.630;15.609
3028678.142;28.424;-33.528;29.653;4.247;18.068;12.778;14.603;2.831
3028678.150;34.906;-25.220;34.086;5.588;27.008;2.496;5.327;-5.178
3028678.158;37.365;-25.518;33.863;0.000;23.879;-5.290;-2.198;-10.617
3028678.166;38.184;-15.423;36.843;6.668;27.455;-14.231;-12.517;-15.721
3028678.174;42.580;-13.933;39.339;16.950;29.840;-21.905;-21.085;-18.962
3028678.182;40.941;-20.005;36.322;20.303;20.377;-10.021;-7.078;-10.207
3028678.190;33.453;-30.398;33.788;-0.410;14.231;0.261;5.588;-4.061
3028678.198;29.393;-34.571;31.330;0.410;21.383;7.153;15.683;1.676
3028678.206;26.673;-32.410;25.220;0.559;18.589;9.798;19.334;4.284
3028678.214;21.234;-35.800;16.615;-11.064;11.623;5.104;12.740;3.688
3028678.222;17.434;-38.072;13.262;-1.304;9.947;1.416;5.960;2.757
3028678.230;17.099;-46.603;9.835;-15.795;5.700;-2.980;0.410;1.863
3028678.238;27.008;-41.127;30.175;-5.588;16.391;-5.513;-3.465;1.155
3028678.246;38.967;-18.850;42.431;11.325;33.937;-7.153;-6.519;-1.453
3028678.254;41.462;-14.529;41.388;3.986;36.806;-7.488;-6.482;-1.937
3028678.262;40.494;-17.025;32.969;-0.894;29.989;-7.227;-5.811;-1.937
3028678.270;34.198;-25.965;27.120;8.494;18.515;-12.852;-9.276;-7.451
3028678.278;29.244;-29.430;26.003;11.139;12.890;-10.356;-1.974;-5.178
3028678.286;27.269;-24.959;24.885;3.763;25.555;-9.388;2.272;-3.725
3028678.294;20.415;-27.604;17.546;-6.072;11.772;-13.448;1.043;-5.700
3028678.302;15.385;-36.098;12.778;-12.182;7.972;-13.933;0.969;-6.855
3028678.310;17.770;-42.692;14.007;-5.811;9.537;-4.880;8.680;0.671
3028678.318;19.446;-40.755;17.025;-8.903;10.096;-8.345;3.539;-3.912
3028678.328;25.071;-29.914;24.624;0.522;23.432;-12.442;-0.224;-9.425
3028678.336;38.370;-10.915;34.273;10.170;27.604;-5.774;5.811;-2.086
3028678.344;39.302;-9.090;36.582;11.399;28.685;-9.760;0.224;-4.955
3028678.352;39.935;-20.489;43.400;12.629;30.734;-14.678;-5.923;-5.849
3028678.360;38.370;-21.346;39.414;-5.253;33.118;-18.403;-10.356;-5.811
3028678.368;34.273;-16.242;32.671;2.459;32.857;-17.658;-6.743;-6.445
3028678.376;32.894;-15.460;32.708;9.499;26.114;-16.354;-2.980;-6.333
3028678.384;27.940;-23.134;26.375;8.866;21.681;-18.142;-2.496;-9.835
3028678.392;22.203;-32.373;22.948;-1.267;21.979;-16.801;-1.490;-10.915
3028678.400;18.291;-31.479;14.044;-5.849;8.717;-18.887;-4.694;-14.305
3028678.408;19.260;-28.983;15.646;-4.806;12.591;-15.162;-3.353;-11.213
3028678.416;31.665;-12.293;28.424;5.551;30.138;-4.023;6.333;-1.229
3028678.424;32.932;-15.423;34.124;0.261;31.739;-7.600;4.396;-6.370
3028678.432;39.227;-11.511;40.345;15.907;23.730;-8.047;6.072;-5.178
3028678.440;37.998;-16.317;33.155;17.099;22.016;-8.829;4.135;-2.943
3028678.448;26.301;-24.252;21.122;1.378;20.787;-13.635;-3.241;-5.737
3028678.456;21.383;-24.177;18.030;-5.737;12.256;-12.964;-1.453;-2.906
3028678.464;21.234;-24.028;22.091;-6.370;15.013;-11.213;2.459;-2.868
3028678.472;31.516;-19.521;36.955;2.682;30.473;-7.115;8.047;0.522
3028678.480;29.467;-19.968;26.636;8.121;16.242;-4.955;9.462;2.310
3028678.488;23.134;-25.928;17.323;0.000;7.935;-1.788;9.835;4.955
3028678.496;41.462;-10.021;40.568;5.700;36.731;-2.570;7.935;6.333
3028678.504;24.401;-25.667;23.767;-15.162;23.767;-14.044;-2.049;-5.774
3028678.512;3.539;-49.137;0.894;-38.929;6.407;-24.736;-11.772;-15.721
3028678.524;-11.250;-64.149;-18.962;-56.326;-3.912;-32.000;-20.191;-23.320
3028678.532;-32.485;-83.745;-41.015;-83.335;-27.493;-41.649;-31.069;-31.479
3028678.540;-49.993;-109.561;-58.897;-100.583;-42.990;-37.849;-29.393;-24.550
3028678.548;-62.808;-121.407;-67.689;-105.314;-48.280;-37.588;-30.994;-22.054
3028678.556;-66.198;-118.650;-77.188;-113.770;-47.833;-36.582;-31.814;-20.526
3028678.564;-64.820;-115.708;-79.609;-101.402;-48.131;-27.083;-23.246;-13.746
3028678.572;-62.287;-118.911;-69.141;-99.950;-46.305;-27.716;-22.650;-17.062
3028678.580;-59.903;-117.235;-63.106;-98.236;-28.908;-31.441;-25.518;-21.495
3028678.588;-60.722;-110.716;-61.281;-98.124;-31.590;-32.932;-27.642;-24.401
3028678.596;-59.456;-108.331;-63.069;-98.161;-36.731;-32.820;-28.834;-23.656
3028678.604;-63.479;-112.504;-71.116;-100.732;-46.641;-33.788;-32.596;-24.252
3028678.612;-66.161;-114.292;-76.704;-107.810;-47.199;-32.820;-30.510;-24.438
3028678.620;-62.734;-111.610;-74.618;-100.136;-39.563;-33.192;-29.393;-27.455
3028678.628;-62.585;-115.037;-60.648;-95.293;-35.018;-35.316;-32.112;-33.081
3028678.636;-68.396;-127.256;-63.963;-104.830;-39.935;-32.745;-28.536;-32.187
3028678.644;-68.098;-113.137;-70.035;-108.443;-40.755;-29.765;-25.891;-28.051
3028678.652;-61.728;-112.616;-65.230;-100.471;-36.210;-24.736;-21.420;-20.899
3028678.660;-64.187;-114.180;-71.675;-99.391;-49.137;-25.854;-25.034;-21.122
3028678.668;-64.783;-110.716;-76.070;-98.385;-41.127;-26.971;-27.642;-26.077
3028678.676;-55.619;-108.927;-64.000;-86.427;-31.777;-21.458;-21.793;-25.369
3028678.684;-48.317;-100.471;-51.484;-85.793;-21.048;-13.560;-15.460;-20.042
3028678.692;-47.572;-89.705;-43.400;-86.129;-19.111;-10.468;-15.087;-18.962
3028678.700;-45.970;-93.170;-47.199;-75.847;-21.271;-4.321;-10.207;-13.597
3028678.708;-49.993;-98.757;-57.369;-79.870;-38.594;-5.625;-11.064;-15.646
3028678.719;-57.369;-104.718;-65.379;-94.548;-39.190;-17.881;-21.234;-27.940
3028678.727;-53.495;-105.873;-55.954;-93.915;-23.805;-17.770;-19.707;-28.908
3028678.735;-51.670;-101.998;-50.552;-89.630;-11.474;-15.199;-17.956;-25.555
3028678.743;-54.762;-102.781;-60.759;-84.303;-25.183;-8.345;-11.995;-16.727
3028678.751;-50.068;-99.167;-56.736;-84.415;-27.567;-16.876;-19.781;-22.613
3028678.759;-45.821;-92.983;-46.566;-87.917;-23.842;-23.916;-26.971;-26.971
3028678.767;-41.425;-84.937;-38.855;-93.207;-7.600;-17.993;-22.016;-21.905
3028678.775;-47.237;-95.889;-50.589;-110.306;-10.878;-17.695;-21.383;-24.065
3028678.783;-46.082;-100.769;-51.484;-115.708;-9.835;-19.483;-23.283;-24.214
3028678.791;-51.409;-110.380;-56.028;-126.287;-14.976;-21.420;-25.928;-26.114
3028678.799;-57.854;-110.157;-59.828;-125.654;-17.360;-18.962;-24.438;-24.661
3028678.807;-61.207;-110.716;-65.304;-120.737;-11.660;-22.128;-27.791;-25.332
3028678.815;-60.573;-107.624;-68.881;-115.521;-13.597;-20.266;-25.183;-23.618
3028678.823;-56.364;-103.898;-57.146;-113.733;-6.258;-22.352;-25.071;-25.406
3028678.831;-57.034;-106.432;-49.360;-116.751;-5.476;-28.946;-28.238;-34.086
3028678.839;-50.738;-97.938;-45.821;-112.318;1.825;-24.550;-22.277;-28.349
3028678.847;-44.703;-92.536;-43.102;-102.557;-2.384;-21.681;-20.452;-23.283
3028678.855;-47.274;-91.791;-46.864;-104.010;4.917;-23.991;-25.928;-23.991
3028678.863;-57.183;-107.288;-61.914;-108.443;-10.468;-27.604;-33.341;-24.475
3028678.871;-64.224;-114.068;-68.098;-118.539;-19.595;-25.705;-29.653;-24.326
3028678.879;-68.247;-116.453;-66.273;-119.433;-19.111;-27.567;-28.536;-25.593
3028678.887;-64.895;-111.684;-61.579;-116.676;-15.683;-32.224;-29.504;-30.845
3028678.895;-60.797;-109.486;-59.679;-115.819;-10.133;-33.677;-29.020;-32.373
3028678.903;-58.413;-105.575;-56.662;-109.114;-7.302;-34.161;-31.628;-29.504
3028678.913;-55.432;-100.955;-55.805;-100.844;1.565;-30.436;-29.020;-24.214
3028678.921;-59.009;-104.532;-61.132;-107.251;-9.909;-33.937;-32.634;-25.593
3028678.929;-61.020;-112.318;-60.871;-115.447;-13.784;-37.216;-33.304;-29.281
3028678.937;-63.628;-113.212;-63.255;-114.143;-15.609;-39.116;-32.634;-34.235
3028678.945;-57.556;-106.990;-63.144;-111.572;-15.758;-38.669;-29.132;-38.184
3028678.953;-53.346;-102.855;-48.131;-99.428;-6.929;-34.124;-24.326;-37.737
3028678.961;-56.289;-101.849;-51.111;-102.632;-0.410;-33.490;-26.412;-32.634
3028678.969;-66.683;-109.226;-66.571;-108.853;-10.580;-37.476;-32.634;-31.926
3028678.977;-64.299;-115.484;-61.467;-110.045;-12.107;-29.802;-25.779;-23.656
3028678.985;-64.261;-122.078;-63.255;-123.605;-16.093;-27.716;-23.581;-20.228
3028678.993;-59.456;-112.578;-57.705;-111.312;-9.574;-28.051;-23.283;-20.154
3028679.001;-59.642;-109.971;-56.289;-106.022;-0.447;-33.118;-29.281;-23.544
3028679.009;-60.089;-103.749;-57.481;-103.600;-4.582;-35.763;-30.994;-25.928
3028679.017;-55.656;-91.307;-51.223;-91.679;-4.247;-34.906;-27.232;-26.301
3028679.025;-63.777;-109.859;-67.726;-103.004;-15.236;-31.143;-22.762;-24.028
3028679.033;-62.995;-110.306;-60.201;-110.120;-14.417;-35.986;-27.083;-29.355
3028679.041;-45.151;-89.183;-36.843;-96.150;6.482;-38.743;-31.106;-31.404
3028679.049;-33.528;-79.088;-28.387;-86.501;17.360;-36.247;-29.840;-26.561
3028679.057;-26.487;-78.604;-20.117;-88.587;30.659;-41.090;-35.986;-27.567
3028679.065;-27.940;-71.302;-25.220;-92.126;28.759;-42.729;-37.849;-27.642
3028679.073;-28.275;-79.349;-20.824;-97.342;30.063;-41.835;-36.769;-27.530
3028679.081;-14.566;-59.158;-1.080;-73.351;44.852;-35.986;-31.218;-21.830
3028679.089;-16.205;-57.481;-8.568;-70.557;39.004;-35.949;-33.155;-22.203
3028679.097;-22.426;-66.310;-22.836;-84.564;23.656;-36.657;-34.869;-24.922
3028679.092;-26.561;-81.174;-24.550;-91.046;28.126;-35.875;-32.224;-24.550
3028679.100;-29.244;-79.237;-25.667;-89.258;29.430;-34.869;-31.441;-23.916
3028679.108;-18.217;-57.109;-8.270;-71.712;37.514;-28.536;-26.263;-16.280
3028679.116;-14.938;-49.099;-9.462;-59.381;35.018;-24.177;-21.793;-13.895
3028679.124;-19.707;-58.860;-12.219;-68.806;27.493;-24.736;-22.054;-19.483
3028679.132;-25.332;-71.116;-21.011;-83.633;27.269;-31.330;-29.355;-23.209
3028679.140;-30.287;-79.907;-22.240;-83.856;21.793;-35.390;-34.943;-22.836
3028679.148;-31.926;-80.876;-25.332;-85.495;18.217;-34.906;-34.273;-20.340
3028679.156;-33.751;-75.325;-30.585;-85.607;15.870;-38.147;-37.551;-22.128
3028679.164;-38.408;-77.039;-31.702;-88.923;11.101;-40.755;-39.265;-24.661
3028679.172;-40.457;-82.515;-34.943;-94.846;8.903;-41.239;-38.929;-23.879
3028679.180;-33.863;-76.741;-28.238;-81.062;13.597;-37.141;-35.092;-21.346
3028679.188;-31.032;-72.792;-19.856;-77.784;19.111;-42.170;-42.021;-26.114
3028679.196;-20.936;-60.834;-13.784;-68.061;24.289;-33.975;-36.508;-18.328
3028679.204;-25.667;-70.632;-26.748;-68.769;16.689;-30.808;-35.018;-18.403
3028679.212;-21.681;-60.126;-18.999;-68.881;22.277;-24.252;-28.461;-14.305
3028679.220;-27.083;-64.410;-17.621;-76.480;13.225;-27.269;-30.361;-19.073
3028679.228;-36.508;-80.951;-24.438;-87.619;11.064;-31.590;-33.192;-23.916
3028679.236;-32.708;-68.918;-29.840;-84.490;15.199;-20.005;-22.128;-14.789
3028679.244;-28.126;-65.826;-22.724;-83.409;13.560;-8.307;-12.219;-4.843
3028679.252;-32.410;-77.747;-26.301;-79.684;12.852;-11.772;-15.981;-4.843
3028679.260;-39.376;-78.529;-34.310;-84.713;0.894;-22.724;-27.642;-15.385
3028679.268;-31.032;-64.448;-21.309;-73.127;4.135;-18.254;-23.022;-12.703
3028679.276;-29.989;-64.224;-28.014;-77.970;5.439;-15.683;-19.111;-11.511
3028679.303;-30.026;-59.381;-26.412;-73.090;1.863;-17.285;-19.819;-14.752
3028679.311;-23.283;-52.154;-18.291;-56.885;18.217;-15.981;-18.552;-13.523
3028679.319;-23.618;-55.321;-20.862;-63.963;19.111;-14.678;-16.950;-13.895
3028679.327;-26.599;-68.955;-20.862;-68.583;4.023;-13.448;-17.621;-12.405
3028679.335;-28.387;-61.989;-15.125;-73.947;0.149;-11.101;-17.993;-11.623
3028679.343;-25.146;-49.546;-10.319;-58.636;14.789;-11.697;-18.626;-14.938
3028679.351;-23.842;-50.776;-17.583;-61.467;19.893;-9.835;-16.280;-15.125
3028679.359;-29.951;-58.152;-26.338;-74.543;12.107;-10.990;-18.962;-17.434
3028679.367;-40.755;-77.561;-24.959;-85.458;1.229;-16.652;-25.891;-20.638
3028679.375;-33.602;-68.992;-22.575;-73.463;-4.396;-18.477;-27.381;-20.638
3028679.383;-32.447;-64.299;-26.934;-69.253;-6.147;-15.385;-25.108;-17.770
3028679.391;-31.181;-61.914;-28.759;-60.536;-16.429;-16.354;-26.040;-19.819
3028679.399;-32.410;-63.330;-32.969;-64.187;-17.248;-18.775;-26.375;-22.911
3028679.407;-35.241;-60.722;-35.278;-69.886;-22.836;-14.864;-19.632;-18.552
3028679.415;-32.820;-63.218;-32.447;-75.586;-25.518;-9.909;-12.927;-14.603
3028679.423;-23.842;-52.564;-24.065;-58.711;-13.746;-1.825;-4.433;-7.749
3028679.431;-22.985;-48.950;-21.234;-49.435;-8.941;-4.061;-7.115;-9.239
3028679.439;-26.003;-54.017;-22.724;-48.056;-7.786;-2.533;-7.674;-8.047
3028679.447;-24.810;-52.042;-23.283;-44.815;-10.952;-3.129;-8.903;-6.184
3028679.455;-25.854;-54.613;-27.679;-49.621;-17.397;-8.866;-13.635;-10.617
3028679.463;-29.095;-55.023;-28.312;-61.616;-14.827;-15.050;-19.222;-17.099
3028679.471;-33.714;-59.009;-28.536;-65.081;-16.801;-16.578;-21.197;-17.919
3028679.479;-33.118;-56.401;-32.447;-52.303;-26.673;-11.250;-12.815;-14.901
3028679.487;-38.445;-61.803;-38.520;-60.052;-38.855;-12.629;-11.772;-15.609
3028679.483;-39.339;-58.375;-32.112;-61.616;-21.160;-11.325;-9.127;-13.933
3028679.491;-38.370;-62.771;-34.384;-62.920;-15.758;-6.929;-4.135;-8.941
3028679.499;-41.761;-67.838;-37.849;-63.814;-23.730;-7.935;-7.786;-7.339
3028679.507;-40.978;-63.963;-32.373;-64.671;-18.701;-10.990;-11.511;-9.239
3028679.515;-40.755;-60.201;-36.992;-63.181;-24.997;-11.809;-11.623;-9.425
3028679.523;-36.843;-58.599;-36.806;-60.610;-25.369;-12.331;-10.356;-9.909
3028679.531;-39.712;-61.877;-39.972;-62.548;-35.353;-17.509;-14.529;-16.466
3028679.539;-33.975;-53.346;-30.883;-52.601;-27.530;-13.970;-11.586;-11.213
3028679.547;-37.961;-58.301;-35.949;-55.321;-28.312;-12.815;-10.319;-8.941
3028679.555;-38.184;-63.591;-29.840;-64.224;-23.693;-14.640;-11.735;-9.499
3028679.563;-30.920;-53.830;-22.985;-60.573;-7.078;-8.196;-5.625;-3.316
3028679.571;-33.937;-51.148;-28.051;-56.028;-17.732;-11.139;-7.972;-4.321
3028679.579;-32.634;-48.988;-34.459;-48.429;-26.934;-11.772;-7.451;-3.688
3028679.587;-26.524;-46.678;-28.387;-39.190;-22.054;-10.356;-4.917;-4.433
3028679.595;-27.642;-49.174;-24.922;-40.792;-11.548;-14.715;-9.909;-8.941
3028679.603;-24.401;-47.572;-21.122;-46.976;-17.919;-12.703;-7.227;-6.892
3028679.611;-29.616;-50.254;-20.489;-57.220;-15.758;-16.578;-11.846;-7.860
3028679.619;-30.361;-55.060;-19.968;-54.426;-7.004;-14.193;-11.027;-4.247
3028679.627;-28.647;-49.323;-21.122;-52.527;-10.803;-11.586;-8.494;-1.304
3028679.635;-28.126;-49.993;-20.936;-53.011;-9.127;-16.764;-12.964;-4.992
3028679.643;-27.381;-48.019;-21.942;-44.480;-6.445;-23.209;-18.030;-10.803
3028679.651;-22.352;-36.731;-15.050;-38.147;-13.821;-19.073;-11.474;-9.909
3028679.659;-21.383;-37.774;-15.013;-36.322;-17.397;-18.813;-10.952;-8.866
3028679.667;-26.412;-50.180;-17.434;-49.435;-9.276;-20.862;-14.529;-9.798
3028679.678;-30.696;-56.215;-21.532;-54.725;-7.600;-28.089;-22.314;-15.758
3028679.686;-28.573;-46.007;-21.942;-52.452;-10.878;-29.132;-23.991;-14.454
3028679.694;-27.195;-43.027;-19.483;-45.151;-21.420;-30.436;-26.897;-14.864
3028679.702;-21.756;-42.208;-9.649;-39.488;-11.586;-27.046;-23.507;-10.990
3028679.710;-27.865;-44.219;-15.870;-45.821;-5.066;-31.553;-26.077;-14.789
3028679.718;-27.791;-48.615;-18.179;-47.833;-14.268;-34.533;-25.183;-18.999
3028679.726;-26.971;-44.517;-14.603;-42.431;-11.511;-34.794;-24.289;-21.383
3028679.734;-26.301;-40.568;-18.813;-40.159;-14.864;-32.261;-23.097;-19.521
3028679.742;-25.891;-39.451;-17.919;-41.947;-17.919;-31.628;-22.762;-18.813
3028679.750;-30.473;-43.176;-25.555;-40.755;-23.469;-30.771;-21.197;-19.707
3028679.758;-23.581;-35.353;-18.217;-36.247;-18.217;-26.450;-20.042;-14.044
3028679.766;-16.801;-31.292;-4.843;-38.557;-5.588;-28.573;-24.289;-14.603
3028679.774;-28.014;-43.698;-15.311;-47.870;-11.958;-23.842;-19.297;-11.586
3028679.782;-24.810;-37.700;-21.718;-48.652;-22.091;-16.727;-11.139;-5.066
3028679.790;-20.973;-34.943;-15.683;-43.139;-19.111;-17.881;-9.313;-8.084
3028679.798;-23.209;-36.769;-14.640;-50.701;-16.503;-25.705;-16.354;-15.125
3028679.806;-16.205;-32.298;-8.643;-32.522;-15.683;-24.959;-16.429;-15.944
3028679.814;-12.070;-23.581;-9.276;-25.257;-19.222;-20.973;-12.703;-14.491
3028679.822;-17.434;-29.281;-15.832;-33.416;-16.987;-22.613;-15.572;-15.199
3028679.830;-24.959;-39.823;-14.678;-49.956;-9.947;-19.781;-13.150;-14.305
3028679.838;-29.877;-46.380;-21.830;-55.581;-20.415;-20.973;-14.789;-16.205
3028679.846;-34.869;-48.093;-32.671;-49.062;-38.669;-24.289;-19.632;-19.372
3028679.854;-32.000;-39.227;-24.773;-42.096;-34.831;-24.214;-18.924;-19.334
3028679.862;-30.622;-46.827;-23.432;-46.790;-29.467;-26.412;-20.303;-19.632
3028679.873;-36.061;-55.656;-27.083;-54.426;-24.512;-26.301;-21.532;-19.781
3028679.881;-35.316;-43.437;-24.699;-50.664;-25.406;-23.358;-19.334;-17.695
3028679.889;-33.975;-40.531;-29.542;-51.670;-35.539;-25.295;-19.819;-19.670
3028679.897;-41.090;-48.950;-38.631;-59.865;-47.013;-30.957;-27.642;-26.338
3028679.905;-34.422;-41.723;-25.854;-53.123;-38.482;-26.226;-25.406;-25.220
3028679.913;-31.963;-43.102;-16.466;-46.939;-18.142;-26.897;-24.028;-27.232
3028679.921;-41.723;-57.779;-34.384;-52.601;-37.700;-30.510;-25.742;-29.467
3028679.929;-55.321;-68.285;-46.641;-76.704;-50.627;-35.763;-31.926;-33.900
3028679.937;-52.415;-60.387;-42.208;-77.337;-48.466;-32.112;-28.610;-31.814
3028679.945;-45.560;-51.334;-36.620;-61.356;-42.506;-25.481;-21.681;-26.636
3028679.953;-40.419;-43.772;-35.167;-51.446;-37.216;-21.644;-19.595;-25.146
3028679.961;-47.572;-55.768;-40.680;-66.869;-40.717;-25.257;-25.406;-27.269
3028679.969;-55.283;-68.732;-36.806;-71.004;-44.331;-26.375;-29.504;-27.306
3028679.977;-68.322;-74.692;-52.042;-89.332;-57.369;-34.273;-38.855;-36.508
3028679.985;-64.932;-64.299;-47.162;-87.805;-48.205;-26.636;-29.318;-32.596
3028679.993;-82.143;-80.802;-52.713;-82.590;-52.862;-24.885;-27.306;-33.081
3028680.001;-91.530;-87.768;-58.897;-93.132;-57.220;-25.406;-30.287;-32.485
3028680.009;-78.492;-73.425;-45.486;-83.894;-44.778;-17.025;-23.022;-25.481
3028680.017;-82.031;-74.282;-48.764;-87.917;-42.766;-8.717;-11.325;-19.968
3028680.025;-98.608;-83.409;-58.897;-91.828;-66.608;-13.746;-19.036;-22.501
3028680.033;-95.703;-79.870;-54.091;-97.007;-57.817;-9.537;-14.901;-20.377
3028680.041;-100.248;-86.017;-48.541;-119.619;-39.376;-9.127;-13.523;-19.483
3028680.049;-120.811;-104.308;-62.659;-126.809;-53.309;-13.001;-18.850;-21.979
3028680.057;-151.470;-135.973;-88.550;-163.689;-79.311;-30.063;-40.308;-39.004
3028680.055;-147.820;-129.640;-88.327;-158.511;-92.350;-30.063;-42.059;-35.241
3028680.063;-146.963;-126.250;-85.980;-181.347;-84.490;-24.661;-37.141;-29.877
3028680.071;-143.684;-123.233;-77.225;-187.568;-67.875;-17.844;-29.691;-24.363
3028680.079;-151.433;-128.523;-81.882;-185.743;-83.894;-20.079;-28.871;-26.561
3028680.087;-154.637;-134.259;-86.278;-199.229;-91.381;-23.581;-32.969;-27.455
3028680.095;-155.121;-135.712;-85.682;-206.865;-94.734;-23.097;-33.006;-24.959
3028680.103;-147.335;-126.325;-84.080;-204.667;-87.507;-19.781;-27.530;-22.314
3028680.111;-151.545;-131.093;-82.962;-218.190;-98.757;-25.220;-33.528;-27.865
3028680.119;-161.193;-144.951;-93.207;-237.413;-116.676;-27.083;-32.783;-31.181
3028680.127;-144.318;-126.399;-81.658;-216.775;-114.478;-21.979;-26.114;-29.467
3028680.135;-139.438;-122.562;-75.102;-224.374;-95.777;-31.367;-31.851;-37.067
3028680.143;-144.802;-128.075;-78.268;-236.519;-98.944;-39.972;-40.904;-42.468
3028680.151;-130.236;-120.550;-62.473;-239.275;-84.415;-33.751;-37.476;-31.069
3028680.159;-121.146;-102.781;-58.338;-217.482;-87.768;-34.422;-40.606;-26.599
3028680.167;-123.307;-118.315;-61.952;-235.848;-89.332;-38.408;-45.374;-28.089
3028680.175;-122.115;-115.559;-61.840;-239.834;-91.568;-29.095;-35.428;-17.956
3028680.183;-147.261;-130.422;-88.625;-254.847;-147.074;-36.806;-39.712;-28.871
3028680.191;-122.525;-111.051;-63.181;-246.614;-116.229;-27.381;-27.455;-24.550
3028680.199;-105.798;-101.216;-36.694;-226.870;-84.601;-19.148;-17.583;-19.111
3028680.207;-122.488;-118.725;-58.077;-251.979;-101.849;-26.450;-23.320;-25.555
3028680.215;-119.060;-113.919;-58.487;-250.041;-123.717;-26.003;-24.326;-24.512
3028680.223;-142.045;-129.417;-88.364;-261.813;-181.198;-40.531;-39.078;-39.637
3028680.231;-131.167;-112.578;-77.076;-241.287;-179.298;-35.614;-37.812;-33.043
3028680.239;-122.115;-116.862;-57.928;-255.443;-150.651;-26.636;-28.610;-25.667
3028680.248;-140.183;-135.154;-73.276;-280.663;-172.555;-42.133;-41.910;-40.755
3028680.256;-137.463;-130.869;-72.569;-279.918;-182.986;-39.414;-39.339;-35.018
3028680.264;-145.324;-133.850;-87.246;-276.007;-212.826;-45.374;-45.002;-38.818
3028680.272;-142.790;-133.403;-86.166;-272.878;-222.623;-40.494;-41.053;-34.198
3028680.280;-150.092;-138.879;-87.768;-296.123;-231.788;-37.551;-39.376;-31.218
3028680.288;-122.301;-108.778;-54.911;-267.215;-199.266;-31.404;-32.671;-28.163
3028680.296;-137.053;-126.958;-66.385;-281.222;-225.194;-41.425;-40.755;-39.265
3028680.304;-145.957;-138.581;-78.976;-292.547;-236.556;-42.841;-41.611;-44.182
3028680.312;-146.478;-132.509;-83.931;-294.261;-242.665;-39.116;-36.918;-38.408
3028680.320;-141.114;-129.193;-73.873;-291.653;-246.763;-32.932;-30.994;-30.845
3028680.328;-148.825;-135.191;-83.894;-285.879;-252.053;-36.508;-34.608;-36.471
3028680.336;-151.917;-132.918;-84.527;-284.649;-260.174;-38.072;-38.780;-36.471
3028680.344;-158.288;-134.371;-87.135;-291.280;-258.572;-39.600;-42.208;-37.737
3028680.352;-168.569;-148.788;-100.210;-306.331;-276.566;-39.116;-41.723;-36.135
3028680.360;-166.483;-148.155;-97.305;-305.548;-273.213;-32.298;-34.943;-30.771
3028680.368;-169.389;-146.329;-99.204;-305.995;-279.993;-28.126;-29.542;-30.175
3028680.376;-161.640;-140.965;-86.240;-294.782;-264.384;-20.079;-18.589;-22.501
3028680.384;-168.569;-140.592;-97.491;-295.602;-275.858;-25.481;-21.011;-27.306
3028680.392;-172.220;-149.943;-98.757;-295.602;-273.027;-25.481;-20.824;-28.275
3028680.400;-169.501;-142.083;-94.920;-294.633;-279.360;-13.225;-8.866;-18.552
3028680.408;-172.295;-141.002;-96.858;-292.212;-295.155;-8.792;-4.694;-15.981
3028680.416;-181.012;-150.986;-104.532;-299.029;-292.957;-14.603;-11.362;-20.005
3028680.424;-181.682;-148.565;-107.512;-298.992;-299.066;-14.640;-11.921;-22.352
3028680.432;-174.530;-140.555;-104.569;-284.947;-290.908;-16.652;-14.082;-24.810
3028680.458;-174.008;-142.679;-100.955;-275.262;-286.773;-20.377;-19.632;-26.040
3028680.466;-172.220;-144.169;-99.093;-268.556;-286.698;-17.881;-19.968;-22.054
3028680.474;-170.842;-138.842;-98.571;-269.972;-288.710;-22.687;-26.897;-23.507
3028680.482;-170.991;-144.169;-103.861;-271.834;-294.559;-28.834;-31.665;-29.989
3028680.490;-163.391;-133.440;-99.540;-253.804;-290.796;-20.787;-20.936;-26.487
3028680.498;-137.463;-102.967;-76.331;-223.741;-262.335;-18.366;-16.280;-25.816
3028680.506;-113.584;-83.409;-65.193;-203.550;-248.216;-13.337;-12.144;-22.650
3028680.514;-98.869;-79.088;-56.699;-194.535;-243.969;-12.666;-13.523;-21.867
3028680.522;-98.124;-90.636;-62.846;-192.299;-248.104;-13.970;-14.864;-23.618
3028680.530;-87.321;-78.678;-57.295;-182.725;-249.408;-12.517;-12.815;-22.836
3028680.538;-76.033;-62.510;-47.497;-161.640;-230.148;-15.795;-15.125;-25.295
3028680.546;-69.439;-50.738;-50.627;-141.673;-226.833;-21.756;-18.887;-30.734
3028680.554;-65.342;-46.566;-47.833;-134.036;-216.924;-24.401;-21.830;-31.739
3028680.562;-62.026;-48.764;-46.045;-139.289;-208.169;-21.681;-22.538;-27.046
3028680.570;-55.879;-49.844;-36.769;-134.520;-200.905;-15.199;-20.936;-18.403
3028680.578;-46.380;-44.778;-28.685;-120.476;-183.471;-9.649;-18.738;-13.150
3028680.586;-41.500;-36.396;-32.634;-113.994;-186.078;-6.743;-16.168;-13.113
3028680.594;-37.961;-22.203;-32.745;-100.695;-180.267;-9.090;-17.397;-16.429
3028680.602;-24.848;-8.009;-24.438;-91.642;-165.440;-4.545;-12.442;-16.503
3028680.610;-13.113;-5.998;-26.785;-84.490;-164.732;4.992;-2.459;-11.958
3028680.618;-6.780;-7.637;-21.122;-77.933;-155.866;10.394;4.135;-9.425
3028680.626;-6.668;-10.096;-14.082;-77.933;-152.588;6.817;1.676;-13.337
3028680.634;-3.725;-12.219;-13.858;-86.315;-144.243;6.296;0.559;-14.678
3028680.642;2.868;10.692;-5.998;-61.095;-134.036;8.494;1.080;-14.417
3028680.640;9.052;22.165;-2.682;-40.643;-128.821;10.878;1.304;-12.107
3028680.648;9.909;13.374;-0.820;-49.435;-124.499;6.892;-5.029;-15.385
3028680.656;13.411;13.225;-0.075;-46.194;-120.774;8.605;-4.731;-12.368
3028680.664;16.429;19.036;5.104;-46.343;-117.607;13.560;-1.378;-5.700
3028680.672;16.503;21.048;1.118;-39.935;-111.721;18.552;4.917;-1.378
3028680.680;6.706;16.466;0.261;-45.672;-107.996;5.886;-5.551;-11.548
3028680.688;15.125;20.526;4.284;-43.400;-100.024;7.004;-0.410;-9.425
3028680.696;24.661;32.037;8.345;-25.369;-94.213;10.915;7.413;-5.886
3028680.704;22.240;27.120;9.872;-27.344;-102.781;11.586;7.227;-4.135
3028680.712;19.297;21.718;8.084;-34.384;-97.156;9.686;3.874;-5.811
3028680.720;22.464;25.220;9.052;-33.192;-86.762;12.852;7.339;-0.298
3028680.728;19.968;25.108;-0.447;-28.722;-95.293;10.766;4.619;-0.596
3028680.736;18.366;23.171;2.831;-31.367;-88.289;6.892;-0.335;-5.104
3028680.744;26.301;29.840;15.497;-21.458;-75.810;7.004;-0.075;-5.066
3028680.752;25.257;28.200;13.225;-13.113;-78.939;3.092;-2.161;-9.201
3028680.760;25.742;32.745;12.070;-21.569;-73.873;-0.224;-4.545;-8.978
3028680.768;21.383;24.438;6.519;-25.071;-75.214;1.565;-2.980;-5.402
3028680.776;18.924;28.946;6.184;-23.507;-82.925;4.098;1.751;-3.912
3028680.784;26.263;39.600;15.870;-12.890;-73.649;9.835;9.425;2.980
3028680.792;30.622;35.986;17.919;-5.849;-54.426;7.600;8.568;2.235
3028680.800;29.467;29.132;13.448;-8.158;-65.714;5.439;7.898;1.490
3028680.808;24.326;29.877;11.735;-11.995;-67.838;2.719;4.843;-0.298
3028680.816;22.873;36.918;8.941;1.863;-65.491;-1.341;0.969;-5.029
3028680.824;22.873;36.918;7.451;-2.757;-65.230;-3.763;-2.570;-5.104
3028680.848;1.565;11.213;-11.735;-31.255;-76.704;-6.147;-7.041;-7.004
3028680.856;-21.122;-18.328;-37.625;-56.140;-102.520;-14.007;-14.082;-14.864
3028680.864;-32.894;-35.837;-47.646;-68.545;-112.802;-20.377;-21.607;-20.973
3028680.872;-45.747;-48.764;-59.903;-74.767;-125.952;-21.867;-22.799;-23.991
3028680.880;-49.509;-53.123;-69.402;-78.529;-137.836;-20.042;-17.993;-21.830
3028680.888;-46.939;-50.105;-65.304;-73.016;-132.918;-13.672;-9.276;-15.609
3028680.896;-48.392;-52.862;-66.608;-75.959;-127.032;-9.723;-4.694;-12.778
3028680.904;-46.492;-56.848;-62.883;-60.797;-121.109;-6.072;0.410;-10.096
3028680.912;-44.741;-45.151;-60.797;-50.105;-115.000;-3.725;2.533;-7.860
3028680.920;-49.360;-37.253;-72.978;-57.630;-125.468;-9.164;-3.725;-11.027
3028680.928;-46.715;-41.686;-59.120;-56.885;-104.718;-11.735;-8.531;-12.480
3028680.936;-39.525;-41.686;-44.741;-54.725;-85.346;-12.070;-10.878;-10.133
3028680.944;-40.308;-38.929;-45.635;-50.589;-94.064;-16.317;-14.901;-13.299
3028680.952;-44.145;-39.861;-53.309;-51.372;-100.397;-15.311;-12.331;-15.050
3028680.960;-37.365;-46.045;-45.747;-47.944;-92.015;-3.204;-0.745;-4.470
3028680.968;-45.374;-50.031;-50.031;-49.844;-91.456;-10.394;-6.892;-12.405
3028680.976;-46.939;-37.439;-55.283;-53.644;-93.319;-12.927;-8.121;-14.305
3028680.984;-41.462;-31.851;-52.787;-38.370;-98.646;-8.531;-2.235;-10.170
3028680.992;-37.178;-32.932;-41.053;-36.955;-80.541;-4.359;2.943;-7.004
3028681.000;-32.037;-30.734;-28.461;-33.453;-63.106;1.453;8.568;-2.496
3028681.008;-33.751;-32.671;-31.888;-29.951;-72.196;-0.931;5.253;-6.147
3028681.016;-25.667;-25.816;-29.467;-25.146;-64.038;-1.714;5.104;-5.402
3028681.024;-17.174;-14.789;-21.011;-12.070;-58.785;0.447;8.196;-1.639
3028681.032;-22.985;-18.403;-26.897;-20.005;-63.069;-5.178;4.321;-6.966
3028681.016;-20.154;-8.345;-24.475;-12.293;-56.513;-9.425;-0.298;-8.643
3028681.024;-22.389;-10.692;-29.914;-6.147;-60.908;-8.605;-0.708;-9.686
3028681.032;-23.730;-18.701;-30.138;-12.293;-61.356;-3.316;4.731;-4.917
3028681.040;-25.332;-20.564;-21.979;-9.388;-42.915;-1.937;5.215;-2.049
3028681.048;-27.791;-23.954;-22.873;-15.609;-40.643;-2.794;4.061;-1.527
3028681.056;-29.653;-30.510;-22.911;-24.028;-45.560;-3.278;3.837;0.261
3028681.064;-33.043;-26.077;-30.696;-25.928;-58.524;-5.253;1.341;-2.682
3028681.072;-30.100;-17.323;-32.373;-14.156;-50.962;-8.568;-1.043;-6.370
3028681.080;-31.143;-22.650;-36.508;-5.402;-56.550;-12.033;-3.688;-9.723
3028681.088;-30.659;-26.971;-32.000;-10.766;-54.315;-12.964;-5.290;-11.325
3028681.096;-23.618;-16.727;-19.111;-7.898;-33.975;-8.680;-1.565;-5.849
3028681.104;-25.593;-13.337;-25.444;-6.817;-36.694;-3.576;2.347;-2.161
3028681.112;-30.957;-24.699;-22.203;-10.096;-46.380;-7.004;-2.012;-5.886
3028681.120;-26.673;-21.793;-17.472;-5.327;-35.465;-6.035;-0.224;-6.072
3028681.128;-23.879;-10.021;-22.314;2.161;-29.616;-8.233;-1.974;-9.201
3028681.136;-24.065;-13.188;-24.810;3.763;-37.551;-9.909;-2.645;-10.543
3028681.144;-20.526;-15.981;-15.087;-5.849;-30.734;-10.021;-1.825;-11.735
3028681.152;-10.915;-4.657;-4.992;4.619;-15.050;-8.121;-0.931;-7.972
3028681.160;-7.078;1.378;-2.496;10.431;-11.511;-4.731;2.012;-4.396
3028681.168;-13.635;-11.288;-8.605;7.749;-15.795;-8.866;-1.341;-8.941
3028681.176;-17.732;-22.687;-11.772;-1.080;-24.475;-15.460;-9.537;-14.789
3028681.184;-21.979;-14.789;-19.260;-0.969;-25.705;-24.885;-19.372;-23.916
3028681.192;-16.354;-9.313;-11.362;-0.224;-24.587;-22.128;-17.099;-21.979
3028681.200;-10.058;-5.253;-2.421;6.445;-12.107;-16.354;-11.437;-17.546
3028681.209;-8.456;-3.502;-3.166;15.274;-3.241;-12.070;-9.425;-15.125
3028681.217;-0.969;5.923;5.327;26.748;6.519;-4.768;-4.731;-7.935
3028681.225;-3.539;4.955;4.508;25.779;-2.421;-2.608;-5.588;-6.631
3028681.233;-9.909;-7.972;-8.345;16.317;-20.526;-3.725;-8.754;-8.382
3028681.241;-9.276;-13.150;-3.912;11.995;-7.153;-0.298;-4.955;-7.786
3028681.249;-7.972;3.017;1.527;16.838;4.992;-2.496;-7.749;-11.362
3028681.257;-4.545;7.339;0.000;24.624;-0.484;-2.384;-9.611;-10.170
3028681.265;-6.109;0.000;-3.092;22.389;-6.855;-5.588;-10.580;-12.182
3028681.273;-1.043;11.101;5.774;26.561;4.433;-9.090;-13.709;-12.219
3028681.281;0.745;10.319;8.903;21.309;12.517;-9.686;-16.280;-13.001
3028681.289;7.264;6.929;14.529;24.289;8.084;-8.903;-14.827;-12.778
3028681.297;6.258;-0.075;15.311;22.165;9.090;-1.080;-7.860;-6.035
3028681.305;11.660;17.174;21.309;37.774;23.842;4.619;-2.757;-3.278
3028681.313;20.787;36.731;22.128;62.510;21.420;7.451;1.788;-0.820
3028681.321;5.327;18.366;9.760;49.695;0.522;4.098;0.857;-3.651
3028681.329;-4.806;4.992;-1.863;39.078;-11.586;-1.006;-2.384;-8.047
3028681.337;-11.995;2.533;-15.870;33.490;-28.871;-0.596;-0.447;-6.557
3028681.345;-24.512;-9.350;-33.081;22.650;-48.392;-0.484;1.229;-7.451
3028681.353;-32.820;-20.601;-42.431;18.924;-65.453;-1.974;2.012;-9.350
3028681.361;-40.047;-34.086;-46.566;15.683;-61.356;-9.090;-4.396;-14.864
3028681.369;-39.302;-28.498;-45.449;10.319;-55.209;-12.182;-9.015;-16.727
3028681.377;-30.436;-13.709;-38.669;29.765;-52.452;-13.597;-11.548;-17.658
3028681.385;-29.095;-12.591;-40.531;34.533;-56.811;-10.058;-7.115;-14.603
3028681.393;-24.065;-15.199;-26.971;29.430;-33.490;-5.029;-2.347;-9.499
3028681.417;-23.171;-11.027;-18.813;34.198;-23.097;-3.874;-1.416;-7.525
3028681.425;-38.370;-23.730;-35.428;18.887;-44.145;-14.491;-12.517;-16.093
3028681.433;-42.133;-36.284;-43.586;13.635;-50.552;-12.740;-9.611;-13.746
3028681.441;-31.926;-20.452;-29.951;30.063;-40.643;-9.835;-4.135;-11.697
3028681.449;-32.075;-13.337;-27.642;35.018;-32.037;-18.030;-8.382;-17.919
3028681.457;-38.259;-24.028;-35.912;27.046;-36.955;-20.713;-10.282;-21.458
3028681.465;-38.929;-18.924;-40.010;33.043;-46.156;-22.724;-10.096;-24.289
3028681.473;-38.184;-25.146;-41.388;28.461;-41.574;-20.601;-6.557;-20.489
3028681.481;-34.943;-20.936;-35.353;26.338;-36.992;-13.970;-1.304;-12.890
3028681.489;-38.035;-20.154;-37.961;27.865;-49.695;-20.824;-11.064;-15.907
3028681.497;-43.400;-31.404;-43.102;20.489;-48.392;-23.171;-15.013;-15.423
3028681.505;-39.078;-33.230;-35.278;22.054;-41.649;-24.624;-15.311;-21.048
3028681.513;-31.888;-25.816;-24.736;25.891;-31.106;-22.277;-11.772;-18.589
3028681.521;-20.340;-10.207;-13.784;37.812;-16.317;-7.749;2.868;-4.061
3028681.529;-23.060;-9.798;-17.025;35.018;-13.635;-11.548;1.788;-10.803
3028681.537;-16.391;0.596;-11.511;44.852;-12.890;-7.488;5.811;-6.035
3028681.545;-15.125;-2.608;-11.846;41.462;-16.727;-1.900;12.219;1.416
3028681.553;-26.003;-16.652;-19.819;28.647;-32.857;-15.050;0.149;-12.852
3028681.561;-30.026;-16.503;-21.532;32.522;-35.986;-24.401;-12.703;-20.973
3028681.569;-16.838;-2.794;-10.952;38.035;-20.787;-11.809;-1.453;-3.166
3028681.577;-27.679;-18.589;-15.236;21.867;-34.198;-18.924;-9.611;-7.823
3028681.585;-19.781;-9.350;-1.118;43.176;-19.483;-12.070;-3.800;4.210
3028681.593;10.058;37.439;39.265;79.162;54.166;19.036;26.524;41.053
3028681.601;-34.235;-0.186;-3.278;39.302;-13.858;-2.831;10.505;12.033
3028681.599;-52.825;-26.748;-17.136;8.121;-27.940;-17.099;-0.745;-7.227
3028681.607;-14.007;5.849;40.866;34.012;54.240;29.504;39.078;46.343
3028681.615;-59.195;-31.963;-0.522;17.323;-21.905;0.373;17.881;1.490
3028681.623;-93.021;-51.744;-33.043;-20.713;-76.517;-29.318;-9.239;-34.869
3028681.631;-63.442;-22.352;7.041;-7.302;-20.154;8.419;19.111;16.280
3028681.639;-26.263;5.364;50.776;15.758;40.494;48.429;48.839;77.337
3028681.647;-60.499;-26.189;10.505;-20.899;-30.808;10.617;16.876;16.317
3028681.655;-81.621;-41.835;-16.950;-30.547;-84.043;-4.545;5.774;-3.912
3028681.663;-69.067;-35.428;1.006;-46.715;-53.532;-1.416;4.321;11.735
3028681.671;-60.350;-28.722;8.978;-46.492;-52.527;35.353;37.923;56.662
3028681.679;-99.428;-60.871;-48.056;-64.746;-166.893;0.261;13.076;-3.241
3028681.687;-117.384;-77.821;-60.387;-77.821;-164.248;-11.623;1.192;-22.501
3028681.695;-160.635;-122.003;-106.841;-129.342;-233.725;-31.441;-17.397;-49.211
3028681.703;-84.937;-46.641;-29.393;-61.095;-113.174;44.592;48.615;42.059
3028681.711;-102.557;-69.290;-41.388;-92.722;-154.488;36.992;40.829;26.934
3028681.719;-102.408;-73.500;-39.749;-91.754;-153.445;32.969;36.061;20.452
3028681.727;-143.573;-102.706;-99.204;-122.637;-250.340;1.080;2.608;-15.572
3028681.735;-127.070;-85.048;-76.294;-112.392;-205.413;10.468;9.723;-11.399
3028681.743;-98.310;-57.630;-45.411;-86.874;-158.437;37.923;34.906;23.730
3028681.751;-102.818;-59.940;-48.056;-98.906;-193.864;44.294;44.219;32.522
3028681.759;-108.629;-62.920;-57.407;-99.055;-183.433;45.113;47.497;25.369
3028681.767;-98.608;-54.166;-46.603;-93.877;-189.692;64.597;66.794;40.196
3028681.775;-105.463;-63.665;-54.762;-106.841;-203.475;57.146;64.783;29.318
3028681.783;-85.868;-48.839;-40.159;-102.669;-190.772;75.772;80.690;56.028
3028681.793;-132.732;-82.813;-87.880;-132.546;-274.330;19.334;28.946;-19.521
3028681.801;-109.151;-58.934;-55.358;-113.472;-211.149;27.642;30.845;-2.980
3028681.809;-86.911;-41.239;-35.465;-102.110;-189.096;50.925;52.713;21.905
3028681.817;-114.813;-70.482;-71.153;-123.233;-250.600;23.246;30.845;-23.581
3028681.825;-115.372;-76.704;-73.686;-136.793;-253.916;35.986;38.408;-3.166
3028681.833;-117.607;-77.970;-79.535;-140.853;-264.123;43.735;41.761;2.310
3028681.841;-97.230;-55.768;-57.295;-123.084;-228.547;70.333;63.181;32.112
3028681.849;-99.950;-55.209;-59.158;-128.262;-242.777;57.332;49.584;10.505
3028681.857;-111.237;-67.912;-74.320;-137.947;-268.109;46.454;40.382;-7.935
3028681.865;-102.222;-65.677;-68.322;-139.810;-261.217;55.693;47.348;-4.061
3028681.873;-69.924;-31.553;-32.708;-113.808;-221.357;87.172;67.800;35.129
3028681.881;-75.735;-34.794;-43.400;-114.143;-245.571;89.593;68.434;37.737
3028681.889;-99.987;-59.195;-69.551;-133.961;-280.850;68.806;50.478;4.992
3028681.897;-112.243;-72.122;-82.515;-155.158;-304.468;73.835;52.750;15.348
3028681.905;-98.720;-55.060;-62.846;-142.865;-265.539;73.723;52.936;7.451
3028681.913;-105.500;-61.654;-70.669;-149.161;-270.866;70.706;47.982;5.737
3028681.921;-104.383;-66.683;-70.222;-150.949;-278.577;78.790;50.552;14.752
3028681.929;-100.471;-57.891;-65.751;-144.057;-284.687;82.664;56.438;11.474
3028681.937;-101.142;-62.473;-64.708;-146.218;-277.013;74.469;48.652;6.519
3028681.945;-90.078;-54.613;-53.123;-135.303;-256.561;79.833;55.544;19.372
3028681.953;-98.310;-58.785;-63.628;-139.177;-272.281;70.147;47.721;7.786
3028681.961;-102.706;-67.614;-69.402;-144.131;-279.434;66.198;42.841;3.241
3028681.969;-85.495;-50.329;-54.277;-133.850;-267.327;76.145;56.364;10.580
3028681.977;-77.188;-35.577;-45.858;-114.031;-257.641;70.184;46.864;2.459
3028681.973;-80.429;-40.792;-51.111;-116.341;-265.874;64.932;39.376;-0.969
3028681.981;-78.529;-40.866;-48.652;-113.770;-268.482;60.126;35.465;-7.637
3028681.989;-80.541;-43.437;-55.432;-118.762;-274.330;57.705;30.473;-9.276
3028681.997;-64.857;-38.929;-35.986;-111.125;-248.291;62.399;34.012;-6.035
3028682.005;-36.880;-18.105;-14.268;-92.536;-222.251;68.471;39.786;-0.745
3028682.013;-35.018;-13.784;-20.862;-85.495;-228.435;66.124;31.926;2.906
3028682.021;-34.943;-21.495;-27.940;-79.870;-234.470;54.911;21.011;-10.319
3028682.029;-21.867;-6.296;-18.738;-75.735;-221.916;60.089;27.157;-10.021
3028682.037;-16.615;10.282;-8.680;-60.648;-212.491;49.397;13.448;-20.862
3028682.045;-22.985;1.602;-15.758;-62.846;-213.608;44.703;7.674;-31.404
3028682.053;-10.841;5.104;-7.562;-59.791;-200.011;50.217;11.623;-28.573
3028682.061;-0.820;8.494;-2.794;-47.162;-183.843;54.389;17.174;-25.928
3028682.069;-6.296;2.943;-9.835;-53.570;-175.387;59.232;19.856;-20.117
3028682.077;-4.619;0.373;-11.958;-53.458;-165.477;62.324;20.228;-10.952
3028682.085;6.668;2.049;-4.023;-48.615;-156.164;58.413;21.569;-11.809
3028682.093;23.656;20.266;13.635;-29.132;-136.271;68.732;29.653;5.625
3028682.101;19.222;23.954;3.092;-26.301;-132.918;67.353;24.997;3.129
3028682.109;28.424;22.911;7.525;-23.581;-128.709;65.938;27.008;0.671
3028682.117;34.012;25.220;13.858;-25.518;-110.306;64.895;25.518;3.576
3028682.125;44.294;36.396;19.185;-17.695;-95.628;69.626;31.218;7.413
3028682.133;42.245;30.361;9.649;-23.171;-110.604;54.091;15.870;-4.806
3028682.141;34.273;20.079;-0.373;-30.734;-108.816;36.657;2.980;-26.934
3028682.149;20.862;1.267;-14.380;-50.664;-112.727;28.051;-7.115;-33.118
3028682.157;4.657;-10.692;-31.404;-54.576;-125.021;21.085;-14.901;-40.904
3028682.169;-14.976;-25.444;-49.807;-64.373;-143.349;21.756;-14.640;-46.864
3028682.177;-17.472;-35.241;-51.521;-81.919;-139.698;12.405;-25.593;-58.971
3028682.185;-36.098;-47.423;-66.645;-103.191;-137.724;-0.149;-41.798;-76.443
3028682.193;-63.106;-74.282;-93.989;-119.507;-153.594;-1.900;-47.386;-79.833
3028682.201;-79.572;-93.952;-111.274;-135.824;-168.383;-30.808;-82.068;-109.375
3028682.209;-74.543;-91.530;-106.245;-130.646;-157.617;-24.363;-75.810;-110.269
3028682.217;-89.072;-104.085;-121.668;-142.083;-167.228;-20.601;-75.810;-110.716
3028682.225;-112.951;-134.110;-141.822;-161.082;-186.563;-30.436;-88.178;-127.479
3028682.233;-126.287;-136.085;-152.253;-172.071;-192.411;-42.655;-100.583;-144.988
3028682.241;-125.617;-123.978;-150.986;-161.454;-188.835;-48.131;-106.655;-154.451
3028682.249;-126.921;-132.471;-152.588;-163.168;-184.998;-47.944;-111.274;-152.551
3028682.257;-140.667;-143.908;-169.054;-180.379;-194.982;-55.581;-121.258;-157.058
3028682.265;-137.910;-139.177;-165.738;-170.805;-187.978;-70.706;-137.202;-172.146
3028682.273;-131.093;-131.503;-159.629;-161.640;-180.192;-67.055;-129.677;-169.389
3028682.281;-133.887;-135.191;-163.019;-165.217;-182.502;-63.665;-129.305;-166.222
3028682.289;-158.325;-164.472;-186.041;-196.695;-198.111;-78.604;-148.863;-180.975
3028682.297;-202.060;-203.960;-230.558;-237.860;-238.568;-124.760;-196.137;-230.074
3028682.305;-208.654;-208.020;-237.413;-243.261;-244.118;-121.146;-194.423;-233.091
3028682.313;-222.959;-220.649;-252.761;-252.947;-262.782;-142.604;-215.732;-255.480
3028682.321;-211.969;-210.702;-238.903;-239.126;-249.445;-131.615;-205.599;-248.738
3028682.329;-216.924;-215.620;-240.505;-249.334;-241.213;-147.559;-227.578;-265.688
3028682.337;-257.641;-258.982;-281.297;-290.684;-280.961;-183.880;-266.731;-309.907
3028682.345;-270.829;-276.491;-294.112;-307.038;-293.851;-195.540;-276.901;-332.445
3028682.353;-278.950;-276.491;-301.749;-318.587;-294.335;-196.993;-284.202;-333.823
3028682.364;-271.201;-261.106;-294.261;-300.333;-281.967;-182.539;-270.158;-318.848
3028682.372;-299.960;-291.169;-320.747;-336.096;-308.938;-194.013;-280.142;-332.706
3028682.380;-313.632;-307.374;-334.904;-352.263;-323.504;-191.554;-276.007;-331.737
3028682.388;-322.759;-316.314;-343.993;-353.642;-329.763;-204.258;-292.361;-341.795
3028682.396;-343.360;-330.098;-359.565;-369.884;-343.546;-219.867;-308.491;-354.573
3028682.404;-374.652;-359.714;-382.103;-399.351;-359.193;-245.571;-333.078;-382.252
3028682.412;-367.574;-355.095;-371.970;-395.514;-344.887;-231.862;-318.885;-371.002
3028682.420;-401.698;-384.524;-408.553;-429.749;-382.550;-257.492;-344.552;-394.769
3028682.428;-432.171;-413.880;-434.741;-462.756;-409.484;-286.065;-368.915;-431.389
3028682.436;-446.364;-430.904;-448.152;-475.235;-417.531;-293.143;-372.119;-440.665
3028682.444;-456.311;-432.841;-457.615;-468.008;-420.176;-306.368;-381.246;-453.480
3028682.452;-472.441;-440.553;-469.722;-477.880;-428.185;-319.593;-394.695;-468.008
3028682.460;-473.708;-443.570;-469.089;-478.476;-426.099;-308.268;-383.183;-459.850
3028682.468;-489.876;-453.182;-483.803;-496.209;-437.200;-318.848;-393.726;-476.763
3028682.476;-483.654;-442.415;-478.849;-491.962;-434.220;-305.809;-383.221;-464.581
3028682.484;-516.474;-473.522;-512.488;-524.595;-464.357;-343.099;-416.487;-505.336
3028682.492;-537.969;-488.535;-537.634;-545.904;-486.337;-365.525;-434.630;-532.269
3028682.500;-531.413;-483.878;-531.040;-541.285;-480.562;-355.244;-423.305;-520.200
3028682.508;-544.898;-499.263;-540.763;-552.796;-491.329;-359.900;-421.889;-527.240
3028682.516;-534.281;-487.901;-529.476;-537.448;-479.482;-343.882;-404.268;-506.453
3028682.524;-568.852;-524.558;-564.046;-567.101;-508.055;-379.980;-435.524;-542.067
3028682.532;-584.424;-539.049;-581.220;-580.810;-517.815;-388.622;-440.590;-555.255
3028682.540;-584.200;-539.124;-581.369;-581.928;-511.818;-398.941;-450.164;-562.891
3028682.548;-587.516;-535.659;-580.922;-570.267;-511.557;-403.635;-450.350;-574.626
3028682.557;-594.519;-544.079;-588.074;-576.489;-510.663;-403.859;-448.078;-576.042
3028682.565;-613.593;-570.528;-606.701;-603.609;-527.836;-424.124;-465.587;-590.682
3028682.573;-585.914;-544.488;-577.867;-582.375;-502.877;-398.234;-436.492;-561.438
3028682.581;-497.550;-452.660;-490.882;-487.156;-407.659;-317.507;-351.109;-474.118
3028682.589;-599.809;-557.005;-595.339;-586.249;-522.994;-414.476;-440.329;-568.368
3028682.597;-676.177;-635.162;-675.432;-664.592;-612.624;-492.260;-509.284;-643.246
3028682.605;-666.976;-630.468;-663.586;-661.276;-597.127;-485.927;-496.991;-631.697
3028682.613;-655.502;-621.118;-649.802;-650.734;-577.010;-469.089;-473.969;-609.755
3028682.621;-629.425;-600.629;-622.459;-630.729;-549.927;-458.136;-458.546;-590.906
3028682.629;-599.362;-575.855;-588.857;-609.197;-518.747;-467.002;-462.309;-596.456
3028682.637;-585.616;-566.654;-579.767;-607.073;-513.978;-481.792;-474.863;-604.838
3028682.645;-565.127;-533.834;-562.109;-587.441;-506.341;-484.325;-469.722;-603.870
3028682.653;-539.608;-500.754;-528.246;-556.856;-470.541;-483.543;-465.065;-601.336
3028682.661;-527.725;-489.764;-512.041;-554.211;-443.310;-483.356;-463.352;-605.285
3028682.669;-509.284;-479.743;-488.274;-544.488;-417.046;-475.496;-448.972;-601.932
3028682.677;-540.577;-514.612;-528.097;-579.245;-453.740;-507.608;-475.794;-629.611
3028682.685;-546.314;-520.200;-534.691;-583.865;-461.265;-503.585;-466.481;-626.333
3028682.693;-556.596;-533.126;-542.849;-595.227;-468.716;-510.998;-471.212;-632.703
3028682.701;-567.995;-541.583;-557.676;-598.319;-476.353;-513.494;-467.971;-632.815
3028682.709;-583.194;-561.066;-574.887;-610.016;-489.727;-519.454;-468.083;-636.317
3028682.717;-592.954;-571.199;-585.951;-623.763;-498.220;-518.896;-465.177;-631.399
3028682.725;-587.367;-561.625;-579.841;-614.896;-490.993;-504.926;-450.201;-615.455
3028682.733;-588.112;-570.416;-579.171;-617.132;-486.970;-495.054;-438.243;-605.993
3028682.741;-587.441;-571.422;-580.028;-615.306;-479.147;-489.429;-430.159;-600.442
3028682.753;-591.949;-573.397;-583.194;-612.885;-483.766;-487.976;-424.087;-605.658
3028682.761;-592.396;-575.036;-583.045;-617.243;-487.231;-486.113;-415.929;-603.646
3028682.769;-586.398;-570.789;-577.122;-612.848;-481.233;-470.653;-398.345;-586.770
3028682.777;-592.321;-577.532;-581.406;-613.816;-484.511;-472.181;-397.675;-587.702
3028682.785;-604.093;-594.109;-593.103;-621.602;-495.389;-482.574;-402.257;-595.264
3028682.793;-604.950;-595.599;-592.992;-621.043;-499.077;-475.571;-391.938;-589.527
3028682.801;-607.483;-595.413;-596.344;-621.714;-498.705;-475.608;-392.608;-584.573
3028682.809;-609.048;-596.419;-597.313;-625.178;-491.031;-481.159;-396.781;-587.963
3028682.817;-605.360;-588.670;-594.556;-622.980;-493.713;-478.998;-391.938;-587.627
3028682.825;-607.520;-593.476;-597.090;-616.796;-494.011;-471.398;-382.774;-577.308
3028682.833;-599.176;-591.539;-581.965;-619.739;-476.129;-475.384;-385.419;-583.790
3028682.841;-586.510;-578.612;-565.723;-614.077;-462.905;-481.419;-389.181;-590.496
3028682.849;-559.948;-548.474;-542.961;-588.074;-441.670;-464.283;-370.480;-572.614
3028682.857;-540.949;-526.682;-517.480;-570.007;-423.566;-464.842;-370.704;-572.689
3028682.865;-508.986;-490.025;-480.935;-540.875;-384.860;-452.101;-356.473;-557.974
3028682.873;-473.782;-455.901;-443.198;-507.385;-345.409;-422.075;-327.155;-526.756
3028682.881;-482.500;-468.530;-453.703;-520.945;-353.456;-422.299;-328.757;-521.615
3028682.889;-499.375;-483.394;-468.306;-539.795;-371.598;-435.598;-342.317;-533.126
3028682.897;-499.450;-482.649;-468.642;-535.436;-379.384;-430.308;-334.382;-528.358
3028682.905;-504.181;-491.068;-475.720;-535.436;-380.278;-423.864;-324.957;-520.423
3028682.913;-508.502;-495.724;-479.966;-537.187;-375.137;-420.474;-318.401;-521.503
3028682.921;-495.799;-482.127;-468.492;-523.515;-364.482;-401.847;-299.290;-499.301
3028682.929;-488.162;-476.316;-459.440;-513.047;-355.914;-393.167;-291.169;-489.354
3028682.937;-485.219;-476.986;-451.282;-512.227;-341.199;-394.471;-291.727;-490.211
3028682.934;-477.210;-472.553;-444.464;-505.261;-336.170;-388.697;-283.755;-477.433
3028682.942;-481.382;-471.026;-450.164;-503.510;-346.676;-390.001;-282.638;-479.110
3028682.950;-470.616;-460.558;-442.863;-491.440;-338.964;-376.403;-270.978;-466.332
3028682.958;-472.926;-463.761;-445.694;-493.936;-340.678;-372.119;-268.258;-466.146
3028682.966;-468.083;-459.403;-438.802;-489.317;-333.153;-361.092;-257.902;-459.142
3028682.974;-456.795;-451.654;-427.291;-478.290;-325.255;-348.501;-247.918;-443.384
3028682.982;-445.507;-438.727;-414.141;-464.953;-310.689;-333.972;-234.917;-431.612
3028682.990;-426.099;-422.671;-395.700;-446.700;-293.739;-313.446;-213.571;-408.627
3028682.998;-412.837;-415.035;-384.785;-434.965;-290.722;-306.405;-203.550;-397.079
3028683.006;-378.340;-380.017;-350.885;-399.128;-259.988;-271.350;-168.905;-360.198
3028683.014;-336.319;-336.878;-307.523;-357.665;-211.373;-230.856;-130.013;-313.073
3028683.022;-314.452;-318.401;-282.489;-337.996;-186.116;-211.895;-113.063;-290.833
3028683.030;-304.058;-309.609;-274.368;-322.498;-180.900;-203.736;-104.830;-277.832
3028683.038;-294.186;-300.147;-264.309;-308.082;-171.438;-191.368;-90.413;-265.054
3028683.046;-267.141;-272.468;-236.779;-278.652;-146.925;-163.727;-59.344;-238.754
3028683.054;-232.570;-241.101;-204.705;-249.520;-123.642;-136.495;-31.516;-208.914
3028683.062;-224.859;-233.985;-196.919;-239.424;-118.427;-131.391;-23.916;-203.624
3028683.070;-207.573;-223.033;-178.553;-225.864;-100.099;-119.656;-10.952;-187.866
3028683.078;-194.870;-209.436;-164.323;-210.218;-78.045;-109.598;-6.184;-178.888
3028683.086;-188.835;-201.836;-160.262;-200.607;-81.360;-107.326;-8.270;-177.063
3028683.094;-178.404;-190.958;-151.731;-187.680;-77.933;-100.024;-4.210;-160.970
3028683.102;-182.018;-192.858;-152.998;-187.457;-83.745;-100.881;-5.960;-162.311
3028683.110;-171.475;-182.949;-143.610;-179.224;-77.114;-88.885;5.551;-149.012
3028683.118;-154.823;-161.119;-128.560;-162.087;-56.140;-75.735;19.222;-136.904
3028683.129;-156.723;-161.007;-127.777;-156.984;-57.593;-81.956;11.288;-144.839
3028683.137;-144.616;-151.172;-112.057;-146.627;-46.007;-74.022;11.846;-135.116
3028683.145;-135.601;-141.300;-102.073;-138.581;-34.608;-65.304;15.609;-129.156
3028683.153;-123.493;-134.706;-92.499;-129.603;-27.418;-55.544;20.154;-117.794
3028683.161;-116.490;-120.699;-78.790;-110.157;-17.174;-52.080;18.664;-115.111
3028683.169;-104.532;-99.428;-64.485;-84.452;13.821;-47.125;20.675;-113.137
3028683.177;-99.465;-95.740;-62.063;-84.452;16.987;-44.070;19.856;-109.114
3028683.185;-99.577;-92.946;-63.479;-75.735;11.250;-42.692;18.999;-112.467
3028683.193;-89.630;-79.870;-56.736;-67.800;14.193;-35.241;23.581;-102.110
3028683.201;-84.639;-80.131;-49.472;-62.548;23.097;-25.891;30.026;-92.648
3028683.209;-74.059;-73.612;-39.488;-59.865;38.892;-15.646;36.284;-84.005
3028683.217;-65.528;-61.616;-36.582;-54.687;37.923;-10.692;40.531;-74.543
3028683.225;-72.159;-67.316;-43.623;-46.976;28.722;-21.718;24.214;-81.956
3028683.233;-56.587;-51.148;-24.401;-39.190;50.627;-16.317;26.897;-69.030
3028683.241;-48.466;-43.251;-11.101;-32.522;74.767;-16.466;25.034;-65.751
3028683.249;-58.711;-48.839;-24.289;-36.471;64.038;-17.360;21.681;-63.144
3028683.257;-36.806;-28.946;-6.966;-13.784;73.165;-9.760;32.000;-48.019
3028683.265;-17.844;-7.451;12.293;11.884;79.945;-16.093;31.255;-52.638
3028683.273;5.960;15.311;33.379;37.625;85.905;-15.609;34.459;-47.199
3028683.281;22.464;34.012;50.329;54.874;97.267;-23.358;29.653;-54.725
3028683.289;41.425;57.630;73.202;89.519;113.323;-21.867;33.304;-55.693
3028683.297;57.705;77.784;83.558;109.188;111.386;-21.532;34.198;-51.931
3028683.305;47.162;70.781;74.320;101.477;96.038;-27.828;27.530;-60.052
3028683.313;42.394;61.467;68.098;92.573;94.920;-32.745;18.887;-59.195
3028683.323;45.002;59.307;68.396;96.224;103.526;-32.783;12.815;-55.656
3028683.331;47.684;63.032;67.540;100.620;104.383;-28.610;15.460;-47.497
3028683.339;58.487;82.105;74.431;121.519;107.661;-17.844;24.997;-31.777
3028683.347;35.688;61.579;54.389;103.116;94.771;-37.737;3.353;-53.979
3028683.355;19.930;40.829;43.809;84.005;86.725;-54.650;-15.832;-67.540
3028683.363;14.380;30.845;34.124;74.208;77.486;-57.109;-17.397;-67.763
3028683.371;13.672;37.551;33.639;85.160;77.784;-60.759;-18.366;-70.594
3028683.379;12.405;31.590;29.877;84.490;76.145;-65.528;-25.183;-68.918
3028683.387;9.127;25.630;32.634;74.692;81.547;-72.494;-34.980;-73.910
3028683.395;18.701;36.210;41.835;84.043;103.861;-68.024;-33.043;-60.908
3028683.403;7.264;28.275;24.475;80.094;81.323;-81.845;-50.515;-69.253
3028683.411;-2.421;18.328;13.076;73.873;67.391;-90.487;-63.330;-73.910
3028683.419;-6.370;5.364;5.476;63.479;69.402;-85.086;-59.605;-60.871
3028683.427;2.310;16.950;21.160;75.102;81.696;-78.864;-51.036;-55.507
3028683.435;45.784;73.537;63.889;131.503;110.976;-63.404;-33.081;-36.433
3028683.443;56.848;82.701;71.973;140.928;113.845;-56.699;-24.103;-26.487
3028683.451;54.054;81.472;68.322;136.122;112.839;-67.018;-32.857;-35.390
3028683.459;68.806;89.146;79.684;147.298;128.299;-57.332;-22.650;-18.217
3028683.467;64.671;80.578;78.231;141.039;121.295;-54.725;-21.495;-15.758
3028683.475;64.224;78.045;77.225;133.105;125.319;-54.166;-20.899;-12.852
3028683.483;71.004;78.231;84.788;140.034;146.292;-51.670;-19.558;-6.035
3028683.491;68.583;76.741;82.850;146.516;143.051;-58.524;-29.765;-8.158
3028683.499;70.184;82.105;84.229;147.074;137.351;-49.584;-23.320;6.296
3028683.507;51.670;74.245;67.987;135.340;126.176;-64.820;-38.929;-12.368
3028683.519;56.513;79.423;72.755;139.959;135.861;-64.410;-37.439;-11.101
3028683.527;78.492;97.975;96.969;154.003;161.454;-42.580;-12.033;11.288
3028683.535;79.684;97.789;97.454;163.913;160.150;-35.763;-1.267;13.933
3028683.543;76.965;87.433;89.929;159.107;154.302;-43.064;-11.623;15.385
3028683.551;77.933;88.178;91.307;151.247;158.399;-49.099;-23.022;15.572
3028683.559;88.960;103.600;104.010;169.352;167.303;-46.380;-20.377;24.438
3028683.567;81.770;100.993;98.050;158.884;164.583;-53.793;-26.673;20.601
3028683.575;83.521;97.901;100.806;160.858;176.840;-53.495;-20.526;18.366
3028683.583;96.671;106.171;108.443;168.718;181.571;-45.635;-8.009;28.312
3028683.591;99.763;112.019;105.314;183.731;180.043;-38.631;-0.149;34.161
3028683.599;108.369;121.668;116.415;191.741;190.288;-33.416;6.333;41.611
3028683.607;125.393;137.091;142.828;200.979;219.680;-19.521;22.501;55.134
3028683.615;128.746;136.048;145.882;207.350;229.329;-16.727;27.865;58.338
3028683.623;108.965;125.878;121.072;188.611;196.360;-42.729;2.272;38.967
3028683.631;124.760;147.149;142.120;208.430;213.347;-29.802;17.323;52.303
3028683.639;125.356;140.965;140.071;209.697;218.339;-24.028;23.246;64.820
3028683.647;129.826;141.114;137.687;203.848;212.602;-18.701;31.665;71.712
3028683.655;154.227;167.564;162.572;228.472;245.757;-6.333;47.684;82.254
3028683.663;157.021;164.583;172.481;229.143;252.277;-10.915;41.984;83.037
3028683.671;141.189;149.272;155.345;223.890;233.874;-28.647;20.266;67.465
3028683.679;130.571;142.269;136.346;215.359;212.193;-42.804;6.631;56.885
3028683.687;164.583;177.696;175.461;244.677;255.220;-10.319;41.835;91.344
3028683.695;167.266;180.155;180.863;253.133;260.584;-0.894;53.458;100.844
3028683.703;192.188;206.865;202.097;272.803;283.793;25.295;81.137;132.956
3028683.713;173.561;186.898;182.651;246.353;268.705;-0.522;53.681;108.704
3028683.721;120.774;131.130;133.030;196.248;218.116;-48.205;4.880;60.275
3028683.729;120.550;128.448;130.571;208.505;225.678;-45.300;5.737;64.410
3028683.737;129.156;135.042;137.277;216.402;227.503;-43.325;4.880;67.614
3028683.745;153.221;159.368;161.864;224.561;241.995;-17.807;35.688;95.107
3028683.753;164.770;185.296;172.369;251.792;263.005;-12.629;43.437;100.061
3028683.761;171.624;181.608;179.112;247.620;269.711;-13.411;42.841;105.426
3028683.769;173.599;174.828;184.849;244.081;277.646;-14.789;43.958;103.228
3028683.777;173.636;176.020;184.253;253.171;280.216;-19.260;39.563;98.348
3028683.785;180.155;188.388;185.072;260.398;270.978;-16.913;40.531;108.406
3028683.793;193.082;199.191;195.168;277.460;288.039;-2.235;53.681;123.754
3028683.801;206.418;221.021;207.536;279.546;303.201;9.052;65.900;139.736
3028683.809;190.400;200.868;196.695;269.637;293.106;-6.817;49.621;122.525
3028683.817;185.072;188.388;190.735;260.472;296.384;-5.811;50.440;119.433
3028683.825;198.260;198.521;200.681;258.610;302.941;10.245;62.287;139.065
3028683.833;208.877;217.669;207.573;279.583;300.854;11.772;59.232;138.357
3028683.841;231.005;239.536;227.429;305.921;318.810;21.420;66.943;150.390
3028683.849;229.031;231.229;224.710;298.619;323.430;15.981;59.679;142.939
3028683.857;200.570;203.960;195.801;264.309;286.549;0.671;40.717;128.262
3028683.865;201.799;206.083;195.056;259.504;284.463;1.676;42.357;134.893
3028683.873;203.028;207.610;198.893;271.127;309.572;-10.021;33.751;119.172
3028683.881;196.621;199.489;184.216;258.535;283.495;-11.474;31.181;123.717
3028683.889;213.720;224.561;211.336;286.326;323.467;-6.370;35.800;130.571
3028683.897;235.960;245.757;237.897;313.520;358.485;19.632;59.642;155.792
3028683.894;236.444;239.275;232.980;303.611;346.787;26.003;64.969;166.781
3028683.902;221.916;215.620;218.935;281.408;332.631;16.280;54.762;154.003
3028683.910;237.711;233.091;230.819;298.433;342.578;20.154;60.946;165.477
3028683.918;236.221;239.722;224.449;297.464;335.239;12.331;58.003;154.488
3028683.926;225.678;231.750;214.055;293.516;328.310;8.382;53.309;150.651
3028683.934;240.952;238.866;230.521;303.127;344.813;22.128;64.299;175.461
3028683.942;230.372;230.893;219.978;283.234;338.256;10.803;49.323;159.889
3028683.950;234.656;237.115;221.170;277.013;335.500;14.491;50.701;165.701
3028683.958;236.109;240.877;219.494;283.606;334.308;11.437;49.546;157.766
3028683.966;259.355;260.659;246.093;316.538;366.718;35.875;74.133;178.628
3028683.974;275.932;273.325;264.049;320.561;384.301;55.134;91.791;198.558
3028683.982;262.260;263.341;250.414;300.929;367.612;45.411;78.566;175.685
3028683.990;267.550;267.774;254.028;313.260;376.180;50.627;80.727;178.665
3028683.998;260.882;263.415;253.618;309.721;369.065;45.747;73.873;167.191
3028684.006;253.767;257.008;248.291;299.700;376.031;42.208;68.061;152.066
3028684.014;250.451;247.732;245.273;284.985;369.437;46.827;67.167;153.929
3028684.022;255.182;260.025;253.916;288.934;378.639;55.134;70.333;153.035
3028684.030;246.130;252.239;243.895;278.167;365.563;50.776;62.473;147.782
3028684.038;251.345;252.165;253.171;284.836;373.051;55.470;63.628;153.743
3028684.046;252.239;255.108;253.879;287.257;372.156;56.103;63.777;148.192
3028684.054;265.539;269.040;264.905;295.788;385.456;70.892;76.480;167.154
3028684.062;254.288;251.532;258.163;283.457;380.687;61.132;63.889;151.768
3028684.070;241.771;234.060;242.591;260.174;364.482;53.495;55.619;142.902
3028684.078;242.591;237.711;244.044;265.613;357.553;55.991;57.593;143.312
3028684.116;257.045;250.675;264.235;282.191;388.511;70.147;69.290;153.892
3028684.124;276.305;276.528;284.836;297.688;406.690;91.083;89.034;179.484
3028684.132;275.336;272.654;280.105;302.419;391.155;96.597;93.356;178.926
3028684.140;265.576;257.567;266.843;285.171;370.890;85.384;79.200;167.787
3028684.148;260.323;259.653;264.682;279.993;372.790;75.288;67.502;155.158
3028684.156;267.811;263.974;269.823;288.785;377.335;73.761;60.946;153.892
3028684.164;273.399;259.504;271.164;287.779;371.300;79.870;63.255;166.036
3028684.172;276.454;266.768;276.640;290.871;382.997;80.317;61.579;161.007
3028684.180;280.105;275.187;277.273;289.977;383.556;85.942;64.038;171.624
3028684.188;270.493;262.633;266.023;272.170;365.563;80.653;58.971;163.093
3028684.196;275.299;264.496;271.238;280.514;379.011;79.423;60.834;156.276
3028684.204;304.133;295.117;297.166;320.487;413.172;108.145;88.476;193.454
3028684.212;285.506;279.211;281.297;299.811;402.257;93.803;72.643;172.518
3028684.220;287.518;281.744;279.173;300.519;391.118;94.585;73.127;173.636
3028684.228;303.611;294.186;296.198;313.595;408.441;110.157;87.768;189.245
3028684.236;297.166;292.435;289.455;299.960;409.633;105.910;80.131;183.806
3028684.244;293.963;284.798;282.340;287.667;399.314;96.336;68.471;177.436
3028684.252;296.384;286.214;288.561;295.751;403.970;90.934;59.716;163.391
3028684.260;321.269;310.130;314.899;316.575;426.471;113.547;80.764;189.133
3028684.268;334.717;314.191;328.124;326.000;440.218;133.738;100.099;207.685
3028684.276;309.870;295.043;300.743;298.210;418.127;112.019;79.982;183.210
3028684.284;328.310;328.906;313.409;335.164;426.285;120.364;90.040;198.893
3028684.292;332.892;332.780;323.616;354.461;430.457;118.949;87.954;192.188
3028684.300;330.806;324.957;322.461;339.784;435.449;123.903;89.221;200.085
3028684.284;329.465;327.490;317.767;334.643;430.234;130.609;94.362;204.556
3028684.292;318.028;316.650;296.943;322.834;409.409;125.952;88.848;195.466
3028684.300;311.472;306.070;292.882;313.297;414.886;130.758;94.436;205.189
3028684.308;293.963;289.120;282.787;295.229;400.245;115.745;79.200;185.519
3028684.316;299.215;289.753;282.452;301.711;403.896;121.184;83.856;196.137
3028684.324;279.136;264.011;261.031;271.760;378.713;106.432;67.763;180.155
3028684.332;259.317;245.273;242.218;264.160;358.224;93.542;52.899;165.105
3028684.340;266.917;260.919;251.569;274.368;375.696;103.116;64.075;180.043
3028684.348;288.449;287.816;277.683;297.576;410.303;120.625;86.986;190.362
3028684.356;288.412;281.446;272.058;291.280;396.445;126.474;93.319;201.054
3028684.364;268.333;264.086;251.085;273.660;374.727;112.429;78.119;184.327
3028684.372;285.245;284.202;269.562;294.372;400.059;129.193;96.485;196.211
3028684.380;287.592;276.603;272.468;291.280;403.374;135.005;103.787;207.163
3028684.388;274.144;266.097;259.168;274.368;386.797;118.501;89.407;182.204
3028684.396;269.189;268.146;248.477;276.007;378.340;112.876;83.856;178.590
3028684.404;270.680;268.370;251.085;280.440;369.996;114.553;82.999;181.831
3028684.412;267.960;263.825;258.498;275.299;374.950;111.498;78.082;178.441
3028684.420;270.419;260.957;258.461;269.115;378.527;116.378;85.980;188.611
3028684.428;285.320;280.738;271.834;280.961;391.006;139.289;109.598;205.673
3028684.436;269.748;268.370;253.804;272.170;375.696;123.940;93.021;191.405
3028684.444;275.224;270.829;260.584;278.167;376.515;123.009;92.722;185.929
3028684.452;281.483;275.411;265.725;274.107;378.676;125.989;96.522;184.551
3028684.460;279.732;271.872;265.352;269.935;392.608;131.279;102.222;193.194
3028684.468;280.142;280.924;267.513;289.008;397.079;126.138;95.367;179.075
3028684.479;323.653;317.432;310.242;331.737;433.139;168.793;134.334;226.498
3028684.487;306.033;298.358;290.386;305.325;414.066;159.666;123.829;216.439
3028684.495;275.634;274.219;260.212;278.279;380.315;141.077;101.849;192.113
3028684.503;277.869;272.840;261.255;278.354;379.719;148.565;107.251;205.711
3028684.511;304.580;299.476;290.051;299.290;410.117;146.255;104.047;199.005
3028684.519;310.354;304.058;295.527;294.484;420.623;164.993;117.421;221.729
3028684.527;296.906;289.977;280.812;275.932;403.598;148.825;101.402;203.624
3028684.535;298.023;287.667;281.334;277.795;398.718;146.404;101.104;195.429
3028684.543;318.177;303.946;298.880;288.822;419.170;178.032;134.557;232.309
3028684.551;303.835;288.188;286.698;279.658;402.890;169.910;125.058;218.228
3028684.559;300.668;292.845;287.481;291.355;396.818;160.486;115.335;214.688
3028684.567;325.367;320.785;311.993;322.051;429.861;170.246;126.176;224.933
3028684.575;316.463;302.978;306.740;305.884;426.881;160.635;115.559;211.373
3028684.583;307.076;293.665;294.298;287.443;403.747;159.405;115.335;215.359
3028684.591;298.023;289.157;287.965;282.675;396.594;159.852;115.037;210.442
3028684.599;288.635;280.328;275.858;276.081;386.238;155.829;109.747;210.740
3028684.607;295.304;282.004;279.546;279.918;384.562;162.423;116.713;217.892
3028684.615;297.464;281.744;281.669;277.795;386.573;167.526;121.221;219.569
3028684.623;321.381;308.268;301.078;301.003;406.541;197.440;152.104;254.996
3028684.631;298.955;291.951;276.528;292.435;380.278;174.157;128.970;229.627
3028684.639;300.407;290.051;277.199;294.037;386.089;172.593;125.505;234.097
3028684.647;289.455;271.052;261.925;267.364;375.099;167.303;119.619;227.280
3028684.655;290.871;278.652;263.639;265.874;379.831;162.609;111.572;221.208
3028684.663;307.150;294.596;281.967;299.849;399.090;174.157;119.507;238.866
3028684.673;294.633;282.191;271.201;281.110;387.132;167.340;110.231;227.280
3028684.681;275.820;262.894;250.526;259.988;370.108;150.390;94.734;212.267
3028684.689;273.511;260.547;248.142;257.641;367.314;155.307;102.222;215.955
3028684.697;282.526;269.711;253.171;271.574;367.165;171.214;118.874;229.031
3028684.705;282.936;270.419;252.426;270.940;364.371;176.057;122.972;243.895
3028684.713;271.797;257.976;240.840;262.856;357.479;162.944;112.765;229.888
3028684.721;269.450;259.280;239.573;262.037;346.564;161.976;113.882;229.515
3028684.729;254.288;245.981;230.409;243.187;325.516;141.449;90.599;209.101
3028684.737;262.000;251.122;239.313;254.177;335.276;134.222;85.570;199.899
3028684.745;276.901;260.137;254.251;257.902;342.764;129.640;80.802;201.315
3028684.753;290.349;282.824;267.252;270.791;346.862;128.634;79.684;190.996
3028684.761;291.727;282.191;264.756;269.450;340.939;129.789;80.504;195.317
3028684.769;296.719;283.420;268.966;269.301;345.968;146.851;96.373;210.591
3028684.777;297.055;294.372;273.213;280.403;351.369;155.680;104.085;213.757
3028684.785;295.117;294.298;271.201;279.658;346.340;160.411;111.014;220.984
3028684.793;288.188;288.114;278.093;275.373;339.858;151.433;102.930;205.524
3028684.801;277.050;273.623;271.350;265.315;323.616;144.541;95.889;201.054
3028684.809;278.130;267.923;269.339;265.501;320.822;155.680;106.767;209.287
3028684.817;276.268;275.075;264.198;274.144;322.610;140.294;90.264;192.113
3028684.825;287.853;292.622;279.918;295.937;330.396;146.329;94.846;203.513
3028684.833;305.213;312.068;301.711;310.577;357.851;168.309;116.006;216.290
3028684.841;310.056;311.136;304.095;310.615;370.517;178.441;123.680;228.658
3028684.849;284.016;282.228;281.893;279.918;339.523;160.113;103.340;207.834
3028684.857;289.790;286.922;288.337;285.096;337.400;168.234;111.237;215.210
3028684.854;293.851;295.229;289.567;291.541;332.147;186.525;129.975;239.611
3028684.862;293.106;295.714;290.833;289.604;327.229;192.374;136.122;237.823
3028684.870;297.725;296.757;293.516;301.562;330.545;195.354;137.538;242.852
3028684.878;293.851;298.172;290.722;300.370;326.447;180.230;122.078;228.733
3028684.886;285.730;292.212;290.684;291.504;319.183;167.638;110.790;210.516
3028684.894;293.776;299.402;300.072;294.410;324.808;178.739;123.195;224.225
3028684.902;278.614;282.228;285.096;281.371;309.758;173.710;116.825;212.453
3028684.910;285.581;290.535;292.324;286.810;314.452;190.325;131.764;232.607
3028684.918;307.001;310.391;315.644;312.477;342.913;213.794;154.376;252.388
3028684.926;323.653;325.367;329.986;335.984;356.734;227.205;166.036;262.856
3028684.934;300.817;308.715;309.870;324.622;329.986;208.467;146.963;245.385
3028684.942;300.854;314.489;309.795;323.318;326.894;215.173;151.210;242.665
3028684.950;309.125;318.475;315.160;328.794;327.788;230.856;164.695;260.696
3028684.958;306.480;315.793;318.065;325.851;321.791;230.148;162.534;256.561
3028684.966;300.147;308.827;317.134;312.217;332.631;216.961;147.335;237.711
3028684.974;298.508;301.637;316.724;312.254;333.041;219.457;146.292;244.528
3028684.982;305.623;311.807;323.988;319.593;335.276;221.804;146.776;239.499
3028684.990;308.193;312.068;321.865;317.805;332.370;221.245;142.455;240.877
3028684.998;300.780;302.792;313.111;309.609;319.481;217.706;137.165;236.258
3028685.006;299.364;297.241;317.320;312.440;317.767;219.606;135.414;233.389
3028685.014;303.797;307.113;323.802;318.699;328.757;226.758;140.145;242.405
3028685.022;302.494;308.678;318.177;316.836;334.680;220.127;134.334;225.641
3028685.030;305.772;313.036;322.722;319.257;330.247;227.205;143.573;230.484
3028685.038;307.597;315.122;326.522;326.149;325.888;228.286;147.112;228.547
3028685.062;303.425;308.603;323.951;325.777;322.014;220.351;137.202;216.924
3028685.070;290.126;294.112;308.231;304.952;308.305;209.101;123.344;208.393
3028685.078;274.442;277.758;295.565;284.016;293.963;201.538;114.962;195.466
3028685.086;264.905;266.284;286.475;277.087;278.577;201.389;112.131;199.452
3028685.094;255.927;252.463;271.872;270.940;264.868;198.036;105.724;194.013
3028685.102;258.870;249.259;272.878;265.054;266.246;205.934;112.318;197.738
