Timestamp,AFz,AF3,AF4,AF7,AF8,Pz,P3,P4,2024-05-08 12:01:56.779,fs=125
4754929.113;-9.425;-29.877;-18.552;-11.213;-19.744;-7.078;-9.723;-8.382
4754929.121;-12.331;-33.714;-20.303;-13.635;-19.446;-1.416;-5.253;-3.949
4754929.129;-13.448;-32.522;-20.862;-11.921;-22.873;4.098;3.017;-0.447
4754929.137;-12.256;-29.616;-21.160;-8.494;-26.263;5.588;6.333;-0.745
4754929.145;-6.557;-21.867;-14.529;-3.912;-16.615;6.966;8.605;-1.676
4754929.153;-1.304;-19.446;-10.841;-1.639;-15.646;5.588;8.978;-4.619
4754929.161;-0.894;-21.867;-11.884;-3.278;-20.377;-1.714;2.012;-9.462
4754929.169;-4.992;-26.822;-16.242;-7.264;-22.911;-7.339;-6.519;-12.256
4754929.177;-5.625;-28.200;-15.385;-10.096;-20.452;-7.041;-8.866;-10.282
4754929.185;-2.161;-24.363;-11.958;-7.488;-17.472;-6.594;-8.121;-9.537
4754929.193;-2.719;-26.189;-13.895;-7.860;-18.440;-8.270;-6.743;-10.766
4754929.201;-2.980;-26.375;-13.746;-7.898;-15.274;-9.760;-6.333;-13.337
4754929.209;-0.708;-22.575;-12.182;-6.482;-11.027;-7.227;-2.906;-12.070
4754929.217;-5.811;-26.710;-18.850;-13.150;-15.944;-7.004;-3.465;-10.915
4754929.225;-6.445;-28.089;-19.446;-16.764;-16.652;-5.662;-4.172;-9.984
4754929.233;-2.496;-24.624;-15.348;-13.560;-12.740;-2.868;-2.831;-6.892
4754929.241;1.565;-18.738;-13.150;-8.494;-9.462;-0.559;-1.229;-2.570
4754929.249;1.118;-17.434;-17.248;-8.307;-12.442;0.000;0.000;-1.192
4754929.257;-2.794;-19.558;-20.117;-10.245;-15.274;-3.055;-2.161;-3.800
4754929.265;0.447;-16.838;-15.944;-9.090;-13.448;-2.719;-1.788;-3.465
4754929.273;-0.484;-19.558;-16.391;-11.511;-11.995;-4.470;-2.906;-5.700
4754929.281;2.980;-15.199;-12.331;-8.494;-8.456;-0.149;0.298;-2.608
4754929.289;4.433;-12.070;-12.815;-5.811;-13.262;3.502;3.427;1.416
4754929.297;1.006;-16.764;-14.454;-9.350;-12.517;2.161;1.378;1.304
4754929.351;0.261;-15.944;-15.013;-7.525;-15.311;2.868;2.272;1.602
4754929.359;1.937;-16.168;-15.348;-8.345;-15.683;3.427;4.359;2.123
4754929.367;-0.633;-18.068;-14.231;-10.841;-16.280;0.708;2.719;1.267
4754929.375;-2.421;-18.775;-15.385;-12.778;-20.117;0.373;1.341;1.565
4754929.383;-0.037;-16.429;-15.423;-9.239;-21.011;0.373;1.416;2.645
4754929.391;2.384;-14.380;-13.262;-8.643;-17.993;1.714;3.502;3.390
4754929.399;7.674;-11.288;-7.637;-4.657;-9.798;1.974;3.465;4.508
4754929.407;10.170;-8.605;-3.465;-3.390;-4.917;-1.155;-1.751;1.416
4754929.415;9.127;-8.605;-6.333;-2.943;-15.274;-3.874;-4.582;-0.261
4754929.423;7.451;-10.692;-7.264;-5.513;-13.076;-5.662;-6.072;-2.384
4754929.431;5.327;-11.921;-6.668;-6.445;-11.958;-5.923;-4.843;-2.868
4754929.439;4.545;-13.113;-8.121;-8.158;-14.454;-11.213;-7.562;-5.700
4754929.447;3.614;-13.746;-8.121;-9.201;-13.374;-15.274;-9.760;-7.451
4754929.455;6.892;-13.374;-3.837;-8.270;-7.711;-13.411;-8.382;-7.190
4754929.463;7.749;-13.523;-3.316;-9.760;-9.313;-12.033;-6.109;-7.376
4754929.471;6.147;-12.033;-5.439;-7.786;-13.337;-10.133;-3.725;-6.072
4754929.479;6.035;-11.064;-3.465;-6.184;-11.660;-9.090;-4.247;-5.215
4754929.487;5.998;-13.001;-3.614;-7.711;-12.256;-7.972;-3.763;-2.943
4754929.495;9.686;-9.164;1.937;-3.614;-7.041;-5.513;-1.006;-1.863
4754929.503;9.127;-7.525;1.155;-2.384;-8.680;-5.178;0.857;-2.384
4754929.511;9.276;-5.588;0.633;0.037;-8.717;-3.576;4.172;-1.192
4754929.519;10.505;-7.562;1.751;-0.969;-9.425;-2.608;3.688;-0.969
4754929.527;10.021;-8.941;-0.112;-1.676;-11.884;-2.943;1.937;-1.155
4754929.535;8.680;-10.245;-1.453;-4.321;-12.480;-4.545;-0.447;-3.614
4754929.460;9.537;-8.903;-1.267;-3.241;-11.250;-5.141;-1.490;-5.104
4754929.468;11.213;-7.041;2.533;-0.224;-7.413;-4.657;-1.788;-4.470
4754929.476;9.611;-9.276;0.484;-3.763;-11.213;-5.625;-2.906;-4.396
4754929.484;11.735;-6.258;2.906;-2.421;-10.468;-1.602;-0.559;-0.335
4754929.492;18.291;-0.186;9.164;3.353;-3.949;3.055;3.576;3.502
4754929.500;20.415;1.118;11.623;7.153;1.565;3.763;6.109;3.763
4754929.508;16.838;-1.565;7.860;3.576;-1.639;6.184;9.201;4.917
4754929.516;16.056;-3.465;6.072;3.092;-5.439;4.657;8.307;3.055
4754929.524;15.572;-5.402;3.427;0.373;-9.611;1.080;7.711;-1.490
4754929.532;14.156;-8.717;0.075;-4.843;-12.256;-2.347;6.296;-6.892
4754929.540;14.193;-10.952;0.931;-6.631;-7.525;-2.459;4.694;-7.711
4754929.548;12.480;-12.890;0.224;-8.233;-12.666;-3.949;2.980;-7.115
4754929.556;12.033;-15.274;-0.782;-10.841;-9.611;-7.302;-0.559;-7.190
4754929.564;12.368;-14.007;1.118;-9.835;-3.725;-8.345;-2.012;-6.631
4754929.572;8.121;-14.566;-2.868;-10.207;-9.239;-10.803;-5.811;-10.319
4754929.580;10.766;-12.852;-1.714;-6.035;-10.692;-9.798;-3.874;-9.798
4754929.588;11.697;-11.474;-0.633;-4.023;-5.439;-7.451;-0.373;-7.898
4754929.596;14.044;-9.052;0.298;-3.055;-7.078;-3.427;2.906;-4.545
4754929.604;15.981;-5.700;2.459;-1.006;-8.531;-0.596;5.104;-3.055
4754929.612;17.174;-4.843;3.539;2.012;-9.388;1.825;8.941;-1.453
4754929.620;19.111;-4.247;5.774;0.820;-5.998;4.433;11.548;0.522
4754929.628;17.807;-3.986;4.396;2.608;-6.668;3.129;9.984;-1.043
4754929.636;13.411;-8.456;-0.261;-1.378;-13.523;0.484;5.253;-3.800
4754929.644;12.144;-9.090;-0.075;-3.241;-17.434;1.751;4.508;-2.235
4754929.623;9.239;-9.798;-3.651;-4.955;-35.278;4.694;5.700;0.782
4754929.631;3.092;-15.944;-9.350;-11.474;-45.672;1.788;2.980;-1.341
4754929.639;4.694;-14.603;-8.084;-10.803;-48.093;1.155;3.427;-1.453
4754929.647;11.623;-8.419;-1.602;-3.316;-37.588;-0.112;2.682;-1.453
4754929.655;14.938;-5.811;0.000;-0.335;-36.806;0.596;5.588;-1.304
4754929.663;14.007;-5.998;-0.075;-0.894;-39.972;1.825;7.227;-0.931
4754929.671;11.809;-5.774;-0.559;1.825;-37.737;1.378;6.370;-2.831
4754929.679;13.970;-4.247;0.708;3.614;-34.645;1.639;6.407;-2.198
4754929.687;12.852;-7.525;-2.459;-0.857;-36.694;-1.155;1.937;-3.725
4754929.695;11.623;-10.543;-2.943;-4.992;-43.288;-4.284;-3.017;-4.396
4754929.703;12.815;-12.368;-1.118;-4.321;-43.027;-5.960;-6.035;-4.321
4754929.711;12.107;-14.566;-2.496;-1.192;-42.915;-6.072;-6.147;-4.098
4754929.719;11.064;-13.858;-3.800;0.708;-44.554;-3.912;-0.969;-2.459
4754929.727;10.021;-16.429;-3.725;-1.043;-44.256;-5.215;1.006;-6.109
4754929.735;13.337;-13.895;-1.304;-0.186;-41.537;-1.751;3.837;-5.625
4754929.743;11.250;-13.076;-6.519;0.969;-51.036;-1.378;4.619;-6.780
4754929.751;8.307;-15.609;-8.866;-1.080;-52.825;-4.247;1.453;-9.015
4754929.759;11.027;-14.417;-4.023;1.714;-45.486;-3.465;1.490;-6.743
4754929.767;12.182;-15.460;-1.788;-0.149;-45.672;-6.370;-2.943;-6.743
4754929.775;7.600;-18.217;-7.786;-0.894;-54.091;-10.803;-6.817;-10.990
4754929.783;10.803;-13.486;-6.221;4.135;-52.378;-11.474;-4.992;-13.523
4754929.791;14.715;-11.846;-3.278;5.290;-47.199;-10.319;-3.651;-13.672
4754929.799;16.764;-9.909;-1.006;5.551;-46.007;-8.643;-1.229;-11.623
4754929.807;15.758;-10.617;-2.049;5.551;-46.678;-8.903;-0.075;-11.586
4754929.848;14.231;-10.058;-2.794;4.992;-46.752;-11.362;-2.012;-13.076
4754929.856;17.025;-7.972;1.006;8.568;-44.554;-8.158;0.410;-8.680
4754929.864;16.578;-9.015;-1.937;11.139;-49.919;-6.370;2.235;-6.445
4754929.872;12.219;-13.821;-4.694;5.141;-52.154;-8.084;0.633;-8.047
4754929.880;7.078;-20.042;-9.798;0.037;-58.673;-10.990;-2.570;-10.617
4754929.888;7.823;-20.526;-7.786;-0.782;-53.011;-10.058;-2.198;-10.952
4754929.896;8.419;-21.309;-6.109;0.373;-50.738;-9.872;-2.719;-10.915
4754929.904;6.966;-23.693;-11.027;-2.682;-61.765;-12.442;-5.513;-14.193
4754929.912;13.486;-17.360;-4.768;1.378;-53.048;-8.419;-2.123;-10.580
4754929.920;15.162;-15.721;-1.751;5.104;-51.931;-5.923;0.522;-8.717
4754929.928;15.683;-15.497;-2.757;4.619;-56.848;-5.886;0.522;-9.574
4754929.936;16.205;-14.864;-0.298;2.943;-51.334;-8.941;-1.118;-12.293
4754929.944;17.695;-15.721;2.682;5.439;-46.715;-10.692;-3.614;-12.852
4754929.952;18.589;-13.709;3.390;6.929;-47.162;-12.070;-5.625;-13.486
4754929.960;16.205;-16.391;-0.186;3.725;-51.633;-12.517;-6.258;-15.385
4754929.968;17.695;-14.305;0.149;4.135;-53.644;-10.282;-4.843;-14.827
4754929.976;20.079;-11.213;2.906;8.382;-48.764;-5.849;-0.484;-10.654
4754929.984;18.105;-12.480;1.602;8.531;-52.080;-4.359;2.831;-8.866
4754929.992;15.907;-13.746;2.086;7.637;-50.180;-6.072;1.490;-10.245
4754930.000;17.583;-15.199;1.602;5.849;-49.584;-6.296;-0.298;-9.686
4754930.008;18.105;-14.193;1.229;7.562;-51.223;-6.929;-1.080;-10.133
4754930.016;14.715;-16.019;-2.123;6.370;-55.619;-5.811;2.496;-10.282
4754930.024;8.494;-21.569;-8.456;3.651;-60.834;-4.768;5.364;-8.345
4754930.032;1.974;-26.822;-16.391;-2.161;-68.955;-5.625;3.502;-8.307
4754930.057;-2.421;-31.777;-19.446;-6.855;-67.241;-6.370;0.708;-8.792
4754930.065;1.118;-30.249;-14.193;-6.557;-66.310;-5.104;1.080;-9.239
4754930.073;5.178;-26.152;-10.915;-2.645;-64.336;-1.453;3.688;-7.674
4754930.081;7.935;-23.544;-9.090;0.037;-64.932;0.857;4.880;-5.886
4754930.089;10.543;-18.477;-7.227;5.476;-60.201;1.267;5.364;-4.806
4754930.097;12.666;-17.993;-4.992;7.525;-59.530;0.410;4.806;-6.817
4754930.105;12.405;-21.197;-5.066;2.570;-59.791;-2.645;2.757;-10.692
4754930.113;9.947;-22.873;-5.737;-0.149;-53.458;-3.204;2.906;-9.984
4754930.121;2.868;-31.181;-13.448;-6.780;-63.591;-6.221;-0.075;-11.064
4754930.129;1.267;-32.224;-15.907;-7.711;-67.055;-5.700;0.186;-9.127
4754930.137;-1.118;-32.894;-16.987;-8.456;-63.963;-1.714;1.825;-5.215
4754930.145;-4.284;-33.975;-19.968;-9.760;-68.918;0.708;2.049;-3.912
4754930.153;0.931;-28.163;-13.411;-4.284;-61.765;1.676;4.172;-5.998
4754930.161;2.570;-28.163;-11.362;-1.937;-56.960;-4.768;0.298;-12.070
4754930.169;3.539;-27.381;-9.760;-2.049;-56.140;-7.786;-0.298;-13.523
4754930.177;5.960;-26.301;-8.829;-0.633;-59.865;-7.525;0.335;-12.182
4754930.185;9.164;-21.867;-6.184;2.570;-54.054;-5.588;2.719;-9.127
4754930.193;10.580;-20.191;-7.115;5.737;-52.191;-2.384;5.290;-5.551
4754930.201;9.462;-22.054;-7.004;1.453;-49.286;-1.676;4.470;-5.253
4754930.209;6.855;-23.395;-8.941;-2.347;-50.850;-2.719;3.465;-8.196
4754930.217;3.912;-25.555;-10.394;-5.253;-48.093;-3.725;1.788;-9.909
4754930.225;2.161;-26.710;-12.480;-11.064;-49.733;-5.439;-1.676;-11.288
4754930.233;3.166;-24.252;-11.772;-5.364;-47.497;-4.433;-3.688;-10.878
4754930.241;-0.037;-28.051;-17.025;-10.058;-48.913;-4.284;-7.376;-8.084
4754930.223;4.843;-24.363;-12.293;-8.494;-47.423;-2.272;-3.502;-4.210
4754930.231;7.711;-22.277;-9.090;-6.221;-42.431;0.708;3.129;-2.272
4754930.239;6.892;-21.867;-8.829;-7.600;-43.251;2.421;6.743;-2.198
4754930.247;7.227;-24.773;-10.170;-12.591;-47.050;4.433;5.737;-1.267
4754930.255;7.898;-24.438;-9.350;-11.511;-46.082;2.161;2.533;-2.682
4754930.263;9.276;-20.191;-7.041;-7.488;-43.809;2.906;3.353;-0.186
4754930.271;11.139;-18.738;-4.210;-7.488;-36.396;4.619;6.519;4.396
4754930.279;11.213;-16.503;-4.210;-6.855;-36.210;3.651;7.860;4.247
4754930.287;14.417;-12.629;-1.565;-3.241;-33.639;6.407;8.419;4.023
4754930.295;16.019;-12.442;-1.714;-5.066;-40.866;8.158;7.935;2.868
4754930.303;14.044;-11.325;-1.900;-6.631;-38.967;9.872;9.649;4.470
4754930.311;4.061;-20.526;-10.729;-13.076;-47.088;7.302;7.525;2.310
4754930.319;4.917;-20.675;-9.276;-14.082;-42.580;5.737;5.849;2.719
4754930.327;5.886;-21.122;-7.898;-15.460;-37.141;0.000;2.757;-1.192
4754930.335;8.531;-18.403;-5.662;-11.139;-36.992;-4.545;1.043;-3.949
4754930.343;10.617;-14.640;-3.539;-8.345;-40.345;-3.092;1.900;-1.453
4754930.351;10.245;-14.603;-2.794;-8.531;-33.118;-2.757;3.017;-3.539
4754930.359;12.219;-13.448;-0.857;-7.190;-34.943;2.198;6.296;-1.304
4754930.367;11.064;-12.815;-1.341;-6.966;-38.296;3.763;6.706;-1.043
4754930.375;12.666;-12.815;1.602;-5.960;-33.528;0.224;2.198;-3.316
4754930.383;12.852;-13.001;1.304;-6.706;-35.055;1.602;3.502;-3.316
4754930.391;12.480;-14.938;-0.298;-10.766;-33.490;3.576;6.743;-1.937
4754930.399;14.268;-11.548;2.943;-4.396;-31.963;5.029;7.972;0.335
4754930.407;16.168;-9.388;5.513;-0.298;-32.075;6.482;8.456;2.757
4754930.373;20.340;-7.227;10.543;1.043;-20.489;7.525;8.233;1.937
4754930.381;20.824;-8.345;10.468;2.570;-27.157;6.109;7.376;-0.224
4754930.389;24.922;-5.551;15.087;6.184;-23.730;4.880;7.749;-1.192
4754930.397;22.389;-7.674;11.288;4.992;-29.691;1.565;8.047;-4.470
4754930.405;21.569;-8.270;11.772;5.066;-26.859;0.224;8.680;-3.874
4754930.413;15.050;-14.156;5.774;0.075;-27.977;-1.527;6.296;-3.986
4754930.421;13.933;-15.460;5.774;0.671;-27.195;-0.447;6.147;-2.012
4754930.429;12.591;-16.503;2.049;0.335;-37.998;0.261;6.780;-1.378
4754930.437;13.635;-15.236;6.668;0.112;-29.653;0.335;6.706;-2.012
4754930.445;13.672;-13.933;5.439;1.639;-32.820;0.000;6.109;-2.496
4754930.453;15.050;-13.150;7.004;3.316;-30.436;0.559;5.588;-2.682
4754930.461;16.876;-9.686;10.170;5.811;-28.461;2.198;6.519;-2.608
4754930.469;20.266;-7.227;14.342;7.711;-23.805;3.427;6.780;-2.608
4754930.477;17.621;-10.282;11.362;7.935;-24.289;4.545;6.817;-1.676
4754930.485;16.838;-10.729;9.015;6.519;-28.312;6.035;8.270;0.112
4754930.493;19.558;-9.499;10.841;5.923;-26.599;9.090;12.480;2.161
4754930.501;22.352;-7.674;15.460;7.153;-17.881;10.021;13.225;2.570
4754930.509;14.976;-15.348;5.253;4.508;-29.504;5.551;7.227;-1.267
4754930.517;10.654;-18.030;0.931;1.565;-35.092;3.166;5.327;-2.496
4754930.525;15.050;-13.337;6.370;6.109;-29.691;5.849;7.898;-0.484
4754930.533;13.597;-15.646;2.831;3.763;-27.381;4.992;4.619;-1.863
4754930.541;17.025;-12.480;7.451;5.364;-24.326;4.955;3.390;-0.410
4754930.549;14.901;-14.044;1.825;7.972;-26.599;3.651;3.651;-0.224
4754930.557;17.695;-12.219;7.190;9.611;-5.551;3.353;4.657;-2.533
4754930.553;18.924;-10.170;10.058;9.239;0.000;3.055;7.004;-5.476
4754930.561;13.113;-13.150;-3.129;7.376;-5.849;-1.900;4.582;-10.952
4754930.569;17.472;-9.276;0.671;12.182;10.543;0.261;5.402;-10.580
4754930.577;21.346;-5.141;3.017;16.950;13.299;2.570;5.104;-7.674
4754930.585;24.699;-3.390;14.007;20.675;40.494;-0.186;1.639;-9.239
4754930.593;27.195;-0.335;15.981;29.057;42.133;-0.559;2.272;-7.264
4754930.601;46.939;16.838;31.516;45.635;58.413;-1.863;2.906;-7.115
4754930.609;93.393;60.946;77.114;89.258;95.293;3.055;7.823;-4.545
4754930.617;155.717;121.370;130.497;151.843;119.731;8.978;13.001;-1.341
4754930.625;238.903;201.240;203.773;230.633;158.921;10.245;15.497;-0.708
4754930.633;310.317;269.413;268.072;301.674;198.930;15.758;21.271;3.949
4754930.641;357.963;310.764;314.936;343.174;241.771;19.707;24.587;6.445
4754930.649;383.966;334.196;340.790;367.537;261.515;18.068;23.767;5.029
4754930.657;397.414;344.180;357.553;380.203;285.916;20.117;25.183;7.190
4754930.665;393.689;342.317;352.114;381.321;280.812;21.234;25.555;8.568
4754930.673;387.616;336.990;349.022;377.521;294.894;21.607;24.363;9.201
4754930.681;374.131;322.163;336.580;364.147;289.567;22.575;24.736;7.898
4754930.689;344.366;299.513;305.735;346.787;288.412;19.297;25.779;2.496
4754930.697;307.485;265.762;269.040;312.850;297.725;12.740;21.569;-2.682
4754930.705;281.781;239.275;250.936;283.606;336.505;10.766;18.962;-3.241
4754930.713;255.182;217.259;222.027;260.323;334.270;15.907;22.054;1.788
4754930.721;233.501;194.497;198.074;235.215;351.556;19.558;23.395;4.582
4754930.729;206.903;169.165;167.787;208.095;340.566;15.795;18.850;1.155
4754930.737;185.147;146.516;148.565;186.637;361.316;16.578;17.323;1.304
4754930.763;159.666;121.854;120.662;164.136;360.124;15.162;14.454;0.149
4754930.771;139.996;101.514;103.414;143.610;373.125;13.858;14.789;2.980
4754930.779;123.903;88.923;96.932;124.425;403.598;11.809;11.474;2.161
4754930.787;107.139;76.257;84.266;107.661;390.187;7.600;5.737;-2.086
4754930.795;99.316;67.502;84.750;97.714;436.939;7.078;3.651;-5.178
4754930.803;79.498;54.277;53.607;85.570;420.846;5.513;2.012;-7.972
4754930.811;67.465;45.039;36.769;76.182;446.923;7.041;2.794;-5.253
4754930.819;63.255;40.047;37.141;69.998;479.780;8.792;4.955;-0.224
4754930.827;53.309;33.788;25.555;63.069;478.514;10.021;7.227;2.906
4754930.835;46.566;27.120;23.171;56.848;514.612;10.133;7.302;2.123
4754930.843;36.843;20.303;8.009;52.154;519.343;12.740;8.121;-0.633
4754930.851;34.422;16.913;7.674;49.584;543.371;17.434;11.325;-1.043
4754930.859;24.289;7.190;-11.474;43.437;531.189;18.068;14.417;-3.278
4754930.867;24.810;5.104;-4.508;39.823;570.007;17.658;16.615;-3.576
4754930.875;25.891;3.986;0.298;38.072;572.763;18.813;16.205;-1.527
4754930.883;19.968;-0.559;-9.015;33.826;568.740;16.801;14.529;-1.229
4754930.891;15.609;-4.917;-13.299;30.734;578.910;15.832;13.523;-2.496
4754930.899;8.345;-12.405;-21.905;26.152;586.994;12.890;10.654;-3.763
4754930.907;2.421;-18.962;-31.963;18.626;564.419;11.064;9.574;-3.874
4754930.915;2.868;-18.962;-29.728;19.707;580.698;11.548;11.846;-2.906
4754930.923;-3.465;-22.724;-39.302;15.423;578.761;9.947;10.431;-2.757
4754930.931;-9.164;-27.604;-50.403;9.276;569.858;8.009;6.035;-1.751
4754930.939;-8.158;-27.753;-50.515;8.680;578.798;5.327;1.714;-3.725
4754930.947;-3.912;-25.667;-42.133;11.325;592.694;6.445;4.023;-4.210
4754930.974;-9.835;-30.696;-54.464;7.860;564.791;6.147;3.502;-4.955
4754930.982;-15.050;-35.390;-62.995;3.614;562.221;6.743;2.757;-3.688
4754930.990;-15.870;-36.955;-61.654;2.719;561.848;7.264;3.204;-4.508
4754930.998;-14.156;-36.545;-59.381;4.359;571.497;7.823;3.912;-3.837
4754931.006;-19.334;-40.941;-68.843;0.335;556.335;4.694;1.304;-6.147
4754931.014;-21.793;-45.598;-70.743;-4.210;565.723;0.075;-3.092;-10.021
4754931.022;-22.650;-46.231;-72.122;-3.763;556.782;-0.075;-4.396;-10.394
4754931.030;-25.108;-46.715;-78.082;-3.204;537.671;1.341;-2.719;-8.605
4754931.038;-24.550;-47.982;-77.561;-4.917;548.661;1.825;-0.820;-9.723
4754931.046;-22.277;-46.529;-75.065;-3.539;545.308;5.849;3.576;-8.121
4754931.054;-24.438;-46.529;-82.701;-1.155;507.981;9.649;7.264;-5.364
4754931.062;-21.122;-42.506;-79.498;4.768;519.790;13.299;11.362;-1.974
4754931.070;-24.326;-46.343;-78.119;-0.037;520.758;8.047;5.066;-5.849
4754931.078;-26.599;-51.260;-81.249;-5.104;512.712;0.820;-3.017;-9.872
4754931.086;-19.297;-47.088;-69.439;-3.651;529.177;1.937;-4.433;-7.115
4754931.094;-19.111;-46.343;-76.219;-1.416;492.744;-0.186;-7.972;-7.376
4754931.102;-17.323;-44.629;-76.592;1.602;483.990;-3.949;-10.841;-9.723
4754931.110;-16.242;-45.188;-69.030;0.447;496.246;-6.184;-11.958;-11.884
4754931.118;-18.030;-51.484;-75.065;-3.166;475.012;-4.470;-10.617;-12.740
4754931.126;-15.758;-50.105;-74.618;-1.453;461.303;2.310;-2.645;-8.419
4754931.134;-16.578;-50.738;-71.190;0.149;466.183;3.763;0.335;-9.164
4754931.142;-15.385;-49.844;-68.732;0.596;455.193;3.241;1.192;-10.319
4754931.150;-17.658;-50.105;-73.910;-0.671;428.744;3.539;1.043;-9.052
4754931.158;-19.036;-53.383;-72.345;-2.645;426.620;2.831;-0.261;-8.009
4754931.214;-17.323;-51.744;-67.726;-1.155;417.344;6.631;3.055;-4.061
4754931.222;-22.054;-53.979;-74.506;-2.272;391.342;5.886;1.825;-5.662
4754931.230;-21.867;-53.123;-72.457;-2.347;370.778;5.476;3.278;-8.047
4754931.238;-20.526;-51.819;-68.098;-3.166;350.922;7.600;6.407;-7.749
4754931.246;-17.919;-50.142;-62.175;-2.757;331.998;7.935;6.929;-6.966
4754931.254;-16.540;-49.956;-59.009;-2.794;305.474;8.903;6.855;-4.284
4754931.262;-14.417;-50.515;-56.736;-3.353;277.720;6.668;2.421;-4.657
4754931.270;-14.305;-51.968;-54.389;-5.774;244.342;6.407;0.522;-3.390
4754931.278;-15.646;-54.576;-50.627;-10.431;206.977;7.264;1.788;-2.310
4754931.286;-17.881;-57.146;-50.776;-15.795;161.044;3.316;-3.017;-6.482
4754931.294;-15.050;-52.527;-43.623;-15.311;136.234;1.676;-3.725;-5.327
4754931.302;-12.331;-49.025;-35.651;-15.534;123.121;2.608;-3.949;-6.035
4754931.310;-13.225;-47.311;-33.453;-17.546;89.705;1.453;-5.141;-8.829
4754931.318;-14.007;-46.641;-29.355;-20.973;49.882;0.857;-5.439;-10.021
4754931.326;-15.832;-47.982;-26.487;-25.854;-0.633;2.235;-4.172;-8.233
4754931.334;-17.844;-48.205;-25.146;-27.567;-45.747;3.688;-2.980;-5.476
4754931.342;-20.228;-50.217;-28.014;-30.249;-80.988;-0.708;-5.104;-6.333
4754931.350;-21.569;-48.913;-29.467;-32.000;-115.074;-2.757;-4.210;-7.078
4754931.358;-21.607;-47.535;-28.126;-32.671;-161.603;-2.049;-5.476;-7.637
4754931.366;-22.128;-47.348;-27.418;-33.155;-190.996;-3.576;-7.600;-9.760
4754931.374;-21.756;-45.449;-25.555;-34.235;-206.418;-0.857;-4.694;-9.276
4754931.382;-18.589;-41.090;-20.377;-30.547;-211.000;3.204;-2.384;-6.780
4754931.390;-16.503;-36.620;-16.056;-26.748;-218.153;2.533;-1.751;-6.147
4754931.398;-16.354;-36.322;-11.958;-27.157;-223.890;-1.527;-2.570;-9.350
4754931.348;-15.162;-35.688;-7.786;-30.287;-224.896;-8.270;-8.605;-14.938
4754931.356;-13.895;-31.032;-1.453;-28.461;-224.933;-12.517;-13.337;-19.595
4754931.364;-12.629;-28.573;3.539;-25.555;-223.219;-12.293;-15.236;-20.787
4754931.372;-10.505;-25.891;6.892;-25.593;-223.890;-10.468;-12.107;-20.377
4754931.380;-10.878;-28.946;3.427;-28.238;-228.845;-5.774;-7.302;-16.615
4754931.388;-15.087;-32.745;-1.341;-32.000;-232.570;-3.800;-6.333;-13.150
4754931.396;-15.572;-31.441;0.708;-33.304;-234.023;-2.459;-5.774;-12.256
4754931.404;-13.337;-30.063;4.768;-32.894;-232.719;-1.937;-1.416;-12.144
4754931.412;-10.654;-27.493;8.233;-30.734;-230.968;-2.682;-1.043;-12.182
4754931.420;-12.666;-30.287;7.562;-33.937;-232.756;-3.204;-7.525;-11.809
4754931.428;-13.635;-30.026;8.196;-31.851;-234.358;0.633;-1.825;-7.190
4754931.436;-12.852;-26.561;6.035;-28.349;-233.985;3.651;4.508;-4.917
4754931.444;-15.572;-29.616;-18.403;-31.441;-237.115;-1.937;-2.831;-13.411
4754931.452;-15.534;-31.628;-29.393;-32.969;-234.842;-7.562;-16.242;-16.913
4754931.460;-14.044;-30.175;-36.024;-32.671;-230.558;-8.084;-14.268;-15.683
4754931.468;-14.603;-29.914;-45.449;-33.230;-228.174;-7.898;-12.778;-15.721
4754931.476;-11.213;-26.375;-45.039;-27.530;-224.188;-3.874;-7.711;-12.666
4754931.484;-3.986;-20.564;-39.972;-21.234;-217.818;-2.272;-5.439;-10.133
4754931.492;4.508;-10.282;-30.063;-10.878;-209.250;1.639;-2.496;-6.445
4754931.500;12.554;-1.229;-21.458;-2.682;-201.911;5.029;2.012;-2.235
4754931.508;21.458;7.935;-13.188;6.258;-193.231;8.866;6.817;0.745
4754931.516;28.461;14.901;-4.433;11.362;-186.376;12.442;11.548;3.912
4754931.524;35.614;21.309;4.321;18.291;-175.834;11.921;10.990;5.215
4754931.532;44.480;31.069;10.803;27.567;-175.536;10.990;10.282;3.502
4754931.530;55.879;39.674;21.309;35.651;-168.942;13.225;11.623;3.614
4754931.538;61.840;43.176;28.275;38.780;-162.050;15.087;14.603;3.092
4754931.546;62.324;46.007;24.810;40.010;-159.293;16.503;16.801;3.651
4754931.554;57.630;39.749;9.537;33.900;-163.317;13.299;14.193;2.012
4754931.562;52.452;33.975;1.937;27.716;-174.083;10.990;12.852;1.416
4754931.570;49.137;30.696;0.782;24.959;-173.114;13.672;14.007;5.476
4754931.578;45.188;25.034;-1.863;21.271;-177.100;20.452;15.534;11.176
4754931.586;47.274;25.555;0.559;21.681;-174.232;26.859;18.664;15.162
4754931.594;54.426;34.012;8.941;30.585;-169.277;27.344;21.122;16.801
4754931.602;61.430;42.208;19.185;36.061;-155.792;24.214;20.750;14.715
4754931.610;62.510;43.511;18.440;38.072;-158.064;19.409;16.429;9.574
4754931.618;59.418;39.227;15.870;33.490;-166.260;17.583;16.168;5.625
4754931.626;58.636;39.116;17.807;32.410;-162.534;23.060;22.091;9.127
4754931.634;59.269;37.663;18.962;32.745;-160.150;25.928;26.003;11.362
4754931.642;60.908;39.563;26.710;34.943;-157.729;27.157;28.126;11.586
4754931.650;53.942;35.129;31.702;30.883;-160.523;27.306;27.530;12.927
4754931.658;56.252;34.161;42.394;27.232;-155.717;20.973;20.638;8.494
4754931.666;80.094;53.383;73.165;40.904;-128.075;17.732;16.317;6.557
4754931.674;115.708;79.758;122.450;61.430;-84.080;15.534;10.096;7.525
4754931.682;162.311;115.596;182.912;89.817;-37.290;10.356;4.582;3.614
4754931.690;221.096;161.231;253.618;125.356;18.217;8.345;2.980;1.267
4754931.698;267.476;197.552;308.044;153.594;49.695;6.668;1.565;-2.831
4754931.706;296.496;220.947;344.925;169.687;79.088;8.829;3.204;-2.198
4754931.714;311.509;231.676;367.984;176.504;101.216;7.860;0.894;-0.633
4754931.738;313.297;233.240;374.354;175.126;108.220;7.823;-2.235;1.937
4754931.746;315.793;235.029;380.017;174.567;117.794;12.629;-0.857;5.886
4754931.754;315.681;234.656;384.822;173.859;126.176;16.093;1.341;7.041
4754931.762;312.291;230.186;383.444;167.266;125.356;15.087;2.161;5.625
4754931.770;301.898;214.614;376.925;149.161;130.236;11.474;0.522;1.080
4754931.778;278.428;190.139;358.075;118.986;127.293;6.743;-3.837;-2.123
4754931.786;247.434;160.560;330.284;85.942;109.300;4.843;-6.035;-0.969
4754931.794;221.655;133.999;304.319;58.599;96.299;5.960;-5.998;2.459
4754931.802;199.713;114.888;280.291;41.313;83.186;6.966;-5.215;3.316
4754931.810;174.530;92.015;254.847;23.060;69.700;7.600;-7.190;3.651
4754931.818;155.382;76.368;235.066;6.147;60.461;6.035;-10.580;1.304
4754931.826;135.005;59.530;213.906;-10.431;49.062;4.135;-11.772;-1.155
4754931.834;112.467;40.904;189.804;-27.008;33.416;1.006;-14.491;-3.800
4754931.842;94.585;25.481;171.289;-40.680;21.234;-2.608;-17.397;-6.631
4754931.850;81.658;13.597;157.990;-51.148;13.486;-3.576;-16.168;-7.376
4754931.858;71.637;5.364;147.708;-57.742;8.829;-4.210;-15.721;-8.866
4754931.866;58.301;-6.221;133.999;-70.147;0.373;-5.476;-18.366;-11.586
4754931.874;48.764;-13.970;123.978;-76.965;-2.794;-6.072;-19.222;-12.442
4754931.882;39.786;-19.707;113.398;-81.770;-12.815;-0.522;-17.881;-8.456
4754931.890;37.067;-20.862;109.673;-81.286;-9.686;5.625;-15.534;-1.490
4754931.898;28.908;-27.418;99.726;-87.880;-15.795;5.662;-16.801;0.410
4754931.906;14.976;-40.159;84.788;-98.944;-29.691;-2.794;-23.171;-6.482
4754931.914;7.972;-47.274;79.609;-105.277;-30.249;-8.158;-26.226;-10.319
4754931.922;7.525;-44.033;78.231;-103.526;-26.487;-5.141;-19.446;-8.233
4754931.946;1.900;-48.056;71.339;-105.463;-33.826;-8.009;-19.111;-12.852
4754931.954;-3.539;-51.819;65.863;-108.555;-39.674;-10.803;-19.222;-16.876
4754931.962;-2.421;-50.142;67.018;-105.388;-35.092;-4.806;-13.560;-12.703
4754931.970;-0.298;-48.615;69.253;-103.638;-30.138;0.149;-9.350;-7.302
4754931.978;-4.135;-50.962;65.416;-107.177;-31.702;3.539;-8.009;-4.098
4754931.986;-6.296;-53.458;62.622;-108.853;-27.157;10.245;-6.370;2.086
4754931.994;-8.941;-55.060;58.077;-107.661;-36.508;13.821;-4.359;4.582
4754932.002;-15.497;-60.797;51.446;-112.318;-40.419;10.505;-7.972;1.229
4754932.010;-18.775;-60.834;46.119;-111.684;-45.300;8.941;-9.313;0.261
4754932.018;-20.936;-60.201;45.449;-112.914;-44.480;5.476;-12.591;-3.055
4754932.026;-30.026;-67.540;35.949;-117.570;-48.764;1.788;-16.242;-5.625
4754932.034;-32.559;-67.502;31.926;-116.415;-52.638;3.055;-16.168;-4.321
4754932.042;-36.806;-73.574;25.965;-121.817;-61.020;1.900;-17.025;-6.333
4754932.050;-36.359;-74.841;25.257;-122.003;-58.971;3.241;-15.721;-5.662
4754932.058;-32.112;-67.540;28.163;-115.372;-54.054;6.631;-12.852;-3.949
4754932.066;-31.143;-63.516;28.871;-111.200;-51.446;7.488;-12.219;-4.210
4754932.074;-33.937;-68.136;24.736;-117.272;-57.779;2.161;-17.472;-9.313
4754932.082;-31.292;-66.087;26.561;-116.192;-47.646;2.757;-16.280;-7.413
4754932.090;-48.205;-79.349;6.333;-128.336;-74.282;6.333;-10.692;-2.570
4754932.098;-44.443;-69.961;8.494;-116.304;-74.059;5.886;-9.425;-3.278
4754932.106;-29.691;-57.369;19.185;-103.489;-66.832;5.253;-10.729;-4.917
4754932.114;-21.495;-49.099;22.054;-93.691;-71.749;5.290;-10.245;-5.625
4754932.122;-14.864;-42.580;23.805;-85.086;-73.612;-0.373;-14.193;-10.245
4754932.130;-12.554;-41.872;22.873;-84.639;-72.680;-5.886;-17.695;-14.640
4754932.114;-18.440;-46.529;17.546;-88.476;-73.947;-3.651;-14.864;-14.305
4754932.122;-23.209;-49.025;13.113;-92.052;-76.070;-3.465;-12.778;-14.752
4754932.130;-21.718;-44.107;15.646;-88.662;-73.500;-1.974;-9.537;-14.417
4754932.138;-18.924;-37.625;17.025;-81.137;-74.208;0.261;-7.227;-13.374
4754932.146;-14.566;-34.012;20.973;-78.976;-68.136;2.570;-9.537;-10.841
4754932.154;-10.692;-30.026;25.071;-75.847;-65.975;3.427;-10.468;-8.494
4754932.162;-4.806;-23.879;31.181;-69.812;-63.255;9.052;-6.258;-3.017
4754932.170;-2.049;-19.930;33.230;-66.981;-64.261;14.752;-3.204;1.453
4754932.178;-6.855;-24.773;29.132;-73.314;-68.881;13.709;-7.078;-0.224
4754932.186;-12.107;-30.808;25.034;-78.566;-72.606;8.307;-14.268;-6.966
4754932.194;-17.248;-31.628;22.613;-78.455;-73.649;4.433;-14.342;-10.505
4754932.202;-21.495;-31.553;20.787;-78.194;-73.500;1.043;-14.901;-11.362
4754932.210;-20.377;-27.865;25.630;-75.586;-71.935;1.974;-12.927;-9.649
4754932.218;-18.999;-23.916;28.759;-69.290;-67.353;5.104;-7.488;-8.196
4754932.226;-20.899;-24.810;27.679;-71.265;-66.869;2.719;-9.947;-11.772
4754932.234;-15.385;-16.503;34.049;-64.261;-59.940;3.725;-9.313;-11.884
4754932.242;-14.752;-14.938;32.559;-61.467;-56.513;1.676;-11.586;-13.337
4754932.250;-11.101;-9.835;35.129;-57.854;-52.340;2.459;-10.990;-11.548
4754932.258;-11.623;-12.107;35.390;-60.573;-51.558;5.588;-4.694;-8.270
4754932.266;-20.973;-19.744;25.630;-68.843;-58.487;1.639;-14.901;-9.760
4754932.274;-22.203;-20.005;24.065;-70.818;-56.922;0.000;-18.179;-11.623
4754932.282;-27.977;-26.412;19.297;-78.343;-57.817;-1.974;-22.128;-13.821
4754932.290;-30.063;-26.561;17.360;-76.629;-56.960;3.614;-15.832;-10.096
4754932.298;-33.043;-32.187;16.615;-83.484;-55.097;3.651;-16.540;-11.325
4754932.307;-29.989;-31.218;20.042;-83.186;-51.111;6.966;-13.225;-8.270
4754932.315;-26.338;-26.003;21.160;-79.125;-50.366;9.090;-8.717;-5.923
4754932.323;-27.157;-26.934;19.558;-80.615;-49.360;10.431;-8.978;-2.943
4754932.331;-21.867;-22.389;25.705;-77.263;-42.580;14.491;-4.917;1.006
4754932.339;-16.466;-16.503;31.516;-70.557;-39.153;18.813;0.782;3.092
4754932.347;-15.795;-16.429;32.075;-70.259;-38.333;17.099;0.075;1.863
4754932.355;-14.938;-15.274;32.969;-68.732;-36.843;16.727;1.341;1.974
4754932.363;-30.249;-28.536;16.540;-80.056;-50.068;17.732;2.459;1.341
4754932.371;-29.616;-28.834;20.005;-81.621;-42.543;13.784;-1.565;-3.576
4754932.379;-22.277;-23.618;31.888;-78.268;-29.057;3.986;-10.096;-12.293
4754932.387;-42.059;-41.835;16.801;-98.273;-37.327;-2.049;-16.280;-17.062
4754932.395;-57.593;-58.748;5.029;-116.266;-40.270;-5.700;-19.222;-18.291
4754932.403;-66.385;-67.204;-1.974;-121.705;-40.643;-6.743;-20.638;-19.446
4754932.411;-71.153;-71.116;-4.768;-125.207;-42.021;-6.370;-21.458;-20.377
4754932.419;-72.084;-71.749;-3.986;-128.038;-39.786;-5.811;-22.165;-18.738
4754932.427;-70.706;-69.663;-2.645;-127.368;-38.967;-4.284;-21.346;-15.609
4754932.435;-70.445;-69.886;-2.719;-127.777;-39.041;-5.662;-20.638;-15.423
4754932.443;-70.259;-68.471;-4.135;-124.201;-37.439;-4.247;-18.142;-15.348
4754932.451;-68.881;-64.895;-2.645;-119.694;-35.465;0.447;-13.821;-12.517
4754932.459;-65.751;-62.399;2.831;-116.862;-28.238;0.633;-14.640;-11.958
4754932.467;-67.391;-65.677;-0.037;-120.066;-32.373;-1.565;-19.819;-13.895
4754932.475;-69.402;-68.657;-3.688;-123.754;-36.098;-2.272;-21.867;-15.050
4754932.483;-74.543;-75.512;-9.798;-128.560;-43.511;-5.141;-27.381;-16.913
4754932.491;-79.535;-79.386;-12.890;-129.901;-49.211;-7.004;-28.461;-17.881
4754932.549;-79.162;-79.609;-13.225;-127.517;-51.148;-6.035;-26.114;-17.472
4754932.557;-75.400;-76.070;-10.803;-121.556;-50.031;-3.166;-21.458;-15.981
4754932.565;-67.949;-67.353;-4.992;-114.553;-46.566;-0.037;-15.199;-14.827
4754932.573;-65.789;-66.943;-2.831;-112.914;-43.921;-2.123;-15.944;-16.838
4754932.581;-64.336;-68.583;1.229;-114.068;-37.290;-5.402;-20.452;-18.142
4754932.589;-66.608;-70.445;-1.043;-113.659;-40.866;-6.855;-23.693;-17.732
4754932.597;-69.402;-72.122;-2.868;-114.813;-41.537;-5.998;-26.077;-16.801
4754932.605;-68.061;-71.190;0.484;-114.106;-38.147;-5.700;-27.157;-15.236
4754932.613;-55.134;-60.908;13.486;-105.351;-30.920;-6.855;-27.195;-13.188
4754932.621;-32.224;-43.213;37.253;-90.301;-16.019;-1.229;-19.297;-8.568
4754932.629;-1.192;-8.792;66.943;-50.142;-1.788;1.006;-14.901;-8.233
4754932.637;49.509;39.935;112.094;2.049;18.775;-1.974;-16.950;-10.133
4754932.645;101.253;90.264;159.405;61.281;39.414;-2.459;-16.168;-9.760
4754932.653;148.453;137.165;195.205;113.174;47.423;-1.527;-14.454;-8.419
4754932.661;192.039;182.129;228.211;164.658;54.389;2.347;-10.468;-5.551
4754932.669;231.527;220.835;261.329;212.230;65.230;6.258;-5.662;-2.906
4754932.677;255.406;245.944;276.156;243.783;65.528;15.125;4.992;3.800
4754932.685;276.268;271.387;286.847;277.758;60.648;21.383;12.480;7.078
4754932.693;299.811;296.161;299.439;311.323;61.281;25.705;17.546;8.903
4754932.701;305.139;303.574;293.814;323.541;48.764;29.206;22.016;10.692
4754932.709;310.875;313.558;291.504;339.895;40.308;29.691;24.997;10.468
4754932.717;299.253;307.076;270.568;341.125;16.466;27.791;25.965;7.823
4754932.725;288.561;300.705;253.581;340.454;0.596;27.232;25.146;7.041
4754932.733;277.050;291.616;235.289;334.717;-14.491;23.693;20.899;5.737
4754932.802;260.174;278.205;214.241;326.969;-28.461;21.867;18.962;5.029
4754932.810;243.597;266.023;195.801;316.165;-36.247;23.730;24.512;5.290
4754932.818;227.727;252.351;178.590;304.282;-45.411;20.228;22.277;1.974
4754932.826;203.550;232.309;153.109;285.096;-63.106;22.948;23.171;3.688
4754932.834;184.216;212.155;134.967;267.960;-68.657;23.693;25.146;3.204
4754932.842;159.740;187.717;111.982;240.877;-78.008;21.979;22.650;2.421
4754932.850;131.726;160.560;84.825;211.447;-90.562;16.838;13.933;-0.633
4754932.858;103.675;134.557;58.152;182.614;-105.314;14.417;9.350;-2.347
4754932.866;82.068;114.925;39.265;161.454;-111.386;11.772;7.711;-4.992
4754932.874;65.789;98.795;24.512;148.155;-114.515;9.947;8.866;-7.600
4754932.882;51.409;84.005;11.660;130.348;-119.992;5.066;8.382;-10.468
4754932.890;39.451;70.781;0.969;115.968;-122.935;4.694;8.456;-9.984
4754932.898;23.879;56.289;-12.144;100.173;-125.915;5.960;9.574;-9.276
4754932.906;7.302;40.606;-27.157;82.776;-132.136;7.451;11.623;-5.737
4754932.914;-16.205;16.466;-51.819;59.269;-150.539;5.215;7.264;-7.078
4754932.922;-38.967;-5.029;-74.208;38.743;-167.526;2.198;2.123;-10.133
4754932.930;-50.366;-16.689;-86.837;29.393;-173.636;1.192;-1.043;-10.468
4754932.938;-61.654;-27.791;-97.789;16.205;-177.473;-2.421;-7.860;-15.497
4754932.946;-68.098;-33.043;-102.818;10.282;-178.292;-4.768;-10.729;-18.626
4754932.954;-70.184;-37.514;-104.941;6.557;-175.051;-4.582;-9.649;-18.328
4754932.962;-73.053;-40.866;-107.847;2.868;-177.510;-0.335;-5.625;-14.566
4754932.970;-81.398;-47.013;-113.025;-2.235;-176.393;4.582;-0.149;-8.903
4754932.978;-96.224;-60.275;-125.319;-17.025;-184.141;5.178;0.261;-8.531
4754932.986;-111.349;-74.580;-139.736;-33.006;-196.174;2.943;-2.719;-10.729
4754932.996;-118.315;-82.143;-146.739;-38.557;-200.309;0.559;-3.390;-12.033
4754933.004;-123.158;-88.923;-149.235;-46.492;-200.272;0.298;-4.396;-12.405
4754933.012;-126.101;-91.791;-151.955;-51.185;-201.315;-1.453;-5.960;-14.156
4754933.020;-127.070;-91.679;-154.637;-50.887;-203.624;-1.490;-5.215;-13.895
4754933.028;-129.566;-91.195;-156.872;-49.137;-204.481;-0.969;-5.253;-14.193
4754933.036;-133.365;-94.585;-160.597;-52.266;-204.258;-2.384;-8.978;-14.529
4754933.044;-140.294;-101.142;-169.277;-61.020;-212.975;-4.619;-14.454;-14.268
4754933.052;-145.845;-105.426;-174.604;-63.255;-216.998;-5.178;-14.752;-15.795
4754933.060;-146.627;-107.288;-175.126;-67.092;-215.806;-3.576;-11.474;-15.572
4754933.068;-148.639;-108.480;-176.765;-67.614;-218.004;4.023;-5.029;-9.686
4754933.076;-153.072;-112.616;-181.310;-69.402;-222.772;4.843;-4.172;-8.531
4754933.084;-154.153;-113.323;-182.055;-71.153;-223.182;3.576;-5.811;-9.201
4754933.092;-152.327;-112.318;-178.367;-69.812;-216.812;2.831;-6.519;-8.829
4754933.100;-149.123;-108.927;-175.014;-66.534;-214.279;-0.745;-9.388;-11.772
4754933.108;-141.524;-101.142;-167.824;-59.083;-209.734;0.335;-7.600;-12.219
4754933.116;-139.438;-99.652;-166.297;-56.773;-209.212;0.782;-5.439;-13.746
4754933.124;-136.495;-96.336;-163.130;-55.246;-206.716;-1.118;-6.296;-16.317
4754933.132;-135.712;-96.858;-163.950;-55.917;-208.616;-3.688;-7.488;-18.328
4754933.140;-134.595;-95.181;-162.795;-53.085;-204.332;-3.837;-7.972;-16.242
4754933.148;-134.856;-94.138;-163.838;-52.229;-210.516;-2.943;-7.227;-14.901
4754933.156;-136.010;-97.975;-163.428;-55.321;-205.748;-5.104;-10.505;-15.348
4754933.164;-138.283;-99.242;-167.564;-55.134;-207.871;-6.482;-11.511;-16.987
4754933.172;-137.128;-98.385;-165.366;-54.240;-202.172;-7.823;-13.150;-18.924
4754933.180;-132.807;-94.622;-163.689;-50.440;-207.946;-5.402;-13.039;-17.025
4754933.118;-128.560;-89.854;-158.884;-45.374;-202.954;-1.676;-9.611;-14.082
4754933.126;-132.099;-95.293;-160.299;-50.664;-203.624;-3.576;-10.133;-15.274
4754933.134;-129.379;-92.313;-157.692;-47.684;-202.991;-4.396;-8.829;-16.429
4754933.142;-125.021;-86.837;-154.562;-39.674;-198.521;-1.825;-4.955;-15.199
4754933.150;-125.356;-88.066;-156.835;-40.829;-199.340;-3.166;-8.419;-16.615
4754933.158;-130.683;-91.046;-160.336;-43.549;-192.709;0.298;-4.843;-14.156
4754933.166;-130.124;-96.112;-156.909;-51.074;-194.237;-5.327;-10.319;-18.813
4754933.174;-127.591;-95.293;-151.210;-49.584;-174.120;-5.923;-10.803;-19.036
4754933.182;-125.170;-98.310;-146.218;-56.699;-166.409;-2.533;-8.233;-15.199
4754933.190;-122.041;-95.852;-138.991;-57.258;-148.267;0.149;-4.619;-13.560
4754933.198;-134.185;-107.959;-150.539;-71.712;-149.496;-0.745;-7.711;-14.007
4754933.206;-149.347;-123.344;-170.171;-85.384;-166.818;-6.557;-15.646;-19.372
4754933.214;-153.035;-126.734;-170.767;-87.433;-156.835;-9.462;-19.930;-20.936
4754933.222;-148.527;-123.978;-165.552;-84.564;-144.653;-10.356;-19.446;-20.936
4754933.230;-143.312;-122.227;-159.442;-81.919;-146.776;-8.792;-14.044;-20.564
4754933.238;-143.424;-120.215;-161.007;-79.349;-162.125;-6.966;-9.723;-20.377
4754933.246;-144.467;-123.158;-165.328;-81.062;-162.423;-9.164;-13.746;-23.060
4754933.254;-142.194;-122.674;-163.168;-79.237;-152.513;-12.629;-18.142;-26.338
4754933.262;-137.240;-120.625;-158.176;-75.661;-137.612;-15.236;-20.452;-29.877
4754933.270;-136.495;-121.109;-156.313;-75.661;-126.474;-11.586;-17.211;-23.656
4754933.278;-142.828;-129.528;-163.317;-83.484;-132.620;-14.938;-21.011;-26.487
4754933.286;-149.086;-136.606;-176.169;-88.327;-126.287;-18.738;-24.885;-29.951
4754933.294;-151.135;-138.022;-175.945;-89.221;-93.244;-21.234;-26.785;-30.883
4754933.302;-155.084;-141.710;-183.024;-90.972;-94.511;-20.824;-27.344;-30.212
4754933.282;-159.442;-145.137;-184.812;-93.207;-72.978;-19.446;-27.120;-28.722
4754933.290;-164.621;-149.682;-192.225;-94.436;-70.781;-18.738;-24.922;-28.424
4754933.298;-164.472;-152.439;-192.299;-97.938;-54.315;-18.142;-25.146;-29.877
4754933.306;-155.605;-142.492;-182.167;-87.954;-23.767;-12.256;-21.569;-23.656
4754933.314;-165.440;-150.092;-199.266;-93.095;-35.465;-10.841;-19.632;-24.252
4754933.322;-163.279;-151.582;-196.360;-94.846;-24.587;-11.176;-19.558;-25.034
4754933.330;-134.259;-129.491;-160.038;-77.188;28.126;-14.305;-21.867;-26.412
4754933.338;-114.925;-117.421;-134.781;-70.594;57.854;-12.703;-21.942;-24.177
4754933.346;-95.032;-105.500;-110.380;-68.620;87.321;-12.852;-23.507;-23.395
4754933.354;-71.190;-86.650;-81.137;-57.220;130.050;-11.176;-24.177;-20.936
4754933.362;-52.117;-71.339;-59.828;-51.558;152.700;-11.884;-28.424;-20.377
4754933.370;-38.892;-58.934;-42.617;-47.125;171.997;-11.437;-27.344;-19.595
4754933.378;-28.647;-52.527;-27.828;-45.262;186.674;-10.990;-25.854;-19.968
4754933.386;-21.160;-48.168;-18.515;-44.890;201.426;-11.586;-25.928;-21.122
4754933.394;-16.354;-46.715;-9.798;-45.933;217.482;-13.337;-28.163;-22.948
4754933.402;-23.618;-53.942;-18.589;-52.750;205.152;-10.878;-27.195;-19.707
4754933.410;-30.026;-57.109;-27.604;-56.587;198.111;-8.829;-24.438;-15.311
4754933.418;-38.259;-65.453;-34.608;-65.602;195.205;-13.597;-28.610;-18.962
4754933.426;-46.901;-70.892;-41.798;-69.700;189.580;-17.807;-31.367;-23.283
4754933.434;-49.546;-72.606;-44.703;-70.855;184.439;-14.752;-29.914;-20.638
4754933.442;-51.893;-74.990;-47.274;-73.388;182.018;-10.803;-25.108;-17.956
4754933.450;-56.550;-79.162;-51.744;-79.498;173.785;-10.543;-23.991;-17.621
4754933.458;-56.587;-80.429;-51.744;-80.429;172.704;-6.817;-22.314;-14.678
4754933.466;-58.562;-80.764;-54.128;-81.621;168.495;-5.402;-22.314;-14.342
4754933.447;-68.806;-88.960;-66.385;-89.034;152.439;-10.058;-25.518;-18.813
4754933.455;-73.723;-92.834;-72.159;-90.636;141.263;-11.362;-24.065;-18.664
4754933.463;-73.276;-92.983;-71.041;-90.152;142.716;-14.119;-23.544;-21.160
4754933.471;-70.669;-92.685;-67.502;-88.885;149.868;-17.174;-24.065;-23.283
4754933.479;-68.434;-89.817;-62.585;-90.003;157.319;-16.876;-23.618;-21.420
4754933.487;-73.649;-94.064;-71.004;-92.946;139.289;-18.775;-26.263;-23.842
4754933.495;-74.506;-96.448;-70.557;-93.952;137.798;-14.976;-23.618;-20.377
4754933.503;-73.686;-95.032;-70.482;-94.622;135.973;-9.686;-17.807;-15.683
4754933.511;-75.363;-98.012;-70.706;-96.038;134.446;-11.958;-19.036;-17.919
4754933.519;-75.176;-98.869;-66.496;-96.150;135.787;-11.586;-21.458;-17.360
4754933.527;-79.274;-103.042;-74.357;-100.061;124.201;-11.735;-25.742;-16.466
4754933.535;-81.100;-104.159;-75.512;-100.844;120.290;-12.703;-25.369;-18.366
4754933.543;-79.535;-101.440;-74.320;-95.516;118.576;-13.523;-24.289;-19.893
4754933.551;-78.790;-105.575;-68.769;-101.142;132.322;-15.199;-25.779;-20.228
4754933.559;-74.618;-101.924;-66.087;-97.491;112.951;-14.119;-24.252;-18.962
4754933.567;-66.608;-93.244;-59.903;-85.086;118.725;-12.666;-24.736;-18.515
4754933.575;-50.962;-79.051;-39.525;-72.755;136.569;-12.666;-25.667;-15.870
4754933.583;-33.453;-64.895;-23.581;-62.026;137.240;-10.058;-24.326;-11.995
4754933.591;-11.884;-40.159;-6.445;-31.888;145.510;-3.427;-20.079;-6.780
4754933.599;50.776;29.467;52.378;48.280;176.951;-0.931;-16.578;-4.470
4754933.607;89.295;71.898;78.008;98.385;177.287;3.763;-9.947;-1.080
4754933.615;127.517;114.515;102.147;153.780;178.069;3.316;-7.302;-3.017
4754933.623;160.225;150.315;124.611;202.544;175.685;2.533;-7.227;-4.806
4754933.631;184.588;176.504;136.383;235.252;166.520;7.935;-0.671;-0.931
4754933.718;207.610;201.836;151.508;267.364;164.062;12.927;5.737;1.863
4754933.726;218.526;212.640;154.898;285.804;159.740;13.970;8.196;2.310
4754933.734;213.310;207.648;146.516;285.543;155.605;12.703;8.494;1.937
4754933.742;186.339;186.190;108.555;267.439;106.134;5.737;1.378;-3.316
4754933.750;157.095;161.715;74.841;247.136;81.547;0.857;-1.900;-7.749
4754933.758;119.396;129.715;37.141;217.184;60.834;1.416;-0.447;-8.494
4754933.766;88.103;100.285;5.588;190.735;42.468;3.874;4.210;-8.531
4754933.774;64.149;75.921;-17.397;163.689;26.748;1.416;3.837;-9.760
4754933.782;39.339;50.291;-37.849;135.154;18.030;-2.012;-2.012;-10.654
4754933.790;17.509;29.095;-58.301;115.223;3.129;-1.676;-4.582;-8.754
4754933.798;-7.413;5.253;-80.541;90.003;-16.689;-2.980;-8.233;-8.792
4754933.806;-20.973;-9.798;-91.083;71.302;-23.954;0.224;-6.743;-5.886
4754933.814;-30.845;-20.899;-97.416;58.413;-24.661;1.825;-4.061;-4.694
4754933.822;-41.947;-31.739;-108.369;46.678;-39.823;-5.066;-5.923;-13.299
4754933.830;-46.715;-36.843;-112.541;41.239;-45.002;-4.806;-1.714;-14.864
4754933.838;-57.109;-46.939;-119.619;26.524;-50.850;-3.316;-1.453;-9.835
4754933.846;-68.322;-60.387;-129.305;13.821;-58.711;-4.247;-6.892;-7.898
4754933.854;-75.102;-66.832;-136.308;6.557;-71.265;-2.384;-7.562;-6.855
4754933.862;-78.753;-68.955;-138.320;2.086;-73.463;-3.614;-7.413;-10.617
4754933.870;-86.129;-76.517;-141.449;-6.258;-72.196;-8.643;-8.643;-16.615
4754933.878;-93.132;-81.249;-147.708;-11.548;-84.378;-7.078;-6.072;-16.987
4754933.886;-102.147;-89.929;-156.276;-21.309;-96.522;-1.676;-2.496;-13.076
4754933.894;-106.320;-94.622;-157.654;-27.753;-97.491;2.123;-1.043;-9.499
4754933.902;-109.337;-94.548;-158.399;-27.269;-97.379;8.605;2.608;-1.751
4754933.956;-116.155;-102.296;-162.907;-36.359;-108.555;6.221;-0.559;-1.937
4754933.964;-117.384;-102.185;-162.646;-37.141;-113.249;3.465;-1.751;-5.364
4754933.972;-115.484;-99.726;-159.889;-33.900;-113.361;0.782;-1.974;-7.860
4754933.980;-116.266;-101.700;-158.250;-36.620;-112.690;-3.353;-5.960;-10.617
4754933.988;-113.212;-98.683;-153.556;-33.602;-106.879;0.149;-2.086;-8.531
4754933.996;-113.212;-99.465;-154.264;-33.975;-110.827;-0.708;-2.757;-8.643
4754934.004;-110.455;-96.597;-149.645;-33.788;-104.681;-0.596;-2.533;-6.557
4754934.012;-113.174;-98.646;-152.737;-35.055;-109.859;-2.421;-5.439;-8.196
4754934.020;-113.063;-98.087;-150.613;-35.986;-108.369;-2.608;-5.551;-9.462
4754934.028;-116.490;-101.067;-151.433;-40.047;-110.269;-5.364;-7.078;-10.021
4754934.036;-118.241;-104.606;-152.811;-44.331;-116.341;-10.319;-9.052;-13.858
4754934.044;-117.049;-103.898;-150.725;-46.007;-115.596;-11.474;-10.841;-14.864
4754934.052;-119.284;-105.351;-150.204;-47.833;-113.845;-10.245;-12.666;-11.735
4754934.060;-127.703;-111.163;-159.815;-53.123;-129.640;-13.150;-16.652;-12.964
4754934.068;-127.256;-110.120;-155.903;-52.303;-123.717;-11.511;-15.460;-12.815
4754934.076;-125.393;-108.704;-152.886;-52.042;-122.823;-10.133;-14.640;-11.884
4754934.084;-119.731;-100.136;-147.857;-44.070;-121.370;-5.923;-9.313;-9.537
4754934.092;-119.619;-99.540;-148.080;-42.729;-121.482;-6.407;-8.196;-11.697
4754934.100;-118.800;-100.769;-145.584;-46.678;-113.770;-8.382;-9.350;-13.150
4754934.108;-118.352;-99.614;-143.386;-45.747;-107.512;-10.505;-9.984;-14.380
4754934.116;-117.756;-99.130;-142.641;-46.007;-110.827;-12.629;-10.803;-16.578
4754934.124;-113.510;-92.015;-139.214;-40.494;-108.108;-8.494;-6.668;-15.311
4754934.132;-111.498;-90.897;-135.973;-40.047;-103.153;-4.023;-5.104;-10.766
4754934.140;-115.521;-96.150;-140.555;-43.772;-113.659;-6.631;-5.625;-12.405
4754934.137;-118.315;-97.863;-142.083;-46.231;-112.429;-7.115;-6.221;-13.486
4754934.145;-117.235;-96.709;-139.549;-45.635;-106.208;-4.917;-6.855;-11.884
4754934.153;-118.949;-97.007;-142.753;-45.486;-113.435;-7.786;-10.617;-12.778
4754934.161;-116.676;-97.491;-139.475;-45.225;-108.816;-9.909;-12.517;-13.299
4754934.169;-112.802;-94.250;-135.340;-41.686;-107.251;-8.680;-9.239;-13.858
4754934.177;-109.822;-90.189;-131.316;-37.961;-105.985;-6.072;-5.253;-11.586
4754934.185;-110.157;-92.089;-130.497;-39.749;-108.667;-5.178;-5.960;-8.978
4754934.193;-114.329;-97.156;-133.291;-47.758;-110.492;-10.692;-11.139;-12.182
4754934.201;-117.496;-100.359;-136.755;-52.080;-116.080;-13.933;-14.193;-14.342
4754934.209;-115.894;-98.199;-135.824;-50.031;-114.106;-10.803;-11.176;-12.890
4754934.217;-116.043;-98.087;-133.663;-51.484;-110.380;-12.331;-12.480;-14.268
4754934.225;-117.682;-97.305;-135.526;-48.317;-110.604;-11.735;-10.952;-14.193
4754934.233;-120.141;-99.652;-136.234;-53.756;-104.308;-9.798;-7.227;-12.591
4754934.241;-101.253;-85.868;-112.988;-44.294;-70.706;-15.423;-12.070;-17.285
4754934.249;-99.540;-86.091;-108.927;-49.882;-61.132;-17.621;-15.199;-18.403
4754934.257;-90.264;-76.443;-98.199;-41.686;-48.988;-19.111;-19.222;-18.552
4754934.265;-96.597;-80.615;-104.271;-45.598;-56.811;-20.899;-21.569;-19.185
4754934.273;-102.222;-83.819;-109.449;-50.180;-60.312;-19.073;-20.452;-17.434
4754934.281;-107.139;-89.966;-113.398;-56.699;-62.063;-22.165;-22.501;-20.191
4754934.289;-111.200;-93.095;-118.650;-58.413;-73.165;-25.071;-22.613;-21.569
4754934.297;-110.045;-92.089;-115.670;-60.163;-66.757;-21.234;-20.638;-18.440
4754934.305;-107.996;-91.493;-113.398;-59.418;-64.075;-14.417;-15.832;-14.827
4754934.313;-110.939;-93.281;-117.123;-59.605;-68.024;-8.941;-9.127;-11.623
4754934.321;-115.409;-97.491;-121.221;-62.250;-72.643;-5.178;-6.147;-8.978
4754934.288;-118.092;-101.589;-121.780;-66.236;-69.998;-7.376;-10.245;-10.394
4754934.296;-123.642;-108.257;-128.821;-74.133;-81.807;-14.119;-18.589;-15.050
4754934.304;-125.356;-109.263;-130.273;-72.084;-78.380;-17.360;-22.873;-20.042
4754934.312;-124.425;-106.283;-129.640;-71.488;-79.945;-19.073;-24.028;-21.420
4754934.320;-118.800;-100.806;-122.599;-66.347;-78.306;-16.429;-21.197;-18.291
4754934.328;-116.341;-99.093;-118.613;-65.677;-70.184;-16.131;-21.271;-15.460
4754934.336;-113.435;-96.969;-114.031;-64.597;-64.485;-13.523;-17.323;-11.213
4754934.344;-103.042;-87.321;-103.563;-55.395;-53.681;-10.394;-13.970;-7.600
4754934.352;-100.359;-83.297;-102.259;-50.552;-58.413;-12.591;-14.044;-11.288
4754934.360;-101.775;-86.203;-105.165;-53.048;-60.499;-14.044;-14.640;-13.001
4754934.368;-98.050;-83.968;-101.402;-50.031;-57.518;-13.560;-14.007;-12.629
4754934.376;-96.671;-82.701;-99.801;-50.701;-57.667;-17.881;-17.099;-17.062
4754934.384;-96.336;-84.005;-98.459;-52.750;-53.570;-20.713;-19.558;-19.483
4754934.392;-99.763;-87.768;-101.365;-57.481;-55.023;-19.409;-20.340;-19.521
4754934.400;-102.408;-91.605;-104.047;-61.132;-60.685;-17.807;-20.042;-19.073
4754934.408;-102.073;-90.413;-104.010;-59.530;-60.797;-11.437;-13.746;-14.938
4754934.416;-103.004;-91.754;-106.059;-62.659;-64.448;-8.605;-11.660;-11.660
4754934.424;-98.981;-88.364;-102.706;-59.046;-58.450;-9.313;-11.697;-10.766
4754934.432;-96.112;-84.601;-100.061;-55.768;-54.315;-8.866;-10.319;-9.723
4754934.440;-94.660;-83.596;-99.614;-55.693;-55.656;-10.654;-11.325;-10.133
4754934.448;-91.977;-80.429;-96.597;-53.383;-52.936;-12.331;-12.144;-11.735
4754934.456;-95.591;-82.776;-100.695;-56.550;-54.650;-12.107;-10.915;-13.337
4754934.464;-108.704;-96.075;-113.472;-71.302;-64.299;-11.846;-12.144;-14.044
4754934.472;-87.842;-77.672;-93.281;-54.352;-50.180;-15.162;-18.142;-15.460
4754934.545;-63.777;-57.817;-69.216;-36.955;-34.645;-10.580;-15.125;-10.133
4754934.553;-37.812;-38.072;-40.419;-25.406;-11.511;-9.909;-15.721;-7.972
4754934.561;-15.274;-19.558;-15.795;-14.566;5.960;-11.064;-17.509;-9.760
4754934.569;13.262;5.141;15.497;4.917;30.100;-10.692;-15.907;-10.729
4754934.577;41.276;29.616;44.182;24.177;51.334;-4.210;-8.792;-7.078
4754934.585;57.183;42.245;57.034;33.155;53.346;0.075;-2.645;-4.694
4754934.593;66.347;47.199;67.018;34.645;64.746;2.868;0.522;0.373
4754934.601;62.287;42.766;64.783;27.455;62.250;7.115;4.992;6.966
4754934.609;50.627;32.745;53.570;16.838;51.744;9.872;6.258;9.872
4754934.617;43.176;28.312;45.784;12.070;47.013;6.855;3.166;6.370
4754934.625;39.041;23.954;44.629;6.482;53.495;7.078;1.378;4.880
4754934.633;30.696;16.242;35.614;-2.570;41.984;5.849;0.410;1.527
4754934.641;21.309;9.909;26.785;-10.394;33.081;4.545;0.894;0.037
4754934.649;16.466;5.923;23.842;-12.964;36.843;6.557;1.043;2.570
4754934.657;15.423;5.476;22.724;-11.511;33.006;12.405;0.596;9.499
4754934.665;12.740;2.086;21.011;-14.715;31.888;14.789;-2.421;14.603
4754934.673;6.445;-3.614;14.529;-18.887;25.555;7.972;-8.419;11.139
4754934.681;2.459;-5.104;12.964;-18.924;27.716;7.451;-2.347;9.686
4754934.689;-1.043;-10.207;9.723;-23.805;26.114;8.829;6.035;10.543
4754934.697;-1.229;-10.617;7.786;-23.507;18.366;9.388;12.070;11.101
4754934.705;-1.155;-11.921;9.276;-24.252;19.372;8.680;12.107;10.170
4754934.713;3.986;-8.531;14.789;-22.352;29.877;6.855;6.780;8.717
4754934.721;7.488;-4.880;17.658;-18.440;27.753;10.021;4.731;12.517
4754934.729;7.264;-6.482;18.105;-19.595;26.561;9.947;5.476;10.543
4754934.782;9.462;-5.215;21.718;-20.526;30.659;10.505;7.786;9.052
4754934.790;9.760;-5.066;23.320;-20.452;35.055;12.890;10.319;11.474
4754934.798;4.508;-9.239;16.913;-23.916;24.550;11.660;9.388;11.399
4754934.806;-1.937;-13.337;9.611;-26.785;14.938;7.413;4.843;8.345
4754934.814;-2.459;-13.188;10.207;-24.326;15.907;4.880;0.671;7.264
4754934.822;-0.410;-11.995;14.342;-23.395;22.314;3.092;-3.166;7.302
4754934.830;-0.037;-12.144;13.746;-23.209;22.277;3.837;-1.639;6.743
4754934.838;0.484;-10.133;12.182;-21.383;18.999;8.270;4.396;10.133
4754934.846;2.049;-7.413;13.337;-18.068;20.117;10.952;7.302;12.927
4754934.854;3.837;-6.966;14.529;-18.738;23.134;9.239;2.496;12.331
4754934.862;6.631;-4.210;17.136;-16.764;23.991;9.686;-0.931;14.566
4754934.870;6.296;-5.178;14.789;-17.136;17.062;10.021;-0.522;14.566
4754934.878;1.155;-8.941;10.766;-21.458;14.938;6.445;0.410;9.984
4754934.886;-2.086;-13.150;8.196;-26.077;11.399;4.135;1.378;9.015
4754934.894;-11.101;-24.363;-2.757;-37.625;2.012;0.782;-4.284;7.823
4754934.902;-0.149;-8.792;5.923;-18.962;6.035;-8.643;-14.529;1.527
4754934.910;-3.390;-9.313;-2.310;-14.938;-1.118;-12.293;-18.068;-2.123
4754934.918;-13.523;-14.156;-18.738;-15.125;-16.652;-14.454;-17.583;-4.433
4754934.926;-24.624;-19.670;-32.894;-15.907;-28.722;-16.764;-17.360;-8.717
4754934.934;-45.039;-37.029;-54.650;-29.840;-43.064;-18.775;-16.242;-10.617
4754934.942;-60.312;-49.509;-71.339;-39.339;-56.662;-23.730;-20.787;-15.423
4754934.950;-74.320;-58.860;-86.799;-42.915;-70.110;-25.705;-23.544;-18.626
4754934.958;-80.280;-63.702;-91.977;-46.454;-70.892;-22.203;-23.097;-14.603
4754934.966;-88.364;-71.153;-100.732;-52.787;-80.802;-17.397;-22.165;-11.735
4754934.977;-88.327;-70.706;-100.806;-51.260;-82.813;-16.801;-20.340;-13.374
4754934.985;-85.533;-66.683;-98.832;-45.858;-78.864;-15.385;-14.231;-12.293
4754934.993;-81.770;-64.224;-94.287;-42.692;-71.712;-14.305;-9.127;-12.256
4754935.001;-81.137;-62.250;-93.654;-42.133;-72.680;-12.107;-7.860;-11.139
4754935.009;-81.658;-62.585;-92.313;-44.480;-72.271;-13.597;-11.846;-10.245
4754935.017;-83.223;-65.006;-92.126;-46.417;-69.477;-13.895;-17.025;-7.488
4754935.025;-87.544;-68.061;-98.646;-47.833;-80.541;-12.927;-20.824;-4.768
4754935.033;-91.009;-74.469;-99.652;-55.656;-77.151;-14.715;-25.555;-4.396
4754935.041;-91.046;-75.325;-96.485;-57.891;-68.657;-13.784;-22.687;-4.023
4754935.049;-94.846;-76.965;-102.073;-59.195;-81.770;-12.368;-17.509;-3.725
4754935.057;-94.734;-77.747;-102.334;-59.716;-86.203;-11.586;-14.715;-3.651
4754935.065;-92.052;-75.698;-97.901;-57.183;-81.100;-13.523;-13.076;-7.078
4754935.073;-88.029;-71.041;-93.021;-50.552;-75.027;-13.299;-10.319;-10.617
4754935.081;-87.768;-69.216;-92.946;-48.950;-76.927;-13.001;-9.462;-12.703
4754935.089;-88.550;-68.545;-94.138;-49.844;-79.609;-10.654;-9.388;-10.207
4754935.097;-86.203;-65.714;-90.934;-46.156;-76.070;-8.754;-8.084;-7.525
4754935.105;-86.911;-65.155;-91.009;-45.598;-74.394;-8.345;-6.557;-6.892
4754935.113;-85.011;-64.559;-89.668;-45.076;-78.380;-7.041;-5.551;-6.855
4754935.121;-82.478;-61.914;-85.793;-42.766;-74.245;-8.903;-9.872;-7.898
4754935.129;-83.372;-63.106;-87.172;-43.847;-78.641;-10.617;-13.411;-7.153
4754935.137;-81.025;-62.846;-84.639;-43.400;-77.151;-14.268;-16.205;-9.164
4754935.145;-74.804;-55.507;-78.045;-33.639;-78.864;-13.225;-12.554;-8.531
4754935.153;-75.288;-52.452;-78.976;-28.647;-81.845;-11.586;-9.537;-7.227
4754935.161;-53.160;-31.590;-54.874;-10.207;-66.161;-15.311;-12.890;-8.233
4754935.159;-0.186;15.199;0.894;31.851;-22.352;-16.280;-15.274;-8.717
4754935.167;48.131;59.269;52.340;72.531;15.683;-10.952;-11.250;-5.774
4754935.175;85.607;94.287;94.958;99.540;42.729;-9.350;-12.033;-4.470
4754935.183;128.858;132.918;140.853;135.228;72.271;-6.035;-9.425;-0.112
4754935.191;179.894;180.714;190.586;178.553;99.577;-6.333;-6.333;1.341
4754935.199;230.744;227.801;244.230;222.996;134.930;-6.482;-5.327;1.639
4754935.207;273.883;267.699;288.486;260.770;161.752;-5.402;-5.960;2.533
4754935.215;309.944;300.072;325.181;290.349;181.533;-3.278;-5.886;4.657
4754935.223;345.334;331.439;358.932;321.157;196.844;-0.931;-3.688;5.551
4754935.231;381.656;361.428;395.440;348.799;219.531;0.000;-0.857;6.147
4754935.239;403.486;379.309;417.978;361.837;232.309;4.917;6.221;12.964
4754935.247;416.897;387.654;431.463;367.686;237.264;5.066;8.792;15.162
4754935.255;428.297;394.657;444.874;372.566;245.199;5.402;8.047;15.199
4754935.263;433.289;400.133;449.345;377.260;249.110;9.276;8.531;18.589
4754935.271;441.410;409.372;455.789;385.307;249.445;12.144;11.623;19.111
4754935.279;448.301;414.029;463.836;385.866;255.108;12.740;13.635;16.391
4754935.287;444.427;410.602;459.775;380.166;249.557;14.752;14.976;17.062
4754935.295;446.290;414.588;461.116;384.524;248.700;14.827;15.907;18.254
4754935.303;443.980;409.074;461.228;378.601;254.810;11.921;15.534;16.503
4754935.311;436.530;402.443;453.480;373.013;246.391;9.388;13.001;15.609
4754935.319;436.828;406.019;454.262;378.974;246.763;11.511;12.219;18.515
4754935.327;432.245;401.922;447.594;377.819;243.038;9.127;7.488;14.901
4754935.335;424.162;392.869;439.100;368.506;241.026;7.711;6.743;11.474
4754935.343;407.509;376.776;422.038;354.052;233.240;7.153;6.706;11.772
4754935.339;378.527;353.493;389.516;335.053;203.662;4.955;5.774;11.772
4754935.347;353.791;329.725;365.041;310.689;191.219;8.494;9.872;15.087
4754935.355;331.774;308.603;337.772;290.461;170.246;10.580;14.007;13.933
4754935.363;311.919;290.610;316.389;273.734;160.001;8.419;14.640;10.729
4754935.371;279.322;258.163;281.185;243.038;139.326;0.373;4.880;6.743
4754935.379;247.657;229.180;246.689;217.184;110.529;-4.098;-4.657;5.178
4754935.387;221.394;206.530;221.170;195.168;97.230;-0.782;-2.459;7.600
4754935.395;197.366;184.625;195.429;174.716;77.859;3.688;0.671;8.531
4754935.403;181.235;167.675;179.335;157.394;71.637;6.370;3.278;7.972
4754935.411;165.589;151.023;164.360;142.865;65.789;-2.459;-1.788;0.075
4754935.419;142.939;131.652;141.710;122.003;54.017;-14.789;-12.629;-6.035
4754935.427;120.997;113.063;120.960;103.526;43.474;-15.050;-13.486;-4.619
4754935.435;100.806;94.250;103.004;85.942;33.155;-3.576;-3.353;3.427
4754935.443;83.558;77.337;88.103;69.067;34.012;7.115;4.619;9.201
4754935.451;67.092;63.404;69.812;54.426;13.150;2.868;1.229;2.347
4754935.459;60.461;58.413;65.453;47.162;18.217;-6.929;-8.531;-5.066
4754935.467;50.440;49.584;52.825;37.923;9.127;-12.927;-18.515;-5.551
4754935.475;38.967;38.147;41.798;27.046;0.186;-13.150;-22.240;-2.086
4754935.483;28.163;28.498;32.745;15.274;-1.788;-3.651;-14.007;3.949
4754935.491;14.752;16.615;16.578;5.662;-16.354;2.570;-6.892;1.676
4754935.499;9.574;11.772;13.188;1.676;-11.772;8.382;-0.522;3.204
4754935.507;2.198;4.172;4.545;-7.413;-23.730;8.419;-3.055;4.210
4754935.515;-4.210;-3.614;-0.075;-14.976;-20.042;9.239;-3.800;7.153
4754935.523;-11.846;-8.270;-7.339;-20.452;-23.246;7.190;-5.029;10.207
4754935.535;-16.056;-12.740;-12.405;-26.375;-23.246;0.745;-8.084;7.115
4754935.543;-18.775;-15.087;-13.076;-29.057;-20.117;-1.267;-5.662;4.955
4754935.551;-23.618;-18.291;-19.893;-31.479;-29.057;1.714;-1.043;2.868
4754935.559;-28.275;-24.103;-25.257;-38.967;-31.255;2.682;-2.086;1.788
4754935.567;-28.685;-26.561;-22.613;-45.151;-24.512;5.141;-3.353;5.700
4754935.575;-28.796;-27.753;-23.581;-44.852;-23.916;5.066;-5.625;6.296
4754935.583;-33.230;-31.553;-29.504;-51.074;-32.410;2.608;-8.866;5.364
4754935.591;-34.310;-29.504;-29.840;-49.099;-33.788;2.421;-8.345;5.402
4754935.599;-38.594;-34.049;-34.347;-53.085;-37.625;-0.149;-9.090;1.676
4754935.607;-40.047;-34.273;-38.221;-53.421;-47.609;2.235;-6.109;2.496
4754935.615;-35.055;-29.765;-33.006;-48.615;-42.431;5.588;-2.608;5.364
4754935.623;-37.290;-30.659;-34.794;-52.229;-42.096;8.531;0.522;9.313
4754935.631;-38.855;-31.404;-35.800;-53.644;-43.623;8.307;1.192;9.723
4754935.639;-33.975;-27.940;-30.100;-52.936;-37.588;3.912;-0.969;6.072
4754935.647;-32.187;-22.762;-28.834;-48.503;-32.634;5.364;0.894;6.370
4754935.655;-37.625;-27.716;-36.620;-52.936;-46.678;0.671;-4.247;1.453
4754935.663;-39.190;-29.393;-35.837;-56.140;-43.511;-2.421;-7.898;1.006
4754935.671;-40.494;-30.324;-36.880;-55.879;-43.325;0.186;-4.955;3.837
4754935.679;-44.890;-34.869;-40.047;-61.356;-47.348;0.931;-4.657;4.359
4754935.687;-45.188;-34.086;-42.580;-59.418;-51.968;2.459;-3.316;8.047
4754935.695;-47.833;-38.706;-44.070;-62.995;-52.899;0.894;-3.166;6.594
4754935.703;-51.558;-41.388;-47.199;-65.789;-53.272;-2.980;-7.190;2.198
4754935.711;-50.627;-40.494;-48.913;-64.261;-58.748;-5.029;-9.127;0.037
4754935.719;-47.572;-38.296;-44.331;-62.697;-54.799;-6.557;-14.119;-1.192
4754935.802;-47.386;-37.663;-43.139;-61.095;-54.464;-3.092;-12.219;3.427
4754935.810;-45.262;-36.247;-40.270;-59.977;-50.627;-1.788;-9.537;4.098
4754935.818;-46.119;-37.029;-39.823;-63.032;-49.435;-3.129;-9.947;2.868
4754935.826;-49.546;-41.351;-40.717;-66.571;-53.532;-4.880;-12.182;0.112
4754935.834;-50.217;-43.251;-39.153;-68.024;-52.191;-6.780;-14.901;-2.123
4754935.842;-44.703;-35.539;-34.757;-59.679;-47.758;-5.290;-10.394;-0.261
4754935.850;-45.598;-38.669;-36.061;-63.851;-51.148;-8.345;-10.803;-2.980
4754935.858;-45.672;-37.216;-37.290;-60.126;-57.369;-8.792;-8.754;-5.066
4754935.866;-51.148;-43.213;-40.121;-64.932;-55.470;-9.760;-9.239;-6.631
4754935.874;-51.223;-42.245;-40.084;-60.908;-56.811;-10.319;-10.505;-7.749
4754935.882;-37.551;-29.504;-28.387;-50.403;-49.360;-9.947;-9.686;-6.184
4754935.890;-31.516;-25.518;-23.246;-47.535;-41.574;-10.319;-9.984;-5.625
4754935.898;-40.084;-31.441;-31.702;-54.725;-51.484;-14.119;-12.964;-8.456
4754935.906;-43.474;-33.453;-36.284;-57.332;-55.768;-14.342;-12.591;-7.972
4754935.914;-42.319;-32.820;-35.428;-56.773;-53.421;-15.199;-14.342;-8.419
4754935.922;-40.308;-29.467;-32.336;-52.527;-51.521;-13.337;-12.666;-6.668
4754935.930;-40.829;-31.479;-32.708;-54.576;-52.117;-12.144;-12.703;-5.215
4754935.938;-40.159;-31.404;-32.112;-54.203;-49.733;-11.176;-13.262;-4.210
4754935.946;-38.482;-29.281;-30.361;-51.670;-47.833;-7.935;-9.686;-1.267
4754935.954;-38.333;-28.908;-30.138;-51.297;-48.093;-5.960;-9.164;0.037
4754935.962;-41.686;-31.777;-34.347;-53.085;-54.911;-5.960;-10.841;0.224
4754935.970;-43.325;-36.769;-37.290;-58.338;-56.550;-10.692;-15.460;-3.949
4754935.978;-41.276;-34.422;-35.800;-53.756;-57.444;-8.456;-11.958;-2.943
4754935.986;-42.543;-35.651;-35.278;-54.911;-56.662;-9.686;-11.325;-4.508
4754935.953;-45.076;-37.849;-37.290;-56.736;-57.034;-10.468;-12.591;-5.215
4754935.961;-42.170;-34.608;-34.831;-54.166;-54.911;-6.631;-10.580;-1.155
4754935.969;-43.772;-36.173;-36.061;-54.874;-60.983;-7.153;-9.649;-1.751
4754935.977;-40.792;-32.894;-33.490;-51.372;-58.636;-6.706;-7.637;-2.272
4754935.985;-40.568;-34.310;-32.708;-53.346;-56.513;-5.178;-7.562;-0.820
4754935.993;-39.786;-33.937;-31.926;-53.123;-52.303;-5.178;-8.717;-0.633
4754936.001;-40.866;-32.745;-34.273;-51.297;-55.283;-4.992;-10.766;1.602
4754936.009;-45.262;-36.657;-39.972;-53.234;-64.783;-7.413;-12.927;-0.447
4754936.017;-44.778;-35.316;-37.663;-52.080;-63.591;-6.221;-8.941;-0.633
4754936.025;-42.878;-33.155;-35.055;-48.839;-60.201;-4.023;-5.923;1.229
4754936.033;-42.394;-32.485;-34.682;-46.790;-58.860;-2.868;-5.849;2.049
4754936.041;-42.133;-33.602;-34.645;-47.199;-62.548;-2.943;-7.078;1.527
4754936.049;-41.798;-35.726;-33.118;-49.509;-59.456;-3.539;-7.041;0.559
4754936.057;-41.462;-34.645;-32.969;-50.217;-58.264;-5.439;-7.786;-0.447
4754936.065;-41.574;-34.682;-34.906;-49.882;-64.299;-9.164;-12.219;-2.272
4754936.073;-41.761;-36.173;-33.900;-49.509;-60.797;-10.431;-15.497;-1.900
4754936.081;-43.176;-37.625;-36.098;-51.744;-62.026;-7.935;-12.070;0.745
4754936.089;-44.294;-38.706;-38.520;-51.744;-67.018;-7.413;-9.872;1.043
4754936.097;-43.698;-37.812;-37.439;-51.707;-64.783;-6.370;-10.617;2.645
4754936.105;-43.474;-37.253;-35.465;-51.074;-62.697;-8.494;-12.405;0.335
4754936.113;-42.878;-37.104;-33.639;-50.142;-59.120;-10.096;-10.952;-1.602
4754936.121;-42.170;-35.018;-33.751;-47.125;-59.642;-8.047;-8.494;-1.639
4754936.129;-43.549;-37.439;-37.402;-49.695;-63.889;-9.350;-13.076;-1.863
4754936.137;-41.351;-35.167;-35.018;-46.678;-58.822;-9.425;-14.380;0.820
4754936.089;-38.743;-33.490;-30.808;-44.107;-51.968;-7.972;-14.380;2.272
4754936.097;-37.737;-32.000;-30.771;-42.543;-53.570;-4.917;-11.809;2.757
4754936.105;-38.408;-31.292;-32.149;-42.915;-52.191;-3.316;-9.164;1.974
4754936.113;-43.698;-36.806;-39.265;-47.013;-63.330;-4.731;-10.654;0.298
4754936.121;-43.847;-34.757;-38.110;-43.437;-62.808;-5.960;-10.692;-1.043
4754936.129;-39.227;-31.479;-32.932;-39.898;-56.326;-2.906;-6.892;1.267
4754936.137;-40.419;-34.459;-34.794;-42.506;-57.556;-4.098;-9.649;0.112
4754936.145;-40.941;-35.092;-35.316;-42.580;-57.071;-4.806;-10.282;-0.186
4754936.153;-38.221;-35.092;-32.932;-42.506;-54.315;-5.364;-11.213;0.820
4754936.161;-37.216;-32.894;-33.528;-39.823;-56.513;-5.737;-10.431;0.112
4754936.169;-37.774;-32.634;-33.677;-37.812;-58.785;-2.645;-7.860;2.421
4754936.177;-38.296;-32.969;-34.682;-37.476;-54.650;-0.149;-5.327;3.725
4754936.185;-38.333;-31.814;-34.124;-36.769;-58.040;0.857;-1.304;4.545
4754936.193;-38.594;-30.808;-35.241;-33.602;-61.914;-2.235;-2.645;1.490
4754936.201;-42.133;-35.092;-37.439;-39.376;-62.659;-5.402;-4.545;0.894
4754936.209;-43.698;-38.669;-38.370;-42.655;-61.430;-5.998;-6.817;1.863
4754936.217;-43.102;-38.147;-37.439;-40.345;-59.754;-2.533;-5.737;4.768
4754936.225;-47.125;-41.537;-41.649;-43.288;-65.491;-1.676;-6.370;5.178
4754936.233;-49.435;-44.145;-45.002;-45.896;-69.365;-1.006;-6.557;5.551
4754936.241;-52.489;-46.827;-49.435;-50.254;-73.723;-2.310;-10.654;4.582
4754936.249;-50.366;-43.847;-47.572;-47.944;-69.253;-3.502;-9.947;3.241
4754936.257;-48.205;-41.388;-47.050;-46.268;-74.133;-5.625;-6.445;0.633
4754936.265;-40.345;-34.496;-38.482;-38.669;-64.410;-0.820;0.596;3.316
4754936.273;-40.680;-36.545;-36.694;-40.084;-62.771;-1.304;-0.894;4.955
4754936.237;-40.345;-35.167;-37.141;-39.078;-61.505;-3.204;-2.608;4.470
4754936.245;-38.929;-32.894;-36.061;-36.620;-62.808;-2.831;-1.490;4.172
4754936.253;-38.072;-32.634;-34.496;-38.408;-58.711;-2.086;-2.831;5.029
4754936.261;-37.774;-30.845;-35.204;-36.471;-62.771;1.043;0.112;7.339
4754936.269;-36.098;-28.536;-33.528;-31.553;-62.138;5.178;4.731;8.792
4754936.277;-32.447;-23.656;-30.883;-27.567;-62.101;3.427;2.421;6.668
4754936.285;-30.138;-22.948;-28.647;-27.195;-60.759;-2.794;-4.433;2.384
4754936.293;-30.212;-25.034;-26.785;-30.734;-55.321;-9.164;-9.798;0.075
4754936.301;-29.877;-23.954;-27.344;-29.095;-59.046;-10.952;-9.127;-1.304
4754936.309;-29.020;-23.991;-27.642;-28.536;-61.691;-10.990;-7.637;-2.235
4754936.317;-27.902;-22.650;-25.965;-27.902;-56.438;-9.350;-6.147;-0.261
4754936.325;-27.977;-22.203;-26.301;-27.828;-53.234;-6.221;-5.662;1.527
4754936.333;-28.908;-22.426;-26.599;-27.381;-56.848;-3.427;-4.433;4.470
4754936.341;-30.920;-24.214;-29.504;-28.908;-63.293;-2.794;-2.682;4.619
4754936.349;-33.751;-27.791;-31.255;-33.155;-62.250;-6.258;-4.247;0.745
4754936.357;-30.473;-24.810;-25.779;-30.734;-54.315;-6.184;-2.943;2.347
4754936.365;-30.361;-23.656;-25.891;-29.542;-51.558;-4.545;-0.112;3.725
4754936.373;-34.571;-29.095;-32.000;-33.192;-60.312;-7.637;-3.092;0.373
4754936.381;-30.585;-26.226;-27.977;-30.622;-54.725;-3.614;-1.155;3.166
4754936.389;-23.469;-19.483;-20.452;-25.406;-47.833;-4.098;-2.794;2.347
4754936.397;-17.211;-11.921;-14.268;-17.919;-45.300;-5.215;-2.235;1.974
4754936.405;-14.193;-9.350;-11.809;-15.721;-43.176;-2.831;-0.037;3.763
4754936.413;-15.348;-10.990;-16.764;-16.503;-48.392;-1.006;0.782;3.129
4754936.421;-14.901;-10.282;-13.821;-15.944;-43.288;0.000;0.708;4.433
4754936.462;-13.784;-11.735;-10.505;-17.434;-35.614;0.037;-1.341;5.141
4754936.470;-17.807;-13.560;-16.801;-22.464;-44.592;-5.029;-7.227;1.155
4754936.478;-19.483;-15.832;-18.850;-27.083;-43.698;-5.774;-7.451;0.820
4754936.486;-20.862;-16.727;-18.813;-27.977;-40.010;-4.172;-5.402;3.316
4754936.494;-19.483;-12.703;-18.254;-27.344;-36.918;-2.757;-4.545;4.061
4754936.502;-17.807;-11.548;-19.073;-24.997;-37.514;-1.490;-4.172;5.104
4754936.510;-19.409;-14.864;-18.701;-29.393;-36.843;-1.490;-5.141;5.960
4754936.518;-24.661;-20.377;-25.481;-33.826;-47.870;-7.674;-11.064;1.080
4754936.526;-25.444;-21.569;-26.524;-34.794;-46.231;-13.635;-19.148;-3.576
4754936.534;-22.389;-18.440;-22.426;-33.602;-42.394;-14.491;-20.377;-3.353
4754936.542;-18.589;-16.056;-18.924;-30.436;-39.861;-11.511;-16.838;-2.235
4754936.550;-17.434;-15.162;-18.887;-30.212;-43.400;-5.476;-12.219;1.751
4754936.558;-13.225;-11.846;-14.640;-26.673;-37.141;1.602;-7.674;7.600
4754936.566;-12.852;-11.809;-13.746;-28.722;-34.533;2.570;-4.582;10.505
4754936.574;-15.236;-13.225;-16.205;-29.877;-40.196;1.043;-3.651;9.947
4754936.582;-15.497;-14.566;-15.125;-30.547;-40.233;4.023;-0.522;11.884
4754936.590;-11.325;-9.499;-10.058;-24.252;-34.645;7.115;5.253;13.933
4754936.598;-10.505;-10.617;-8.754;-24.587;-33.304;6.184;5.290;11.660
4754936.606;-9.649;-9.425;-7.749;-22.501;-34.198;5.253;4.284;12.591
4754936.614;-9.090;-8.568;-7.451;-20.862;-39.227;3.166;1.527;11.846
4754936.622;-14.156;-17.025;-11.548;-28.536;-43.698;-3.837;-6.668;6.296
4754936.630;-22.352;-25.481;-21.011;-38.445;-51.223;0.149;-2.980;10.394
4754936.638;-22.240;-22.016;-23.730;-29.802;-56.028;-3.241;-4.508;6.892
4754936.646;-23.469;-21.011;-26.673;-23.730;-57.258;-6.855;-5.700;1.974
4754936.672;-38.557;-34.086;-43.996;-35.875;-74.916;-11.064;-9.649;-2.496
4754936.680;-51.409;-45.523;-57.667;-44.070;-81.845;-11.437;-11.213;-3.241
4754936.688;-60.461;-49.211;-68.247;-43.325;-90.338;-10.543;-9.127;-2.719
4754936.696;-73.127;-59.865;-81.807;-49.174;-100.844;-16.652;-14.976;-8.084
4754936.704;-82.664;-68.359;-94.362;-51.707;-115.223;-19.558;-17.136;-11.213
4754936.712;-86.874;-71.861;-100.508;-52.303;-120.848;-15.050;-11.325;-6.072
4754936.720;-90.897;-76.853;-103.191;-52.489;-120.252;-19.148;-17.211;-7.860
4754936.728;-94.324;-81.323;-106.394;-54.203;-123.344;-21.942;-21.048;-10.617
4754936.736;-96.895;-85.160;-108.331;-56.103;-126.101;-19.073;-17.881;-9.947
4754936.744;-95.963;-85.682;-107.661;-54.464;-126.772;-18.403;-16.391;-9.276
4754936.752;-92.648;-83.596;-104.979;-50.291;-126.287;-17.434;-16.838;-9.686
4754936.760;-92.313;-86.837;-102.930;-50.738;-124.201;-13.635;-16.615;-6.519
4754936.768;-89.668;-85.793;-98.869;-49.099;-119.843;-7.302;-13.486;0.075
4754936.776;-94.511;-91.344;-104.234;-52.825;-125.356;-6.929;-14.268;0.075
4754936.784;-96.969;-92.760;-107.326;-51.297;-130.124;-8.568;-15.609;-2.012
4754936.792;-94.771;-92.126;-103.824;-49.770;-122.748;-14.529;-20.638;-7.190
4754936.800;-90.562;-92.722;-100.136;-49.472;-119.098;-23.097;-26.822;-13.225
4754936.808;-90.003;-94.511;-99.987;-49.956;-118.017;-27.567;-29.951;-16.764
4754936.816;-89.519;-95.740;-99.428;-50.440;-116.192;-18.217;-19.036;-6.370
4754936.824;-86.986;-92.834;-99.316;-46.529;-117.682;-23.916;-17.397;-17.472
4754936.832;-80.355;-87.172;-91.754;-42.059;-106.655;-15.385;-5.625;-12.591
4754936.840;-82.552;-89.705;-92.685;-41.910;-112.355;-27.604;-21.756;-20.042
4754936.848;-84.564;-89.183;-95.405;-38.408;-118.241;-28.834;-22.464;-20.601
4754936.856;-82.925;-92.648;-92.611;-42.841;-110.045;-15.162;-10.170;-0.708
4754936.839;-40.382;-61.654;-48.019;-16.689;-75.065;-15.683;-12.890;8.903
4754936.847;-13.635;-39.265;-21.346;0.559;-58.189;-11.846;-11.660;26.152
4754936.855;12.368;-18.440;10.058;16.727;-36.247;-7.302;-6.631;44.443
4754936.863;46.901;10.021;42.133;39.786;-9.276;-6.743;-1.043;47.907
4754936.871;66.869;25.630;55.954;51.819;-0.522;-5.402;2.086;50.962
4754936.879;87.954;41.761;80.168;67.949;9.611;-9.611;-1.639;46.343
4754936.887;90.450;41.276;94.511;76.145;18.589;-5.327;2.049;50.254
4754936.895;76.965;28.387;73.984;60.759;1.267;-3.129;4.061;52.638
4754936.903;66.310;21.756;60.201;55.246;-6.482;0.447;6.407;61.169
4754936.911;62.175;15.162;58.897;49.770;-4.843;7.711;14.678;68.545
4754936.919;56.513;7.749;51.372;43.251;-11.325;6.296;9.388;69.104
4754936.927;50.925;3.017;45.672;38.967;-11.884;3.912;4.992;66.534
4754936.935;48.354;-0.782;40.419;34.980;-17.956;-6.780;-5.253;51.931
4754936.943;44.256;-5.960;39.674;28.387;-20.824;-19.707;-22.426;38.557
4754936.951;41.239;-9.164;36.247;26.077;-23.432;-22.985;-26.040;36.359
4754936.959;32.485;-15.609;27.604;21.569;-32.224;-25.406;-23.730;40.494
4754936.967;32.485;-13.784;28.722;24.959;-32.559;-26.226;-17.509;45.039
4754936.975;30.696;-13.895;26.561;26.040;-30.287;-25.816;-13.188;53.607
4754936.983;32.969;-14.529;25.034;26.003;-35.316;-26.971;-10.543;58.003
4754936.991;34.496;-16.689;25.183;28.387;-37.588;-36.880;-17.956;49.919
4754936.999;29.020;-21.458;21.160;25.965;-36.731;-40.904;-18.775;44.256
4754937.007;22.575;-27.269;16.131;24.885;-42.915;-47.870;-27.195;34.757
4754937.015;17.397;-34.831;11.139;19.334;-47.199;-52.862;-36.843;27.716
4754937.023;17.323;-36.210;8.270;18.775;-48.690;-48.466;-31.069;29.393
4754937.048;14.380;-41.537;7.451;16.466;-46.603;-46.119;-30.622;31.367
4754937.056;9.649;-46.827;3.129;15.087;-49.472;-43.474;-31.628;33.453
4754937.064;29.802;-24.028;25.034;37.253;-35.241;-43.102;-30.436;34.347
4754937.072;32.075;-23.134;27.530;38.818;-32.857;-42.990;-30.138;32.596
4754937.080;39.525;-18.403;32.112;43.735;-27.493;-36.247;-24.810;37.774
4754937.088;41.202;-19.222;30.734;46.082;-29.989;-33.714;-25.630;42.953
4754937.096;38.445;-21.234;28.014;44.778;-27.046;-37.923;-27.232;37.849
4754937.104;31.814;-27.195;21.048;39.563;-33.602;-38.669;-28.014;36.024
4754937.112;29.728;-30.175;18.068;38.706;-30.212;-31.516;-24.103;41.574
4754937.120;32.410;-25.295;21.830;41.910;-29.318;-22.575;-14.938;49.397
4754937.128;34.682;-22.464;25.071;46.790;-23.991;-5.923;3.129;62.585
4754937.136;37.067;-22.911;25.593;49.807;-24.401;-20.713;-15.348;48.690
4754937.144;45.113;-16.056;33.751;55.321;-12.852;-26.859;-23.283;40.717
4754937.152;44.666;-16.205;34.161;55.134;-10.580;-18.440;-17.956;47.572
4754937.160;40.978;-17.658;28.610;56.513;-18.403;-20.713;-20.154;43.958
4754937.168;37.327;-23.209;21.532;52.303;-25.705;-17.658;-19.632;49.621
4754937.176;34.794;-25.965;20.079;48.801;-26.003;-15.460;-17.397;50.180
4754937.184;35.837;-25.183;23.358;48.578;-29.355;-20.303;-21.011;43.809
4754937.192;33.788;-33.081;21.011;43.102;-23.469;-32.932;-36.769;37.886
4754937.200;29.318;-36.918;12.852;38.631;-33.565;-36.359;-33.118;29.057
4754937.208;34.869;-28.126;19.334;45.262;-26.748;-32.596;-26.263;25.332
4754937.216;41.313;-26.189;24.848;49.025;-17.211;-25.593;-23.171;30.473
4754937.224;43.996;-22.985;26.412;51.223;-22.575;-30.920;-32.559;25.705
4754937.232;45.113;-20.750;25.667;52.601;-17.285;-34.906;-35.092;22.352
4754937.258;47.274;-14.044;27.269;54.985;-16.317;-20.787;-21.569;32.634
4754937.266;44.554;-13.821;22.128;53.942;-25.444;-23.618;-28.834;28.089
4754937.274;34.794;-21.979;12.703;43.251;-35.688;-36.061;-49.919;8.345
4754937.282;28.796;-24.922;9.239;34.869;-35.428;-23.879;-57.854;3.800
4754937.290;18.291;-33.788;-4.172;24.475;-46.939;-22.091;-68.806;3.316
4754937.298;2.757;-46.678;-15.795;8.419;-63.963;-36.173;-90.934;-9.015
4754937.306;-5.364;-50.254;-19.893;2.272;-67.949;-42.468;-101.738;-15.125
4754937.314;-12.666;-51.260;-27.381;-5.141;-74.916;-46.231;-103.414;-17.285
4754937.322;-21.234;-52.452;-38.482;-15.609;-84.564;-55.321;-105.016;-26.040
4754937.330;-31.665;-57.556;-52.378;-21.569;-101.365;-78.157;-122.190;-51.409
4754937.338;-25.779;-46.529;-44.554;-13.374;-92.052;-75.288;-119.060;-51.074
4754937.346;-35.353;-52.005;-50.552;-23.320;-95.889;-69.775;-115.409;-49.360
4754937.354;-49.435;-64.485;-63.442;-38.035;-108.816;-81.956;-131.018;-59.120
4754937.362;-59.754;-70.296;-72.829;-48.503;-115.260;-92.275;-142.828;-69.477
4754937.370;-68.620;-76.294;-81.547;-60.499;-124.276;-95.852;-147.521;-73.463
4754937.378;-81.994;-82.627;-92.499;-73.239;-141.524;-107.214;-158.027;-85.421
4754937.386;-94.213;-86.464;-104.606;-75.698;-146.180;-115.298;-165.403;-93.766
4754937.394;-102.073;-89.891;-114.515;-82.962;-154.003;-119.247;-169.165;-96.709
4754937.402;-107.251;-90.972;-112.206;-90.823;-151.880;-131.205;-179.075;-112.690
4754937.410;-109.710;-89.481;-112.727;-96.448;-150.539;-130.907;-181.757;-114.217
4754937.418;-119.098;-90.525;-120.923;-102.445;-162.013;-129.901;-184.402;-113.100
4754937.426;-129.156;-96.671;-135.191;-112.206;-169.501;-134.446;-195.280;-119.507
4754937.434;-132.285;-94.287;-138.097;-113.621;-173.599;-136.346;-197.552;-125.207
4754937.442;-141.077;-100.173;-143.237;-124.946;-174.753;-142.753;-205.301;-132.211
4754937.408;-156.090;-108.778;-156.872;-136.420;-184.290;-153.296;-216.626;-143.200
4754937.416;-166.371;-113.398;-165.142;-146.367;-188.760;-154.786;-216.737;-146.627
4754937.424;-167.228;-110.045;-170.842;-149.757;-189.617;-166.744;-226.945;-164.844
4754937.432;-172.071;-108.257;-174.604;-156.350;-188.500;-167.824;-230.297;-166.818
4754937.440;-174.493;-101.775;-176.057;-160.597;-195.317;-167.303;-230.186;-168.979
4754937.448;-185.147;-104.271;-187.829;-171.922;-199.936;-171.661;-235.513;-176.169
4754937.456;-188.798;-96.150;-192.001;-171.959;-200.681;-171.550;-234.134;-178.963
4754937.464;-191.256;-93.430;-194.088;-177.063;-203.587;-171.401;-231.676;-179.857
4754937.472;-191.666;-89.146;-194.758;-180.081;-202.172;-168.197;-229.739;-179.894
4754937.480;-191.107;-79.907;-192.635;-178.181;-196.397;-164.136;-227.094;-178.739
4754937.488;-191.219;-74.580;-190.809;-179.894;-191.219;-161.827;-226.684;-178.069
4754937.496;-194.646;-71.228;-194.609;-185.966;-194.646;-159.964;-229.999;-175.498
4754937.504;-197.552;-69.253;-200.793;-187.270;-200.272;-159.293;-229.515;-176.467
4754937.512;-191.666;-59.158;-196.844;-178.330;-192.896;-158.772;-222.884;-177.622
4754937.520;-189.021;-53.793;-192.262;-179.373;-188.276;-166.893;-231.005;-182.316
4754937.528;-193.082;-55.023;-197.962;-182.129;-193.156;-164.397;-231.825;-178.516
4754937.536;-201.799;-58.673;-204.593;-190.586;-197.552;-164.360;-233.315;-180.639
4754937.544;-206.307;-60.461;-208.505;-195.615;-195.429;-164.881;-233.576;-181.906
4754937.552;-201.240;-54.352;-202.693;-194.162;-187.904;-162.311;-230.707;-178.702
4754937.560;-198.968;-50.329;-200.160;-194.274;-185.706;-154.339;-226.498;-173.450
4754937.568;-202.544;-54.687;-203.475;-202.768;-186.674;-156.984;-227.727;-174.455
4754937.576;-201.352;-48.988;-200.979;-201.017;-184.290;-155.754;-220.612;-172.518
4754937.584;-193.305;-37.104;-190.586;-191.741;-171.587;-147.931;-209.585;-168.867
4754937.592;-195.391;-36.545;-192.188;-190.884;-175.796;-144.020;-204.593;-166.669
4754937.620;-201.650;-40.904;-197.403;-200.234;-182.576;-145.249;-204.891;-168.644
4754937.628;-203.922;-43.325;-198.111;-203.438;-184.365;-145.584;-206.195;-168.458
4754937.636;-195.466;-29.132;-190.586;-189.915;-175.983;-134.893;-195.540;-159.293
4754937.644;-198.334;-30.100;-193.641;-191.964;-173.599;-133.403;-194.162;-161.454
4754937.652;-192.933;-27.940;-186.749;-190.400;-167.266;-129.715;-191.107;-158.846
4754937.660;-182.502;-18.254;-175.312;-182.353;-161.566;-121.519;-184.923;-155.382
4754937.668;-178.963;-15.274;-170.656;-178.628;-154.674;-130.944;-179.447;-153.817
4754937.676;-182.316;-14.827;-173.748;-180.528;-157.394;-135.787;-172.444;-150.166
4754937.684;-186.637;-19.148;-178.106;-185.110;-160.299;-131.764;-173.263;-149.719
4754937.692;-191.107;-22.352;-182.837;-188.388;-163.130;-130.758;-173.934;-148.267
4754937.700;-185.370;-16.540;-177.138;-185.743;-155.792;-124.164;-168.048;-143.424
4754937.708;-186.041;-19.595;-177.398;-188.090;-150.912;-122.748;-170.730;-143.275
4754937.716;-190.698;-23.507;-182.055;-193.715;-156.388;-123.866;-171.289;-143.684
4754937.724;-189.804;-21.569;-182.465;-193.678;-153.333;-122.786;-168.495;-140.332
4754937.732;-181.757;-14.938;-175.871;-188.351;-145.622;-117.458;-166.036;-137.575
4754937.740;-178.255;-10.617;-174.120;-184.923;-141.896;-113.845;-167.228;-151.619
4754937.748;-175.536;-6.258;-170.507;-180.155;-138.022;-108.220;-164.025;-161.007
4754937.756;-175.685;-4.582;-168.420;-180.937;-132.658;-112.541;-168.756;-164.285
4754937.764;-169.165;0.857;-163.019;-176.057;-126.623;-108.592;-163.615;-158.176
4754937.772;-167.973;2.570;-165.254;-175.051;-130.162;-107.102;-161.007;-156.760
4754937.780;-164.248;7.823;-161.305;-171.065;-127.554;-102.744;-153.407;-150.837
4754937.788;-163.950;6.929;-160.858;-172.779;-123.531;-101.700;-150.874;-148.676
4754937.796;-161.789;10.803;-158.623;-170.991;-121.631;-100.359;-146.292;-143.833
4754937.804;-161.044;8.717;-157.915;-170.991;-120.252;-103.265;-147.782;-145.659
4754937.740;-162.162;7.227;-157.319;-174.865;-119.656;-103.191;-148.565;-156.797
4754937.748;-166.558;3.278;-162.311;-179.298;-124.723;-105.239;-149.794;-175.349
4754937.756;-169.650;-1.155;-165.477;-181.273;-124.425;-111.535;-153.221;-180.006
4754937.764;-172.779;-1.602;-166.520;-182.465;-127.777;-112.951;-151.880;-179.000
4754937.772;-178.106;-8.233;-169.612;-187.196;-129.603;-113.584;-149.161;-179.410
4754937.780;-191.480;-25.742;-183.247;-201.948;-145.249;-121.929;-157.766;-187.047
4754937.788;-197.291;-36.620;-185.817;-206.903;-145.435;-128.075;-162.050;-188.090
4754937.796;-200.719;-50.217;-188.202;-207.685;-145.510;-132.099;-164.732;-185.259
4754937.804;-206.158;-62.063;-194.535;-210.740;-154.339;-132.211;-165.850;-184.588
4754937.812;-210.069;-73.500;-196.323;-214.316;-155.121;-134.930;-168.644;-187.457
4754937.820;-210.069;-79.088;-193.082;-214.614;-154.898;-134.781;-165.738;-184.812
4754937.828;-217.743;-89.183;-201.017;-221.953;-163.652;-144.169;-171.661;-191.666
4754937.836;-227.876;-103.600;-210.218;-232.346;-173.263;-155.494;-180.267;-200.234
4754937.844;-226.796;-103.451;-207.610;-229.403;-172.518;-152.439;-175.387;-197.142
4754937.852;-224.002;-107.065;-204.965;-227.951;-171.214;-146.665;-170.991;-192.821
4754937.860;-230.521;-116.974;-213.347;-233.985;-183.657;-149.384;-176.691;-196.695
4754937.868;-237.152;-123.903;-220.314;-239.573;-191.629;-148.751;-177.585;-196.472
4754937.876;-232.868;-123.419;-217.259;-236.630;-185.706;-145.473;-174.269;-191.033
4754937.884;-222.214;-113.733;-207.387;-226.013;-177.622;-140.257;-167.564;-187.010
4754937.892;-221.990;-116.490;-209.212;-225.157;-180.267;-141.002;-168.420;-189.282
4754937.900;-223.219;-119.209;-209.920;-225.082;-182.576;-141.077;-167.973;-188.053
4754937.908;-225.157;-123.158;-211.298;-227.131;-183.471;-141.598;-170.022;-187.755
4754937.916;-225.939;-128.187;-213.012;-229.403;-183.843;-145.622;-176.951;-190.772
4754937.924;-225.715;-128.970;-209.287;-231.043;-181.422;-145.286;-176.467;-190.511
4754937.918;-236.332;-141.300;-220.947;-243.336;-195.988;-151.545;-183.135;-198.521
4754937.926;-237.562;-143.126;-222.735;-244.118;-198.409;-153.817;-183.992;-200.644
4754937.934;-230.372;-135.563;-216.216;-235.215;-192.709;-148.937;-176.951;-193.529
4754937.942;-224.598;-133.216;-212.453;-230.744;-190.027;-148.863;-174.753;-191.368
4754937.950;-218.749;-127.032;-206.940;-222.698;-183.210;-146.963;-171.699;-187.159
4754937.958;-219.047;-129.081;-208.393;-221.320;-185.855;-147.074;-171.363;-185.966
4754937.966;-218.488;-128.560;-209.212;-218.749;-189.170;-145.212;-166.930;-184.067
4754937.974;-213.310;-125.319;-203.066;-212.118;-182.353;-141.524;-162.125;-179.783
4754937.982;-214.428;-131.167;-203.848;-210.330;-180.751;-142.455;-164.770;-180.751
4754937.990;-213.124;-131.987;-201.911;-208.542;-184.253;-139.438;-161.193;-177.361
4754937.998;-209.995;-137.277;-199.676;-202.134;-182.837;-135.005;-158.399;-172.555
4754938.006;-205.897;-144.392;-196.025;-194.125;-178.479;-127.889;-147.671;-165.701
4754938.014;-202.730;-147.074;-191.405;-188.127;-177.734;-123.233;-139.065;-160.411
4754938.022;-205.077;-157.505;-192.486;-187.978;-183.731;-128.411;-143.126;-164.472
4754938.030;-203.624;-159.629;-187.978;-183.173;-185.035;-129.119;-141.338;-164.770
4754938.038;-168.011;-131.354;-153.184;-151.023;-162.721;-129.230;-143.014;-161.231
4754938.046;-138.469;-106.543;-122.637;-120.811;-147.708;-129.119;-140.928;-162.534
4754938.054;-75.102;-47.535;-57.556;-55.842;-106.879;-105.202;-103.861;-133.924
4754938.062;-1.490;14.007;13.001;14.305;-71.302;-99.503;-92.797;-135.712
4754938.070;60.685;64.708;75.288;70.259;-40.717;-105.835;-113.696;-139.587
4754938.078;103.898;95.703;118.874;111.349;-20.675;-105.463;-121.593;-135.116
4754938.086;127.219;110.269;142.343;138.767;-10.505;-106.879;-117.570;-134.036
4754938.094;141.151;113.696;157.915;154.600;1.751;-99.353;-104.569;-126.474
4754938.102;126.436;85.309;145.994;143.461;-5.998;-102.855;-116.192;-124.574
4754938.039;90.189;40.680;114.627;115.186;-28.573;-106.655;-111.684;-129.752
4754938.047;56.997;4.098;84.750;91.866;-49.658;-111.796;-120.699;-133.589
4754938.055;24.401;-25.705;52.750;70.818;-79.051;-105.649;-112.019;-125.542
4754938.063;-11.474;-57.966;20.005;42.804;-113.547;-105.277;-104.271;-124.760
4754938.071;-46.901;-94.064;-13.374;11.921;-140.108;-118.054;-124.574;-133.440
4754938.079;-67.279;-127.777;-32.000;-7.190;-156.574;-118.315;-124.425;-130.795
4754938.087;-84.974;-161.380;-50.403;-26.859;-182.055;-119.619;-120.141;-129.454
4754938.095;-102.110;-187.159;-67.912;-44.219;-202.209;-122.115;-117.347;-129.491
4754938.103;-112.243;-204.220;-76.108;-53.719;-213.310;-116.676;-113.361;-122.488
4754938.111;-122.450;-219.643;-86.091;-62.846;-219.941;-114.813;-115.111;-119.135
4754938.119;-120.774;-222.176;-83.521;-62.138;-217.706;-107.884;-108.182;-110.343
4754938.127;-120.252;-229.105;-83.856;-61.877;-213.236;-107.326;-102.408;-108.033
4754938.135;-124.350;-240.169;-89.519;-65.826;-212.789;-113.584;-102.706;-111.349
4754938.143;-124.425;-251.494;-90.823;-69.849;-210.814;-106.581;-93.691;-105.537
4754938.151;-127.628;-266.358;-97.528;-78.529;-208.616;-105.426;-96.969;-101.551
4754938.159;-128.523;-274.554;-102.073;-84.527;-209.957;-101.626;-94.548;-94.026
4754938.167;-119.284;-276.715;-98.795;-80.392;-205.487;-92.424;-80.951;-82.776
4754938.175;-107.810;-271.611;-90.860;-73.127;-195.131;-81.062;-72.271;-66.236
4754938.183;-107.139;-278.242;-93.915;-78.194;-195.168;-85.458;-81.100;-76.219
4754938.191;-111.014;-292.212;-102.967;-86.688;-200.197;-89.742;-85.495;-81.994
4754938.199;-112.168;-294.074;-104.867;-87.470;-199.080;-87.321;-76.741;-84.750
4754938.207;-106.096;-292.696;-102.259;-81.956;-193.194;-78.268;-66.832;-73.239
4754938.215;-92.611;-282.414;-90.152;-69.849;-179.410;-62.510;-48.354;-55.693
4754938.223;-89.295;-281.371;-87.842;-67.987;-173.301;-57.220;-41.835;-49.435
4754938.217;-90.450;-287.928;-93.505;-71.414;-176.616;-60.126;-46.156;-47.013
4754938.225;-84.527;-284.687;-89.444;-68.396;-170.656;-59.940;-50.180;-43.064
4754938.233;-73.910;-277.795;-82.664;-56.475;-160.895;-52.452;-40.941;-37.700
4754938.241;-70.482;-276.305;-83.260;-53.681;-160.709;-53.421;-37.774;-41.313
4754938.249;-63.702;-272.244;-78.306;-50.850;-154.264;-46.380;-27.940;-31.963
4754938.257;-59.567;-272.021;-76.778;-45.896;-151.545;-48.429;-27.716;-35.577
4754938.265;-56.848;-271.164;-74.171;-45.411;-147.223;-48.354;-24.997;-34.571
4754938.273;-53.272;-270.568;-71.228;-43.772;-141.338;-49.025;-28.796;-33.565
4754938.281;-51.707;-270.195;-71.116;-40.233;-140.443;-53.346;-35.241;-35.018
4754938.289;-46.715;-266.619;-68.173;-37.737;-137.389;-51.707;-33.043;-29.653
4754938.297;-40.345;-262.707;-64.112;-31.218;-130.646;-50.627;-28.461;-27.642
4754938.305;-39.339;-260.249;-63.740;-28.796;-132.248;-48.317;-21.197;-26.636
4754938.313;-35.353;-259.690;-61.616;-26.971;-129.528;-46.939;-19.521;-24.885
4754938.321;-31.479;-255.965;-58.189;-24.401;-124.834;-47.050;-19.819;-27.418
4754938.329;-24.810;-249.408;-52.489;-18.701;-121.258;-45.486;-20.303;-29.020
4754938.337;-22.687;-249.743;-52.080;-16.652;-123.121;-44.294;-19.260;-28.126
4754938.345;-21.718;-248.067;-51.074;-14.640;-122.599;-44.405;-20.415;-29.169
4754938.353;-13.895;-244.938;-42.692;-6.482;-108.927;-43.772;-24.587;-27.828
4754938.361;-9.984;-243.820;-41.351;-5.402;-109.635;-44.592;-23.358;-28.983
4754938.369;-6.631;-241.846;-43.064;-3.129;-113.621;-43.847;-20.787;-27.046
4754938.377;-3.800;-243.671;-44.443;-0.484;-110.529;-40.531;-13.001;-21.905
4754938.385;6.817;-231.601;-33.230;10.654;-95.479;-36.210;-5.476;-19.372
4754938.393;10.692;-229.739;-32.447;13.374;-94.511;-38.706;-9.611;-20.340
4754938.401;9.499;-231.601;-36.806;8.307;-99.652;-43.362;-14.566;-24.773
4754938.444;15.646;-223.666;-33.192;17.993;-94.660;-34.124;-6.258;-15.572
4754938.452;21.122;-221.692;-29.951;22.948;-85.458;-28.573;0.596;-8.829
4754938.460;30.771;-209.995;-18.068;31.814;-63.255;-24.028;6.668;-4.359
4754938.468;33.528;-208.169;-20.303;34.310;-69.290;-23.693;8.494;-3.651
4754938.476;34.571;-207.946;-23.171;32.112;-80.094;-24.997;7.153;-5.513
4754938.484;36.247;-210.106;-21.830;32.261;-70.296;-27.604;-0.037;-7.637
4754938.492;39.265;-211.596;-19.930;35.129;-60.573;-29.206;-5.737;-8.345
4754938.500;37.923;-209.771;-21.309;33.192;-59.903;-25.518;0.186;-4.694
4754938.508;34.720;-209.846;-29.877;34.086;-77.449;-22.911;5.960;-4.172
4754938.516;38.184;-202.395;-26.412;36.620;-73.649;-16.727;12.591;0.857
4754938.524;36.359;-198.223;-26.524;36.694;-72.420;-8.568;21.644;6.892
4754938.532;35.092;-198.930;-27.120;35.465;-70.967;-4.657;31.441;10.356
4754938.540;30.734;-200.495;-28.573;29.579;-68.545;-15.497;19.819;4.098
4754938.548;29.989;-199.378;-32.298;30.994;-76.592;-19.111;16.950;-0.484
4754938.556;29.504;-197.217;-35.837;28.387;-87.731;-18.254;19.334;-0.261
4754938.564;37.737;-181.943;-27.977;40.531;-75.810;-3.874;33.565;14.603
4754938.572;46.007;-172.555;-20.787;46.827;-71.228;4.731;45.002;18.477
4754938.580;53.011;-163.391;-13.672;49.584;-62.361;11.064;49.956;20.564
4754938.588;53.681;-162.609;-17.993;50.515;-70.818;8.531;46.939;19.073
4754938.596;52.974;-162.758;-20.526;45.039;-67.241;14.082;52.862;25.518
4754938.604;50.217;-163.466;-22.948;40.233;-66.608;12.182;46.603;26.226
4754938.612;38.706;-175.796;-37.886;29.057;-77.412;-0.596;34.086;19.222
4754938.620;28.908;-180.937;-47.050;18.962;-77.300;-4.321;39.004;23.022
4754938.628;32.522;-173.487;-47.572;25.630;-75.586;-4.955;44.592;32.820
4754938.682;40.159;-162.683;-41.351;32.820;-63.740;-8.345;43.735;36.433
4754938.690;43.958;-155.978;-39.265;33.267;-59.269;-11.772;40.643;34.720
4754938.698;49.137;-149.794;-36.843;35.241;-55.134;-9.947;41.761;37.476
4754938.706;57.146;-135.228;-29.989;39.339;-46.045;-5.104;50.329;40.308
4754938.714;63.032;-126.846;-26.636;42.506;-42.282;-5.662;49.956;39.451
4754938.722;69.253;-116.341;-20.862;48.764;-34.422;1.937;62.622;47.088
4754938.730;70.222;-112.578;-21.495;50.664;-36.843;-0.075;53.346;42.766
4754938.738;77.374;-108.555;-17.807;55.209;-34.049;-4.917;42.021;34.757
4754938.746;93.393;-90.711;-2.570;69.477;-21.011;5.141;58.040;44.145
4754938.754;103.228;-84.564;5.029;76.592;-14.268;0.373;50.589;43.586
4754938.762;113.472;-73.835;14.603;87.321;-4.955;2.347;56.028;46.380
4754938.770;116.564;-70.073;19.483;90.376;2.980;1.229;61.542;43.213
4754938.778;120.960;-65.938;21.197;92.909;-4.657;6.631;64.373;46.492
4754938.786;130.683;-51.558;33.341;103.302;3.688;19.334;79.125;54.836
4754938.794;133.440;-49.099;36.173;107.996;10.319;22.016;82.515;53.830
4754938.802;133.365;-48.243;36.284;105.426;7.860;22.650;73.910;54.687
4754938.810;135.973;-44.405;38.594;107.586;8.121;27.195;78.976;54.389
4754938.818;139.214;-41.015;40.121;112.131;9.872;28.051;76.927;51.893
4754938.826;140.145;-34.906;42.580;114.106;14.640;27.679;76.890;51.111
4754938.834;138.357;-37.700;41.649;108.294;20.824;29.355;68.992;55.432
4754938.842;126.846;-43.102;29.616;99.353;7.376;37.514;79.796;60.275
4754938.850;121.221;-47.460;28.722;92.834;8.717;33.639;70.967;56.326
4754938.858;128.113;-45.486;39.861;94.101;20.452;29.206;69.067;52.638
4754938.866;129.379;-43.437;44.592;87.731;26.189;26.785;66.794;49.733
4754938.877;136.159;-37.588;51.633;94.660;32.783;25.034;61.430;48.615
4754938.885;146.031;-25.518;64.895;105.985;52.564;37.923;78.604;58.450
4754938.893;134.408;-34.757;56.177;95.032;55.023;41.276;84.788;60.983
4754938.901;108.480;-60.983;27.418;72.196;19.222;30.734;69.700;53.085
4754938.909;91.679;-73.500;15.981;55.321;15.646;31.777;80.019;52.601
4754938.917;91.493;-75.437;17.546;54.948;25.034;30.398;69.439;54.203
4754938.925;83.186;-77.598;6.035;51.782;9.984;30.473;71.041;54.538
4754938.933;74.245;-84.043;1.155;42.878;6.221;28.536;68.136;52.601
4754938.941;69.402;-90.785;-1.639;38.892;8.084;23.060;59.120;48.615
4754938.949;76.368;-80.317;6.109;47.684;14.678;26.599;64.857;50.887
4754938.957;75.474;-83.447;3.912;47.423;14.380;24.848;62.957;49.509
4754938.965;72.196;-85.682;0.931;44.554;12.331;27.046;66.161;50.403
4754938.973;73.574;-82.850;4.917;45.411;15.087;35.390;76.778;55.619
4754938.981;79.572;-77.002;8.233;54.017;16.913;42.692;87.470;60.052
4754938.989;92.462;-59.567;21.309;66.645;25.332;55.134;98.012;70.147
4754938.997;109.635;-46.529;37.402;79.013;39.823;56.401;90.748;72.233
4754939.005;118.613;-36.247;43.400;85.868;40.531;54.240;90.972;69.365
4754939.013;122.450;-29.355;47.907;92.462;46.194;56.177;93.095;69.961
4754939.021;129.305;-24.810;54.799;96.634;55.358;61.877;96.187;74.282
4754939.029;127.517;-22.091;53.495;94.026;54.650;58.338;95.032;68.657
4754939.037;129.640;-22.128;54.054;96.485;54.203;54.240;93.207;65.789
4754939.045;134.148;-14.752;59.009;101.104;56.140;56.103;95.479;70.706
4754939.053;133.328;-16.317;60.499;95.218;60.648;51.260;91.270;69.253
4754939.061;136.234;-15.795;61.505;96.373;63.218;48.801;89.742;68.918
4754939.087;139.400;-9.127;64.895;99.763;64.895;52.005;95.852;72.792
4754939.095;146.739;-6.296;69.700;106.059;67.987;55.246;100.285;76.070
4754939.103;146.888;-3.390;70.632;107.214;67.651;58.226;105.873;77.449
4754939.111;141.747;-6.445;66.571;103.861;62.995;53.756;101.663;74.133
4754939.119;139.810;-10.431;64.261;100.806;60.983;48.056;93.132;70.743
4754939.127;141.971;-4.955;68.024;102.408;61.765;57.630;101.924;79.870
4754939.135;145.435;-5.402;71.190;103.600;64.634;58.524;105.202;80.243
4754939.143;144.765;-5.104;70.855;101.551;62.659;52.974;100.434;73.351
4754939.151;145.920;-2.831;75.772;100.806;66.273;56.662;100.248;81.360
4754939.159;142.232;-8.382;71.041;96.075;59.307;54.762;100.844;87.507
4754939.167;142.567;-3.837;74.357;96.671;50.962;57.258;105.165;90.189
4754939.175;140.741;-7.413;73.612;95.069;39.674;51.185;97.193;88.364
4754939.183;143.647;-1.378;77.412;98.422;40.047;52.154;100.546;90.115
4754939.191;140.555;-2.570;76.331;96.597;39.265;50.813;96.150;89.630
4754939.199;132.881;-12.107;70.594;89.630;34.980;47.162;93.915;86.837
4754939.207;134.893;-6.855;76.033;91.344;40.047;49.621;90.078;87.656
4754939.215;140.741;-3.390;83.111;98.012;52.936;53.719;88.513;90.934
4754939.223;134.148;-4.955;79.162;94.697;47.386;52.676;87.135;88.736
4754939.231;117.831;-17.099;66.198;77.412;28.685;44.182;81.025;81.509
4754939.239;108.443;-24.885;61.989;72.345;39.116;41.276;82.180;77.486
4754939.247;105.388;-21.346;62.585;71.786;42.655;54.501;93.877;88.103
4754939.255;92.648;-38.520;49.099;51.744;19.185;41.053;68.732;78.008
4754939.263;99.614;-29.355;60.648;61.132;36.247;47.013;81.174;80.578
4754939.271;92.462;-33.453;55.842;57.966;34.980;50.887;88.066;79.200
4754939.312;103.265;-21.569;66.571;73.761;48.988;56.475;87.246;82.850
4754939.320;117.719;-3.092;74.990;91.046;48.280;61.579;94.287;83.074
4754939.328;119.470;-5.923;72.047;92.052;45.933;53.905;83.335;77.002
4754939.336;133.626;12.331;85.235;110.939;55.321;54.017;86.240;76.704
4754939.344;137.538;18.962;90.599;119.321;66.757;55.581;89.929;75.027
4754939.352;131.726;9.015;79.684;107.326;54.911;45.076;73.873;64.187
4754939.360;133.999;19.558;80.578;118.464;59.083;53.495;79.311;69.700
4754939.368;128.634;11.399;76.070;112.243;62.510;59.046;82.962;70.743
4754939.376;106.171;-8.456;52.787;87.246;38.072;40.829;61.356;42.841
4754939.384;101.179;-10.803;49.211;83.670;42.990;43.288;64.038;45.374
4754939.392;103.526;-9.499;50.366;88.066;50.738;46.454;69.104;51.484
4754939.400;103.153;-5.513;51.633;89.593;60.461;52.787;77.821;60.052
4754939.408;100.173;-12.442;44.629;82.999;59.642;50.105;69.775;59.195
4754939.416;104.643;-6.109;49.435;85.942;77.076;50.217;64.597;56.364
4754939.424;93.393;-16.876;38.967;75.288;81.398;48.988;67.614;52.899
4754939.432;65.193;-46.007;10.282;48.950;71.302;42.878;61.877;50.366
4754939.440;43.474;-60.722;-9.835;31.292;60.499;38.147;60.461;41.127
4754939.448;38.110;-67.800;-13.299;24.028;70.035;43.921;69.067;46.864
4754939.456;35.018;-66.496;-15.125;20.377;70.520;45.747;74.543;47.870
4754939.464;33.565;-63.293;-18.813;22.650;56.811;48.764;84.266;50.664
4754939.472;41.388;-59.530;-11.995;28.871;50.180;52.713;95.330;54.687
4754939.480;38.967;-58.785;-11.846;24.438;43.064;40.382;72.904;40.755
4754939.488;40.084;-62.771;-12.591;24.065;42.468;31.143;53.383;35.353
4754939.496;41.462;-59.344;-12.368;26.077;37.290;31.739;54.948;35.428
4754939.537;43.884;-56.364;-10.468;28.424;35.316;33.975;60.238;34.645
4754939.545;54.128;-49.919;-2.570;38.221;41.313;36.247;63.330;40.159
4754939.553;60.722;-42.319;4.433;40.382;46.678;38.408;69.924;41.723
4754939.561;79.013;-28.610;21.979;56.885;66.943;46.231;80.131;51.334
4754939.569;86.389;-17.174;22.724;66.645;54.017;46.082;75.772;50.999
4754939.577;86.017;-15.348;21.979;63.479;46.045;44.368;76.890;45.449
4754939.585;90.674;-15.199;28.200;66.385;53.383;35.539;65.193;37.327
4754939.593;93.021;-12.293;32.522;69.588;57.258;42.915;70.035;47.833
4754939.601;83.819;-27.008;22.501;60.946;50.180;36.806;56.103;46.454
4754939.609;86.911;-25.854;25.705;63.218;52.266;32.745;54.576;40.196
4754939.617;102.185;-10.207;41.910;82.701;69.663;47.572;75.586;49.286
4754939.625;106.245;-11.027;43.884;88.401;68.322;53.570;81.509;55.730
4754939.633;103.377;-15.162;42.394;81.249;62.361;50.552;77.523;52.303
4754939.641;105.612;-18.813;42.580;85.346;58.934;51.446;80.802;55.544
4754939.649;94.697;-29.765;34.459;78.976;62.510;56.252;79.162;64.149
4754939.657;64.000;-61.095;4.098;46.678;27.195;43.362;66.198;50.515
4754939.665;59.642;-66.534;-1.304;49.546;25.220;30.473;58.115;36.545
4754939.673;79.982;-40.494;17.211;76.629;38.482;42.617;73.127;48.652
4754939.681;83.260;-42.357;14.007;81.137;29.504;31.888;62.361;38.370
4754939.689;98.087;-26.710;27.902;96.746;40.494;41.053;72.457;47.125
4754939.697;110.082;-16.391;38.445;110.157;46.119;42.394;76.666;46.603
4754939.705;112.280;-19.148;37.402;109.896;41.798;37.104;73.314;44.852
4754939.713;127.740;0.149;53.905;124.387;50.776;48.503;85.421;55.619
4754939.721;133.999;-2.012;58.189;124.909;51.782;44.219;72.122;52.862
4754939.717;137.351;0.633;60.759;125.766;47.535;47.237;75.623;60.275
4754939.725;141.338;6.631;64.112;133.440;42.468;57.034;91.270;67.949
4754939.733;123.344;-16.131;46.194;113.547;32.149;44.666;76.778;51.893
4754939.741;113.733;-21.234;40.010;103.638;33.677;48.205;79.051;53.011
4754939.749;115.521;-22.054;40.531;105.724;27.865;48.578;75.102;57.220
4754939.757;127.293;-8.456;54.836;116.639;31.814;54.426;75.549;64.932
4754939.765;132.658;-5.215;62.734;120.401;24.922;57.407;80.504;66.720
4754939.773;138.469;-3.986;66.981;125.468;26.748;55.842;79.796;66.534
4754939.781;150.502;10.915;82.776;136.048;43.549;64.634;93.803;75.847
4754939.789;145.696;0.410;80.578;130.162;45.374;56.736;87.731;68.732
4754939.797;141.487;-1.304;75.810;129.491;34.831;57.071;90.897;68.136
4754939.805;146.665;0.373;83.335;130.199;39.600;59.567;94.362;73.835
4754939.813;150.166;-2.384;87.172;132.546;42.468;54.464;86.688;72.345
4754939.821;147.820;-1.378;85.197;132.397;22.277;59.791;94.026;77.933
4754939.829;147.037;-7.451;83.037;130.422;14.082;56.066;83.409;77.896
4754939.837;153.780;0.484;92.313;135.750;26.040;60.648;91.791;80.615
4754939.845;149.161;-3.986;86.874;130.869;19.446;59.307;90.487;76.853
4754939.853;144.690;-10.394;80.131;129.081;18.664;54.687;78.566;73.574
4754939.861;147.708;-2.161;85.309;133.663;29.691;66.161;95.367;83.856
4754939.869;145.622;-9.127;81.137;129.975;25.295;60.797;89.109;78.976
4754939.877;142.008;-8.531;73.723;127.405;15.274;64.671;91.493;82.701
4754939.885;143.759;-8.196;77.821;123.903;21.607;65.640;97.156;80.280
4754939.893;152.066;-6.594;90.115;123.046;48.950;60.014;91.754;74.580
4754939.901;158.437;1.490;99.353;119.358;57.146;69.104;96.075;83.409
4754939.868;168.495;6.929;108.890;123.344;70.073;64.485;90.227;78.417
4754939.876;174.530;16.131;115.633;125.617;78.492;71.935;98.981;83.819
4754939.884;171.661;13.299;113.361;118.390;86.427;67.540;92.052;80.466
4754939.892;165.552;5.662;102.855;111.721;84.452;64.969;89.966;77.337
4754939.900;158.474;3.949;97.491;96.895;99.055;63.367;89.668;75.884
4754939.908;150.464;-6.966;87.805;86.874;109.337;49.472;71.935;62.287
4754939.916;152.811;0.633;86.688;91.083;119.768;57.966;84.043;69.104
4754939.924;152.215;3.614;85.756;90.897;127.926;57.779;84.527;67.763
4754939.932;152.215;3.353;83.372;87.693;128.374;49.472;70.632;57.220
4754939.940;154.935;14.119;88.774;88.848;133.999;60.052;79.758;63.777
4754939.948;152.886;10.133;84.937;86.203;116.564;58.636;75.959;65.640
4754939.956;141.449;6.631;67.502;76.927;80.392;53.979;72.047;58.673
4754939.964;138.581;8.196;64.448;73.612;85.942;46.603;65.267;51.558
4754939.972;138.730;8.307;63.181;71.004;97.789;40.308;59.567;45.784
4754939.980;135.154;11.660;60.052;64.634;97.901;43.958;58.897;48.354
4754939.988;135.154;12.293;58.934;64.112;103.228;45.039;56.550;47.721
4754939.996;130.907;16.391;54.203;62.399;95.963;48.019;61.207;49.062
4754940.004;127.256;18.030;51.334;59.977;91.232;46.603;58.785;47.721
4754940.012;128.783;19.558;53.123;58.748;92.946;42.245;53.905;44.703
4754940.020;129.268;29.691;56.848;58.189;105.463;49.658;61.728;50.589
4754940.028;121.705;25.295;47.088;49.956;99.167;44.443;51.931;45.896
4754940.036;117.756;30.026;44.182;46.454;95.144;46.119;53.830;46.641
4754940.044;108.667;27.083;36.731;40.308;84.750;41.537;51.036;40.382
4754940.052;100.657;20.675;27.642;33.490;77.449;34.757;43.362;37.067
4754940.019;99.912;29.840;29.206;34.645;79.386;42.766;56.401;43.400
4754940.027;101.291;31.479;30.249;35.316;80.764;35.428;48.503;37.737
4754940.035;102.483;40.382;32.336;37.104;79.907;38.967;56.326;40.680
4754940.043;106.655;49.062;38.184;40.531;81.696;43.698;61.020;44.331
4754940.051;108.853;51.931;40.606;42.208;81.286;43.362;59.418;47.609
4754940.059;101.663;52.266;34.869;37.327;68.806;45.225;63.702;47.870
4754940.067;103.489;51.297;35.018;39.227;64.932;42.655;62.697;46.641
4754940.075;110.716;61.505;41.686;44.405;65.416;47.646;67.912;52.229
4754940.083;113.025;64.522;43.400;44.778;61.654;49.844;67.912;51.558
4754940.091;114.404;63.851;44.480;43.325;62.436;49.397;62.063;56.103
4754940.099;111.200;65.528;43.251;40.308;67.279;46.790;64.708;50.291
4754940.107;108.480;58.450;39.041;36.247;70.818;36.582;58.487;40.382
4754940.115;110.753;65.006;41.984;38.147;70.781;40.010;58.860;43.958
4754940.123;116.229;76.182;49.733;44.331;75.437;48.466;64.522;58.189
4754940.131;112.876;77.263;47.944;40.494;66.534;45.709;63.553;60.163
4754940.139;110.902;78.604;49.137;38.557;60.014;43.474;63.777;55.656
4754940.147;108.890;67.726;46.603;34.869;50.254;33.192;48.131;50.701
4754940.155;110.343;73.947;48.280;40.457;46.976;41.090;61.505;58.636
4754940.163;109.412;75.065;48.801;40.866;45.374;47.088;66.720;65.453
4754940.171;102.296;66.124;42.282;34.720;39.451;44.554;62.510;64.448
4754940.179;97.230;67.391;42.208;32.783;38.594;48.131;66.422;68.508
4754940.187;101.402;68.806;50.403;37.476;54.277;42.506;60.983;61.840
4754940.195;94.883;68.136;42.953;35.875;43.735;43.139;64.336;60.536
4754940.203;90.152;63.069;39.674;31.404;38.408;39.488;60.424;56.848
4754940.217;89.481;60.052;40.978;29.765;46.119;42.096;63.144;63.069
4754940.225;84.937;62.734;38.594;29.132;41.276;45.076;75.735;59.791
4754940.233;81.174;54.762;35.353;21.271;40.680;37.178;59.642;55.619
4754940.241;84.601;63.553;38.594;28.424;42.804;42.431;62.920;60.461
4754940.249;92.238;72.531;49.882;38.370;56.289;45.262;66.571;62.622
4754940.257;94.585;71.079;54.501;36.918;57.071;41.611;63.553;62.883
4754940.265;93.207;73.984;51.446;35.688;37.961;45.337;72.718;63.926
4754940.273;93.393;71.712;50.813;38.892;35.837;42.729;67.949;63.181
4754940.281;100.248;82.366;60.350;46.417;46.305;55.544;82.180;73.276
4754940.289;96.112;79.311;57.146;44.107;39.935;48.019;72.122;66.571
4754940.297;91.679;72.196;54.166;38.445;37.737;39.972;63.628;60.946
4754940.305;92.573;77.896;56.066;40.755;35.800;48.801;72.978;68.545
4754940.313;95.367;78.231;58.785;44.480;38.929;46.715;71.302;65.118
4754940.321;91.493;77.076;56.662;40.419;43.511;52.713;79.051;72.233
4754940.329;82.739;73.910;46.007;39.749;28.647;44.145;68.545;64.224
4754940.337;95.852;86.091;57.109;54.203;35.092;39.116;60.499;61.728
4754940.345;113.435;110.231;72.494;74.804;46.082;51.074;76.853;68.545
4754940.353;129.528;121.817;85.458;91.046;58.636;47.274;74.171;65.379
4754940.361;140.630;136.867;97.901;105.128;77.896;53.719;79.833;72.494
4754940.369;130.273;128.709;83.297;94.473;46.678;48.876;71.265;66.534
4754940.377;131.615;128.374;85.570;94.138;54.948;48.764;70.967;64.336
4754940.385;131.242;134.222;87.880;96.597;58.934;60.275;79.125;72.978
4754940.393;131.279;132.136;89.258;99.652;66.012;54.277;75.176;65.230
4754940.401;130.162;133.514;89.407;98.497;68.545;62.361;88.960;68.583
4754940.348;124.685;129.342;84.415;93.095;62.250;60.014;81.956;66.161
4754940.356;126.809;132.062;85.905;95.330;66.683;58.673;72.867;67.875
4754940.364;126.362;137.761;85.533;97.863;65.826;67.316;83.037;75.586
4754940.372;125.542;135.154;85.682;96.671;68.247;62.771;80.951;74.208
4754940.380;123.642;136.942;85.272;95.740;71.190;70.222;91.828;80.466
4754940.388;115.074;129.119;77.449;88.327;67.279;67.167;87.842;75.474
4754940.396;102.781;116.155;63.926;75.363;49.919;60.536;79.982;68.508
4754940.404;100.248;119.694;65.565;74.022;56.066;63.926;82.552;70.073
4754940.412;101.998;120.178;68.508;75.065;64.969;61.281;76.853;67.949
4754940.420;98.236;119.545;63.926;72.606;59.269;65.975;82.776;70.557
4754940.428;91.083;112.504;57.183;66.496;58.860;59.754;72.531;63.516
4754940.436;89.407;110.827;55.619;65.975;58.860;60.573;71.898;65.640
4754940.444;87.135;113.808;53.756;66.906;55.842;71.302;87.768;72.867
4754940.452;86.315;112.243;52.936;69.104;60.610;65.267;80.205;65.714
4754940.460;81.509;111.759;50.999;64.634;64.746;69.216;85.272;69.663
4754940.468;77.263;107.773;46.827;60.759;61.169;69.253;81.211;73.388
4754940.476;71.302;103.004;38.892;56.140;57.518;64.299;73.388;66.869
4754940.484;66.087;103.004;32.708;52.080;50.105;65.230;79.796;64.224
4754940.492;58.003;94.697;25.593;45.374;45.076;56.103;70.296;59.865
4754940.500;52.080;94.548;19.334;43.400;36.843;61.393;74.878;70.781
4754940.508;54.538;99.465;23.171;47.535;48.168;59.791;71.377;63.851
4754940.516;58.897;107.214;26.077;52.638;54.687;59.009;74.208;54.576
4754940.524;52.527;107.326;19.632;44.890;43.660;68.396;86.948;63.442
4754940.532;46.194;99.577;13.188;39.078;44.256;61.467;76.741;58.673
4754940.573;40.047;96.262;8.717;37.327;47.870;65.304;80.317;62.175
4754940.581;36.582;93.170;10.096;37.774;65.565;69.998;85.048;69.216
4754940.589;24.699;80.876;-1.080;26.338;62.548;59.567;70.184;62.361
4754940.597;14.752;75.996;-10.133;20.191;51.036;61.318;78.082;62.063
4754940.605;11.139;70.222;-13.225;18.142;53.011;62.473;77.300;68.620
4754940.613;16.615;76.517;-4.768;22.985;63.889;67.689;79.907;69.328
4754940.621;13.895;71.637;-5.066;19.558;64.038;65.304;78.529;64.187
4754940.629;0.037;57.742;-17.509;4.955;49.658;58.413;71.116;62.808
4754940.637;-0.559;63.032;-15.162;5.476;53.421;75.176;92.201;82.515
4754940.645;-12.219;50.664;-25.593;-6.892;46.119;59.754;73.761;62.957
4754940.653;-4.284;63.069;-16.578;3.204;56.513;72.345;83.894;77.859
4754940.661;-4.433;62.361;-16.540;3.837;48.615;65.155;80.951;68.136
4754940.669;-5.886;55.917;-19.968;-2.980;44.554;56.289;73.202;59.567
4754940.677;-0.596;61.207;-11.958;-0.149;62.287;61.728;76.629;68.359
4754940.685;4.992;63.702;-7.674;7.190;64.746;57.593;69.290;68.657
4754940.693;1.267;60.387;-12.554;1.565;47.013;53.756;66.794;66.347
4754940.701;11.697;67.651;-3.725;11.064;52.005;56.215;70.371;68.843
4754940.709;8.196;63.069;-7.376;7.451;51.372;56.028;71.675;66.906
4754940.717;2.608;63.479;-10.692;3.465;48.280;55.246;71.675;64.038
4754940.725;15.385;71.488;-1.416;17.919;52.676;44.219;54.277;55.991
4754940.733;33.863;87.619;14.193;35.726;64.485;48.839;61.989;57.034
4754940.741;45.821;100.359;22.128;48.988;55.954;50.776;66.124;58.003
4754940.749;56.699;108.257;31.926;57.556;60.573;40.531;51.297;51.148
4754940.757;65.826;118.949;41.686;64.187;66.198;48.392;53.830;58.450
4754940.730;60.350;112.392;33.788;60.834;56.066;44.703;50.478;50.440
4754940.738;52.005;107.698;27.865;54.911;48.503;50.962;62.548;51.931
4754940.746;42.021;99.018;23.879;45.300;46.566;48.093;60.722;48.950
4754940.754;37.774;95.032;21.532;41.276;47.684;46.752;61.952;49.509
4754940.762;32.336;93.132;14.752;38.296;31.181;45.821;64.708;46.864
4754940.770;31.590;90.972;14.603;38.594;21.160;38.929;52.415;40.829
4754940.778;29.914;93.244;13.448;38.259;3.800;38.035;50.589;41.127
4754940.786;22.873;84.974;8.717;26.971;-2.831;28.834;41.090;32.932
4754940.794;22.985;83.037;8.009;24.848;-4.545;26.524;41.202;33.192
4754940.802;29.057;92.015;14.044;33.043;0.484;37.774;56.028;42.245
4754940.810;27.344;87.954;11.884;30.510;-2.980;31.888;41.276;35.539
4754940.818;30.920;93.766;14.193;34.310;-1.863;42.655;54.613;43.772
4754940.826;37.625;100.173;20.005;39.972;4.582;48.727;60.312;50.366
4754940.834;23.358;85.421;4.768;24.773;-13.225;33.304;46.827;39.749
4754940.842;22.873;88.066;7.637;24.736;-14.529;35.763;52.527;39.227
4754940.850;32.783;96.001;18.366;34.720;-3.912;33.118;42.394;35.577
4754940.858;36.210;102.632;25.108;39.749;17.472;32.857;42.468;35.055
4754940.866;45.672;111.721;35.353;46.864;28.722;38.221;49.323;40.755
4754940.874;46.045;110.604;37.253;46.194;28.946;35.055;38.967;41.351
4754940.882;38.445;104.830;31.888;41.388;18.030;38.855;44.852;41.090
4754940.890;41.090;106.730;37.141;44.592;14.380;47.423;58.524;44.405
4754940.898;48.354;118.427;49.472;54.799;24.289;63.963;77.225;62.287
4754940.906;45.560;113.957;45.411;51.707;13.188;52.825;69.439;48.652
4754940.914;39.041;104.941;39.302;47.460;9.574;35.912;50.403;34.235
4754940.873;39.041;105.500;42.096;43.735;16.391;46.827;62.361;49.248
4754940.881;35.539;98.906;37.216;39.041;8.456;37.216;48.615;38.743
4754940.889;34.012;99.614;35.986;39.265;8.754;37.737;50.105;38.333
4754940.897;36.731;102.259;40.196;42.580;17.807;38.967;50.440;41.723
4754940.905;28.312;91.940;32.485;34.459;12.778;35.949;49.211;36.582
4754940.913;27.120;88.289;32.373;33.006;17.658;43.698;57.481;41.686
4754940.921;31.777;90.636;36.173;38.594;21.756;49.584;62.846;47.609
4754940.929;30.734;91.903;36.284;40.866;26.673;61.616;71.228;57.854
4754940.937;19.409;79.945;27.008;30.845;25.816;57.332;68.955;50.031
4754940.945;4.470;65.155;13.523;20.899;22.464;51.968;59.940;49.248
4754940.953;-9.350;52.750;2.421;8.345;17.323;50.589;63.740;48.615
4754940.961;-22.054;35.651;-7.115;-9.723;13.001;38.855;55.060;35.986
4754940.969;-30.845;30.696;-17.583;-12.480;7.190;40.717;54.948;40.121
4754940.977;-29.355;32.522;-20.824;-5.253;-7.302;35.539;46.864;37.067
4754940.985;-8.680;50.478;-4.768;15.646;4.247;38.333;52.489;39.190
4754940.993;9.798;69.104;9.574;35.055;11.623;42.170;56.662;41.462
4754941.001;29.355;83.409;24.624;50.478;16.987;37.476;50.329;38.780
4754941.009;40.755;98.161;31.702;64.075;16.093;51.372;67.241;49.658
4754941.017;39.563;97.603;31.628;62.734;14.156;47.311;60.238;46.045
4754941.025;36.024;94.585;27.753;59.754;8.494;40.345;54.203;38.631
4754941.033;34.235;94.101;27.865;59.344;10.468;49.025;64.448;44.443
4754941.041;18.626;77.672;12.629;44.480;-6.184;36.918;47.870;34.198
4754941.049;22.799;81.547;18.291;45.784;2.161;44.554;52.527;44.592
4754941.057;23.283;78.380;20.303;43.027;9.164;39.861;48.019;42.170
4754941.039;13.635;67.800;10.654;31.143;-4.470;28.163;40.233;30.473
4754941.047;17.546;71.712;15.348;35.651;-2.682;34.496;48.690;33.490
4754941.055;27.642;80.504;25.332;46.715;5.811;40.606;53.272;39.488
4754941.063;23.730;79.162;22.277;43.288;5.290;38.296;43.847;40.419
4754941.071;34.422;87.768;34.161;49.733;19.036;34.086;39.116;32.373
4754941.079;38.482;88.923;38.818;50.254;19.111;29.579;36.322;27.716
4754941.087;34.757;86.948;35.688;47.572;11.586;32.373;42.729;30.361
4754941.095;31.404;82.888;32.224;43.176;6.668;17.583;25.854;16.019
4754941.103;34.496;85.197;35.986;43.847;14.082;21.979;29.765;22.836
4754941.111;33.751;85.160;35.465;42.096;12.182;24.773;34.235;23.469
4754941.119;33.639;85.272;36.396;39.227;8.978;20.452;35.502;15.460
4754941.127;30.808;83.484;34.980;35.800;7.004;17.509;36.098;10.170
4754941.135;31.888;83.297;38.743;36.694;21.867;20.973;39.376;14.789
4754941.143;24.065;75.474;37.290;27.008;25.444;23.097;26.859;21.271
4754941.151;11.697;63.032;22.091;14.156;-1.192;12.442;15.385;5.923
4754941.159;24.587;85.719;31.292;44.145;-14.342;20.452;33.453;9.947
4754941.167;60.014;128.224;64.410;89.370;-4.470;33.043;47.646;22.352
4754941.175;96.075;166.856;94.958;129.119;4.843;32.410;48.056;21.644
4754941.183;139.736;212.528;134.036;176.691;14.231;32.932;50.105;22.687
4754941.191;170.246;237.413;154.972;207.275;17.993;28.014;48.354;18.962
4754941.199;196.323;259.541;168.681;238.419;16.987;16.615;39.190;8.307
4754941.207;225.976;285.991;189.207;270.829;26.338;24.959;48.168;15.721
4754941.215;234.134;287.145;190.325;278.801;24.810;23.730;48.615;14.938
4754941.223;236.630;288.002;187.047;285.134;25.630;23.879;40.717;18.738
4754941.231;231.899;281.073;178.665;282.414;26.561;24.736;33.565;26.487
4754941.239;217.855;271.387;160.523;273.474;15.385;25.928;35.241;28.908
4754941.247;192.747;253.543;133.999;253.506;-7.935;16.578;29.840;14.715
4754941.255;182.353;244.416;121.072;244.901;-17.397;17.285;34.012;15.311
4754941.278;168.122;228.621;105.537;231.229;-22.873;5.886;20.042;5.029
4754941.286;172.742;229.031;109.300;234.097;-5.737;11.884;21.607;16.615
4754941.294;194.386;250.079;128.224;256.598;11.176;37.812;64.522;48.541
4754941.302;195.801;255.518;128.224;260.174;4.210;38.482;71.526;34.571
4754941.310;165.440;224.561;99.950;229.888;-33.751;11.995;20.117;8.568
4754941.318;149.421;209.436;87.060;217.892;-44.703;15.460;22.911;15.050
4754941.326;153.296;210.628;94.660;224.598;-28.536;25.891;35.129;27.791
4754941.334;148.043;205.413;92.760;225.604;-19.297;26.412;38.669;30.436
4754941.342;115.186;173.040;58.450;194.497;-64.075;14.752;27.008;18.142
4754941.350;99.093;148.602;45.449;174.418;-77.374;11.213;25.779;15.460
4754941.358;100.620;143.871;54.240;172.965;-62.436;11.027;23.060;16.913
4754941.366;96.932;133.440;57.183;166.185;-57.667;13.895;24.773;20.154
4754941.374;87.470;119.433;48.690;154.302;-69.663;13.001;24.810;17.099
4754941.382;76.629;104.755;39.600;140.071;-82.664;4.880;17.434;5.215
4754941.390;75.065;95.963;43.698;135.489;-65.342;3.465;12.591;5.625
4754941.398;72.308;87.209;42.208;130.832;-65.044;10.915;19.819;13.486
4754941.406;70.408;77.300;42.766;125.654;-59.940;12.740;18.440;15.497
4754941.414;69.477;72.457;45.337;121.891;-47.274;11.586;17.621;11.250
4754941.422;66.347;69.551;42.208;119.172;-53.123;15.236;26.561;13.784
4754941.430;67.055;65.640;43.325;117.831;-47.944;15.423;17.360;16.131
4754941.438;72.345;66.422;53.719;116.900;-23.469;15.758;11.846;17.323
4754941.446;68.471;58.711;49.323;111.423;-36.024;12.107;14.044;9.947
4754941.454;64.522;50.999;47.348;106.096;-31.292;12.331;18.217;11.325
4754941.462;62.063;44.703;47.125;102.632;-28.722;13.448;19.893;13.001
4754941.459;54.576;28.685;43.176;92.685;-21.607;10.841;16.019;11.586
4754941.467;32.708;0.596;25.444;66.385;-21.905;4.880;14.305;8.754
4754941.475;14.715;-22.277;8.531;44.815;-25.071;-6.594;1.267;-1.490
4754941.483;17.434;-22.464;13.113;47.572;-6.743;-6.072;3.949;-3.055
4754941.491;7.488;-34.012;8.158;36.024;7.115;-5.923;3.092;-2.645
4754941.499;18.701;-23.283;18.850;46.231;16.689;5.066;9.574;10.803
4754941.507;10.356;-32.969;13.001;33.453;8.754;-4.508;1.751;0.931
4754941.515;0.224;-45.896;7.339;20.452;16.503;-15.162;-8.121;-13.784
4754941.523;9.611;-37.812;19.446;29.169;36.843;-1.863;-1.341;1.565
4754941.531;19.372;-27.530;29.355;36.657;47.721;13.113;15.795;18.701
4754941.539;19.707;-29.989;28.536;33.006;39.861;5.402;12.517;10.878
4754941.547;20.154;-30.473;33.453;31.702;48.541;2.123;9.909;6.929
4754941.555;13.448;-37.104;29.132;22.501;45.188;-1.229;2.459;10.356
4754941.563;10.505;-37.663;26.152;22.613;39.004;0.224;4.433;13.672
4754941.571;7.078;-39.265;25.555;19.260;38.184;-0.969;1.453;13.113
4754941.579;5.364;-42.766;25.220;15.348;35.726;-4.321;1.304;10.170
4754941.587;9.574;-37.588;31.553;18.701;40.196;2.049;11.921;16.093
4754941.595;12.293;-35.986;37.476;20.154;46.976;-1.527;7.711;12.442
4754941.603;10.319;-41.537;38.072;9.947;43.884;-6.966;6.855;9.686
4754941.611;18.775;-31.926;47.944;17.695;50.180;2.049;13.039;17.621
4754941.619;24.550;-29.281;54.128;21.942;53.979;3.874;14.454;21.942
4754941.627;22.762;-30.585;53.197;20.117;49.472;6.184;8.866;24.214
4754941.635;14.417;-32.522;41.462;26.189;29.169;-14.119;-10.058;-0.410
4754941.643;43.064;-8.382;68.508;55.656;44.405;-3.539;-0.373;12.442
4754941.638;52.005;-0.857;74.320;72.420;41.276;3.055;9.835;20.899
4754941.646;54.650;-4.098;71.824;79.162;26.561;4.657;5.625;27.418
4754941.654;62.250;-5.402;74.282;97.714;17.062;15.497;19.260;38.259
4754941.662;62.399;-23.246;71.637;104.569;14.678;10.580;18.440;25.779
4754941.670;61.020;-32.298;68.434;112.318;14.305;6.147;14.305;13.299
4754941.678;63.963;-35.353;71.265;116.751;21.271;15.236;23.954;26.301
4754941.686;57.928;-49.882;59.567;109.859;-1.378;17.174;25.257;31.777
4754941.694;61.840;-48.690;61.877;117.421;8.345;18.179;22.687;29.616
4754941.702;64.149;-49.770;68.881;121.184;31.665;28.089;34.682;39.786
4754941.710;52.303;-68.136;55.730;99.689;3.390;19.558;30.957;30.510
4754941.718;33.826;-87.358;36.284;83.894;-18.701;4.284;11.101;17.099
4754941.726;26.152;-102.967;31.702;77.002;-14.082;-0.969;-1.192;12.927
4754941.734;22.389;-111.982;29.206;76.182;-13.150;2.384;2.570;16.466
4754941.742;27.865;-109.822;35.204;83.968;-1.714;6.855;11.809;15.423
4754941.750;24.810;-114.180;34.049;78.194;2.868;12.442;15.907;19.185
4754941.758;27.306;-113.212;39.861;75.586;17.546;20.713;14.491;30.473
4754941.766;32.969;-111.163;41.686;78.864;24.028;21.793;11.995;33.416
4754941.774;37.849;-107.661;42.170;80.802;25.816;25.444;17.956;34.273
4754941.782;33.565;-114.553;34.608;73.351;19.968;21.830;15.572;29.951
4754941.790;31.814;-119.470;32.559;66.645;29.281;13.113;5.551;23.842
4754941.798;31.739;-117.309;32.261;64.746;34.422;8.605;1.937;20.452
4754941.806;28.014;-120.103;27.157;58.301;33.081;9.090;5.700;23.395
4754941.814;25.369;-121.593;22.799;52.713;31.106;9.499;6.109;22.873
4754941.822;33.081;-118.315;26.748;56.848;29.691;8.158;1.788;20.936
4754941.786;38.259;-113.770;30.138;58.115;22.911;6.184;-0.931;16.876
4754941.794;32.596;-115.372;24.252;50.254;17.174;9.947;5.364;23.656
4754941.802;24.699;-121.333;15.870;41.761;4.657;-1.267;-8.382;13.262
4754941.810;26.003;-118.501;17.546;35.800;7.041;-3.166;-12.554;12.107
4754941.818;27.753;-115.819;16.950;32.224;7.935;-1.006;-14.231;12.629
4754941.826;20.489;-119.805;7.898;23.805;1.937;-1.714;-11.362;10.803
4754941.834;19.297;-110.082;3.353;31.106;-5.290;-2.570;-9.350;10.654
4754941.842;30.696;-94.175;9.537;46.529;-6.221;-0.298;-5.364;11.697
4754941.850;47.311;-73.835;18.477;64.820;-3.278;9.909;11.735;17.509
4754941.858;57.817;-61.579;24.103;74.804;1.155;10.319;6.072;17.397
4754941.866;71.526;-43.176;34.645;94.399;16.503;13.486;8.047;19.968
4754941.874;72.569;-33.379;25.854;102.706;-7.525;14.342;12.778;17.211
4754941.882;69.998;-30.659;14.119;103.675;-35.278;4.917;7.749;4.508
4754941.890;73.425;-23.134;14.789;107.624;-27.418;12.964;15.050;13.895
4754941.898;72.680;-19.222;11.511;112.429;-27.046;11.362;7.115;13.374
4754941.906;66.943;-19.968;4.806;108.369;-23.060;7.115;2.198;7.413
4754941.914;69.588;-14.305;3.912;106.692;-16.429;13.635;10.282;9.798
4754941.922;68.508;-11.958;-1.341;100.210;-27.195;13.523;8.978;10.878
4754941.930;70.296;-6.072;2.086;95.218;-15.646;13.039;9.872;11.325
4754941.938;64.969;-7.339;-2.347;86.054;-14.007;7.153;3.539;7.488
4754941.946;60.387;-6.855;-8.456;80.764;-18.254;4.247;0.708;5.551
4754941.954;56.699;-6.333;-13.150;73.090;-27.530;3.129;1.267;1.006
4754941.962;56.811;-4.545;-9.052;65.751;-17.099;6.184;3.539;4.172
4754941.970;62.659;7.078;0.559;68.545;-2.570;14.603;12.033;14.603
4754941.925;56.215;4.731;-4.992;60.350;-10.878;10.021;0.820;9.090
4754941.933;53.123;5.588;-5.923;53.272;-10.915;12.480;3.986;8.978
4754941.941;55.172;13.001;-1.714;54.613;-5.588;19.930;9.462;15.646
4754941.949;58.189;17.546;7.749;55.470;21.011;20.564;4.806;19.111
4754941.957;43.772;9.090;-12.554;38.929;-25.034;9.649;-0.596;5.215
4754941.965;44.145;12.368;-8.754;38.594;-13.411;11.474;5.364;10.096
4754941.973;51.484;22.985;2.868;42.655;3.204;16.391;8.829;16.317
4754941.981;49.137;26.412;2.533;37.849;4.321;13.635;8.121;14.529
4754941.989;50.403;31.330;5.327;36.545;9.723;13.076;9.611;14.268
4754941.997;48.801;38.072;6.109;33.155;13.672;15.423;9.462;14.789
4754942.005;43.586;40.680;4.657;24.997;16.727;15.050;9.201;15.236
4754942.013;42.841;46.194;8.531;21.197;29.206;19.483;11.958;23.991
4754942.021;38.594;50.664;6.519;17.881;31.739;21.905;13.113;28.312
4754942.029;22.762;40.568;-10.580;2.384;-6.370;4.098;-1.416;6.706
4754942.037;23.432;45.076;-4.433;-0.149;8.047;10.282;5.513;13.970
4754942.045;25.257;48.988;1.863;-1.825;22.687;16.429;7.413;23.842
4754942.053;30.100;54.948;9.537;1.490;33.863;15.721;7.823;21.085
4754942.061;11.288;40.643;-11.474;-16.689;8.419;12.517;6.929;15.683
4754942.069;20.489;57.220;-5.290;2.086;11.474;15.683;12.144;20.750
4754942.077;40.270;78.343;11.772;18.477;20.377;18.366;16.466;19.632
4754942.085;58.115;99.242;21.011;39.712;20.303;25.518;22.016;26.561
4754942.093;75.437;124.127;30.287;65.640;22.911;32.894;33.639;37.327
4754942.101;88.662;143.573;36.247;83.335;11.250;32.373;35.539;35.465
4754942.109;94.213;156.499;34.049;97.007;-0.559;26.859;32.112;26.561
4754942.073;102.594;171.550;37.849;112.318;-0.298;30.696;34.794;27.418
4754942.081;106.506;180.416;38.594;118.464;-4.321;30.920;31.590;27.493
4754942.089;109.635;186.451;44.554;120.886;-5.588;36.098;34.906;35.949
4754942.097;105.761;186.823;43.735;117.160;-1.676;47.870;44.405;49.472
4754942.105;96.932;181.049;36.806;112.541;-6.296;46.492;46.380;44.741
4754942.113;99.093;184.700;47.423;112.690;13.970;48.988;51.334;41.164
