Timestamp,AFz,AF3,AF4,AF7,AF8,Pz,P3,P4,2024-04-18 12:02:35.098,fs=125
3026886.000;-9.499;-12.778;-20.526;1.043;-4.806;0.931;0.857;-0.559
3026886.008;-10.096;-17.136;-17.248;-2.086;-0.931;-1.714;-4.880;-1.080
3026886.016;-15.423;-24.773;-21.271;-11.139;0.894;-2.757;-9.164;0.559
3026886.024;-14.380;-21.011;-23.358;-6.557;-3.465;-2.533;-9.835;1.937
3026886.032;-10.617;-17.546;-17.434;-6.594;0.633;-1.751;-7.488;2.161
3026886.040;-7.935;-15.944;-13.523;-5.066;4.582;3.949;1.974;4.247
3026886.048;-12.368;-22.762;-17.472;-9.835;1.341;5.998;6.445;4.433
3026886.056;-11.772;-21.905;-18.850;-8.047;1.788;4.098;4.731;3.502
3026886.064;-10.021;-19.670;-18.254;-2.086;-1.043;0.820;-0.186;2.123
3026886.072;-8.568;-17.695;-13.784;-2.682;6.594;-2.161;-5.476;0.782
3026886.080;-11.213;-16.578;-18.328;-3.055;1.714;-4.359;-8.196;-2.123
3026886.088;-15.572;-19.707;-22.650;-9.313;-7.264;-5.960;-8.941;-6.407
3026886.096;-9.686;-16.242;-15.497;-1.341;0.745;-2.347;-4.247;-5.215
3026886.104;-12.852;-23.879;-17.695;-3.539;-0.969;-5.253;-9.239;-7.600
3026886.112;-13.784;-20.526;-19.334;-5.551;-2.533;-6.594;-13.746;-6.370
3026886.120;-17.509;-24.848;-21.905;-11.176;-1.229;-10.729;-19.073;-8.084
3026886.128;-16.615;-26.934;-20.489;-11.921;-5.066;-11.548;-19.260;-8.494
3026886.136;-17.583;-29.951;-23.656;-15.907;-5.439;-9.798;-14.566;-7.302
3026886.144;-16.093;-26.040;-21.756;-10.245;-0.224;-4.098;-6.370;-5.253
3026886.152;-10.952;-19.930;-13.523;-4.247;-0.224;0.186;-0.745;-3.166
3026886.160;-8.494;-21.048;-9.313;-1.825;6.780;2.347;1.155;-2.868
3026886.168;-8.047;-21.011;-9.537;-3.986;5.290;1.639;-0.186;-5.029
3026886.176;-9.686;-19.372;-11.958;-3.763;5.327;0.410;-1.565;-7.264
3026886.184;-12.256;-20.042;-15.832;-1.863;5.849;-4.694;-7.898;-12.070
3026886.208;-14.268;-21.905;-18.030;-7.898;-3.763;-10.692;-13.858;-16.354
3026886.216;-15.795;-26.859;-17.844;-9.276;1.900;-7.674;-11.325;-14.007
3026886.224;-17.583;-28.946;-17.285;-9.909;4.321;-6.407;-11.660;-13.001
3026886.232;-19.446;-30.249;-15.460;-14.305;5.141;-5.402;-12.964;-10.170
3026886.240;-29.914;-43.362;-26.301;-24.512;-2.868;-11.548;-21.867;-14.156
3026886.248;-27.977;-38.780;-25.593;-29.132;-6.557;-2.496;-13.262;-7.004
3026886.256;-17.881;-27.306;-16.056;-16.205;0.410;8.158;-0.410;1.304
3026886.264;-10.841;-15.572;-11.399;5.215;9.909;8.717;2.086;1.006
3026886.272;-5.886;-12.629;-6.557;8.829;13.374;8.717;2.980;0.596
3026886.280;-2.794;-10.952;-0.596;4.694;18.924;4.768;0.298;-3.166
3026886.288;-2.682;-14.529;-2.682;4.806;11.697;3.204;-0.745;-4.768
3026886.296;-1.676;-11.362;-3.390;5.327;5.141;3.278;-0.298;-3.465
3026886.304;-5.662;-13.001;-6.109;-0.820;12.033;-0.298;-5.849;-6.221
3026886.312;-12.182;-18.962;-12.852;-3.278;7.339;-3.017;-8.717;-9.090
3026886.320;-14.715;-21.905;-15.162;-6.035;5.588;-1.676;-6.855;-6.668
3026886.328;-20.564;-28.424;-19.781;-10.319;-5.215;-5.700;-9.872;-7.525
3026886.336;-23.283;-34.273;-20.489;-18.477;-4.098;-3.427;-8.121;-3.576
3026886.344;-18.664;-30.361;-15.460;-14.380;-0.820;-2.161;-7.376;-1.565
3026886.352;-13.262;-19.334;-12.591;-6.407;0.522;-2.794;-6.370;-2.608
3026886.360;-13.560;-20.489;-12.517;-4.545;2.272;-7.078;-8.121;-7.823
3026886.368;-12.480;-19.185;-11.846;-2.496;7.413;-7.637;-7.264;-9.015
3026886.376;-4.098;-8.680;-2.608;7.078;14.603;-5.960;-4.917;-7.227
3026886.384;-9.350;-15.944;-5.774;3.427;6.929;-12.480;-11.250;-12.480
3026886.392;-14.566;-24.810;-9.686;-5.253;1.527;-11.511;-11.213;-9.798
3026886.389;-14.454;-23.283;-11.772;-8.270;0.671;-7.600;-8.568;-5.960
3026886.397;-11.586;-18.366;-10.170;-2.421;9.649;-7.488;-9.537;-5.774
3026886.405;-16.429;-22.538;-14.827;-8.605;1.192;-6.929;-9.686;-4.955
3026886.413;-18.626;-27.865;-17.509;-9.723;-2.608;-4.917;-8.270;-1.863
3026886.421;-15.572;-24.959;-12.368;-8.196;3.092;-7.302;-10.617;-3.241
3026886.429;-20.601;-32.037;-14.529;-18.738;3.278;-12.107;-14.789;-8.456
3026886.437;-17.434;-25.369;-14.454;-5.774;2.794;-8.717;-11.697;-5.588
3026886.445;-18.999;-26.934;-16.615;-10.729;-1.602;-6.780;-11.697;-3.129
3026886.453;-23.432;-35.018;-21.383;-22.799;-4.880;-7.674;-13.560;-3.241
3026886.461;-22.613;-37.849;-19.893;-25.705;-3.055;-8.605;-13.746;-4.582
3026886.469;-21.830;-33.677;-14.417;-16.131;3.614;-4.880;-11.474;-0.298
3026886.477;-15.497;-19.670;-12.070;-2.496;1.229;-1.602;-10.021;3.949
3026886.485;-19.781;-29.393;-17.211;-11.325;-3.912;-6.109;-14.007;-0.261
3026886.493;-21.383;-30.324;-18.179;-15.758;1.676;-9.201;-14.715;-3.725
3026886.501;-15.572;-24.997;-14.044;-7.488;6.221;-8.754;-12.927;-3.390
3026886.509;-14.491;-24.028;-11.250;-3.017;6.892;-7.078;-9.686;-2.794
3026886.517;-9.686;-21.905;-6.072;-4.619;9.425;-1.639;-3.129;1.676
3026886.525;-2.757;-14.231;-0.820;0.671;9.164;6.407;2.831;7.898
3026886.533;-3.874;-14.454;-2.794;-0.075;8.568;3.055;-1.825;4.359
3026886.541;-2.310;-12.144;0.447;3.427;15.944;0.559;-5.104;3.539
3026886.549;-0.969;-11.995;3.539;2.570;22.128;2.570;-2.384;5.215
3026886.557;-4.768;-21.048;2.198;-5.513;17.136;-2.086;-5.476;0.633
3026886.565;-10.580;-22.836;-4.508;-13.635;12.442;-10.617;-11.101;-7.637
3026886.573;-9.872;-18.924;-6.929;-8.196;9.835;-15.907;-15.646;-13.150
3026886.570;-3.614;-15.646;-0.671;0.596;17.732;-16.876;-18.664;-12.554
3026886.578;-5.215;-17.136;-2.682;0.410;10.319;-18.142;-23.618;-12.480
3026886.586;-10.543;-21.942;-8.121;-5.998;7.190;-13.374;-20.787;-6.184
3026886.594;-7.898;-19.968;-3.502;-8.643;7.898;-9.686;-15.907;-2.645
3026886.602;-4.284;-13.448;-0.671;3.465;15.832;-8.084;-12.666;-1.714
3026886.610;-1.974;-11.250;-0.633;3.912;16.540;-4.061;-7.860;1.490
3026886.618;0.186;-12.815;1.378;3.614;15.087;-0.745;-3.651;4.321
3026886.626;-2.347;-14.268;-1.863;-2.794;14.044;0.820;-3.241;6.035
3026886.634;0.857;-10.952;-1.453;-0.931;16.242;-0.708;-5.327;3.390
3026886.642;2.719;-8.419;2.645;6.780;16.019;-6.817;-10.356;-3.166
3026886.650;1.639;-8.233;2.459;2.012;14.715;-6.333;-7.525;-4.210
3026886.658;-3.465;-16.429;-1.825;-0.857;14.007;-7.935;-9.947;-6.594
3026886.666;-14.454;-25.295;-14.603;-11.995;-2.086;-14.752;-17.323;-11.399
3026886.674;-18.924;-30.026;-17.993;-14.417;-0.149;-16.764;-20.899;-11.101
3026886.682;-18.217;-27.977;-16.652;-9.313;-0.261;-15.274;-21.793;-7.451
3026886.690;-15.572;-23.469;-14.342;-12.144;1.378;-12.852;-20.154;-4.955
3026886.698;-17.546;-29.355;-12.629;-17.211;4.657;-13.970;-20.154;-8.792
3026886.706;-11.325;-23.730;-8.680;-13.113;6.184;-8.121;-15.125;-5.364
3026886.714;-4.619;-17.658;-3.316;-2.980;8.382;-2.943;-9.611;-1.751
3026886.722;-6.072;-18.217;-4.247;-5.513;5.960;-2.980;-7.898;-2.272
3026886.730;-4.545;-13.448;-4.508;-5.402;7.749;1.006;-1.900;0.112
3026886.738;-7.972;-18.328;-7.488;-6.035;9.462;-0.522;-2.608;-1.825
3026886.746;-8.531;-17.174;-10.841;-2.049;7.078;-4.321;-6.706;-4.172
3026886.754;-13.523;-18.142;-14.901;0.149;0.335;-11.921;-15.609;-11.437
3026886.765;-17.732;-24.177;-18.328;-5.290;-4.433;-12.703;-19.372;-13.150
3026886.773;-23.320;-34.198;-22.314;-17.211;-14.789;-11.809;-21.346;-12.219
3026886.781;-29.132;-42.170;-26.263;-30.734;-13.970;-11.176;-22.240;-13.001
3026886.789;-24.252;-31.926;-23.022;-19.595;-9.239;-8.717;-20.601;-11.250
3026886.797;-20.713;-26.412;-18.030;-14.268;-2.459;-10.841;-22.911;-11.474
3026886.805;-11.735;-20.526;-7.562;-8.494;9.574;-4.880;-15.236;-4.619
3026886.813;-11.958;-23.060;-8.345;-12.293;6.370;-0.149;-9.090;-1.490
3026886.821;-17.099;-24.773;-15.981;-13.933;-3.055;3.651;-4.359;0.373
3026886.829;-16.242;-19.185;-15.497;-7.451;-0.857;2.757;-3.837;-0.931
3026886.837;-16.056;-19.744;-14.938;-7.674;-0.745;-1.788;-9.872;-5.960
3026886.845;-14.007;-18.999;-11.101;-7.898;0.261;-1.602;-10.021;-6.333
3026886.853;-2.608;-8.084;1.900;1.341;5.849;2.906;-3.651;-2.719
3026886.861;-8.270;-18.626;-3.576;-11.325;3.465;-0.112;-6.929;-4.843
3026886.869;-8.829;-18.515;-5.737;-9.798;-0.522;1.863;-6.519;-1.118
3026886.877;-8.196;-15.721;-4.061;-8.270;-0.261;2.943;-7.078;0.522
3026886.885;-9.201;-17.807;-4.172;-13.970;6.743;-0.373;-12.070;-2.272
3026886.893;-3.651;-13.523;0.559;-15.423;17.025;0.373;-10.990;0.596
3026886.901;-8.121;-18.179;-3.092;-17.397;9.350;-1.267;-10.766;0.708
3026886.909;-12.033;-21.867;-6.109;-8.009;2.347;-3.017;-10.952;1.453
3026886.917;-14.342;-25.257;-5.811;-14.119;10.654;-2.719;-9.090;2.421
3026886.925;-13.821;-20.042;-6.817;-15.534;5.476;-3.055;-5.364;0.745
3026886.933;-6.370;-13.001;-3.912;-5.253;5.066;-0.708;-0.782;0.820
3026886.941;-8.717;-16.317;-7.600;-4.023;6.109;-4.023;-3.949;-3.763
3026886.949;-12.964;-19.744;-9.462;-7.972;1.527;-7.302;-6.258;-7.004
3026886.960;-9.909;-15.981;-5.960;-9.090;-1.341;-5.923;-6.594;-4.843
3026886.968;-2.645;-7.115;0.596;-2.608;16.242;0.335;-2.794;1.155
3026886.976;-0.112;-4.619;3.316;3.763;14.566;0.671;-3.576;1.341
3026886.984;1.267;-4.731;4.657;2.608;10.282;1.378;-2.198;3.465
3026886.992;4.061;-2.980;7.041;1.714;22.240;4.023;2.086;7.302
3026887.000;0.224;-8.121;-1.937;-1.863;17.732;0.186;0.149;4.284
3026887.008;-1.267;-8.568;-10.356;-2.496;11.399;-2.012;-1.863;2.347
3026887.016;2.980;-3.502;-9.127;5.923;18.254;-5.700;-4.470;-0.969
3026887.024;5.402;-2.421;-7.935;4.992;17.956;-5.737;-1.788;-1.192
3026887.032;0.186;-5.588;-14.901;-2.272;12.033;-7.600;-4.396;-1.788
3026887.040;-6.557;-8.047;-22.464;-1.863;5.513;-5.960;-7.637;1.676
3026887.048;-5.811;-5.923;-23.507;1.714;3.651;-4.098;-8.643;1.602
3026887.056;1.527;-1.490;-13.970;7.264;12.368;2.049;-3.278;5.439
3026887.064;2.235;-5.774;-10.580;1.751;15.311;3.986;0.186;5.327
3026887.072;0.931;-5.029;-13.411;-3.986;13.933;3.539;2.682;1.900
3026887.080;2.757;-0.931;-13.746;-2.719;10.654;7.600;7.935;4.582
3026887.088;2.943;-3.017;-13.784;0.559;11.399;7.823;8.866;5.960
3026887.096;6.258;-3.949;-10.096;2.794;14.305;8.494;9.537;7.972
3026887.104;2.719;-6.147;-10.543;-2.086;16.131;3.725;3.576;5.364
3026887.112;-4.955;-6.370;-20.303;4.396;4.359;-0.708;-2.831;2.868
3026887.120;-8.158;-11.213;-24.177;-0.894;-1.192;-1.490;-4.433;1.639
3026887.128;-6.780;-11.846;-21.309;-6.333;6.780;2.384;0.186;3.241
3026887.136;-2.943;-4.172;-15.311;3.576;15.236;8.568;6.258;8.009
3026887.144;-1.565;-5.439;-17.993;15.050;12.778;9.537;7.488;5.923
3026887.169;-1.043;-4.582;-17.248;6.519;6.668;11.735;9.909;5.774
3026887.177;-0.522;-4.545;-17.025;3.949;8.158;11.735;11.548;4.694
3026887.185;2.868;-4.172;-11.772;0.112;11.250;8.941;7.935;3.166
3026887.193;3.390;-3.837;-10.356;3.241;12.591;6.296;6.445;1.937
3026887.201;4.470;0.969;-8.009;10.841;19.521;8.903;10.245;4.955
3026887.209;-3.949;-9.015;-16.168;2.496;18.477;4.359;4.992;3.688
3026887.217;-8.270;-17.546;-18.440;-8.345;13.262;4.955;4.657;5.588
3026887.225;-10.468;-12.442;-24.177;1.267;2.310;4.731;4.843;5.066
3026887.233;-10.245;-12.591;-24.326;-1.676;5.998;8.605;6.817;9.276
3026887.241;-13.448;-16.317;-25.257;-7.749;1.714;4.619;0.671;4.582
3026887.249;-9.574;-17.472;-21.942;-4.731;2.868;3.353;-3.874;3.837
3026887.257;-7.749;-15.087;-23.618;-0.037;3.204;2.086;-5.327;3.465
3026887.265;-8.903;-15.609;-22.054;-3.278;5.439;1.900;-3.688;3.166
3026887.273;-11.846;-15.758;-23.581;-8.494;6.296;2.496;-1.676;2.831
3026887.281;-8.158;-13.374;-23.283;-2.570;6.855;6.370;2.086;6.333
3026887.289;-10.841;-20.526;-25.146;-12.070;4.657;5.551;0.745;5.439
3026887.297;-7.786;-13.672;-21.830;-3.576;3.874;7.339;2.086;6.594
3026887.305;-10.319;-16.056;-23.134;2.459;3.278;7.004;1.490;5.849
3026887.313;-14.640;-24.065;-29.504;-7.600;3.874;5.215;-1.080;4.023
3026887.321;-17.546;-26.040;-30.473;-11.213;-1.788;0.671;-5.625;-0.708
3026887.329;-14.119;-23.246;-25.891;-7.041;2.570;2.049;-3.912;1.080
3026887.337;-3.837;-7.823;-15.274;1.378;11.325;7.153;1.751;6.966
3026887.345;-3.353;-7.637;-13.597;8.233;12.778;4.321;0.261;4.247
3026887.353;-3.986;-9.276;-16.652;12.890;8.084;1.527;-0.559;1.267
3026887.350;-0.969;-6.258;-13.523;12.033;14.082;0.969;-0.037;-0.224
3026887.358;-0.298;-4.396;-13.448;13.895;9.611;2.012;0.484;-1.155
3026887.366;5.513;2.384;-7.898;20.228;14.827;2.421;-0.559;-0.596
3026887.374;2.421;-6.184;-8.866;8.382;11.846;4.135;-1.602;0.186
3026887.382;-5.998;-18.813;-16.093;-2.682;5.141;2.943;-2.310;-0.186
3026887.390;-10.431;-21.085;-18.999;-10.766;4.731;1.341;-5.662;-1.676
3026887.398;-14.678;-23.060;-24.065;-13.188;1.639;-2.421;-8.941;-5.178
3026887.406;-5.774;-10.617;-15.534;3.688;8.307;-0.484;-5.886;-4.843
3026887.414;-0.075;-7.600;-6.333;8.121;17.323;4.806;-1.341;-1.043
3026887.422;-4.061;-11.958;-11.437;5.439;13.299;1.527;-4.172;-3.874
3026887.430;-2.831;-8.382;-12.144;4.359;6.557;1.825;-5.700;-1.676
3026887.438;-1.080;-4.210;-11.697;10.766;8.307;4.955;-3.204;2.794
3026887.446;-1.341;-6.855;-14.007;7.153;11.325;7.562;-0.373;4.135
3026887.454;-3.427;-10.803;-14.976;4.657;3.353;4.508;-2.086;1.229
3026887.462;-9.947;-17.807;-21.495;-0.820;-4.582;5.923;1.155;1.490
3026887.470;-5.029;-10.096;-15.721;4.694;0.522;12.815;9.798;6.780
3026887.478;-3.166;-8.233;-13.597;1.043;4.992;14.901;13.821;9.388
3026887.486;1.416;-3.986;-10.431;5.476;10.692;16.652;16.093;11.288
3026887.494;5.253;-4.247;-5.513;6.370;20.340;14.901;15.162;10.282
3026887.502;9.425;-1.080;-2.123;12.144;18.626;13.635;16.354;7.115
3026887.510;7.004;-3.055;-1.974;6.519;20.750;12.368;15.534;3.949
3026887.518;6.594;-1.416;-3.204;15.050;15.758;6.706;9.574;1.453
3026887.526;5.774;-0.112;-2.943;13.635;6.668;2.943;5.849;0.559
3026887.534;6.855;-1.937;-2.459;16.913;9.201;0.410;3.651;1.043
3026887.530;5.960;-0.596;-5.886;14.454;13.486;1.006;4.321;3.465
3026887.538;2.384;-1.118;-11.325;17.993;12.331;4.545;7.674;4.768
3026887.546;4.619;-0.745;-7.227;12.703;9.090;7.823;11.213;7.749
3026887.554;7.600;3.055;-3.092;16.987;9.611;7.190;11.474;8.978
3026887.562;11.027;7.078;-1.416;20.154;15.385;7.823;13.337;9.611
3026887.570;7.339;7.264;-6.966;18.775;7.674;9.462;14.678;9.537
3026887.578;-2.608;-4.284;-14.529;8.307;3.055;4.061;7.562;4.917
3026887.586;-0.633;-9.462;-13.188;8.233;1.788;2.533;4.061;4.284
3026887.594;4.917;0.894;-6.482;14.156;5.215;2.794;2.496;3.017
3026887.602;4.917;3.129;-5.439;9.499;11.176;2.645;1.006;2.757
3026887.610;6.035;2.347;-4.731;11.176;15.683;7.488;5.662;7.413
3026887.618;8.270;0.745;-1.863;18.254;11.027;15.050;12.480;14.640
3026887.626;1.900;-6.072;-6.631;7.637;10.729;15.497;12.331;15.683
3026887.634;-4.582;-7.376;-15.795;2.161;7.004;16.429;14.454;15.981
3026887.642;-4.657;-10.580;-17.323;5.439;-8.121;17.174;16.652;15.832
3026887.650;-4.470;-10.319;-17.248;9.201;-7.488;13.262;13.709;13.039
3026887.658;-3.800;-4.917;-16.764;9.127;0.261;8.158;9.649;7.153
3026887.666;-2.570;-8.084;-13.709;2.608;5.290;4.657;4.582;3.763
3026887.674;-2.868;-6.072;-14.454;5.141;5.551;4.061;4.731;1.751
3026887.682;-3.614;-13.262;-16.019;6.333;-2.123;-0.447;2.496;-4.880
3026887.690;-1.751;-10.282;-11.586;3.502;3.502;-2.049;1.639;-6.482
3026887.698;-4.992;-11.176;-11.660;-2.943;5.998;-1.825;0.298;-5.215
3026887.706;-7.264;-10.468;-15.050;6.445;2.198;-0.112;-0.335;-0.149
3026887.714;-7.227;-12.629;-16.987;7.264;-3.465;5.253;2.161;5.737
3026887.726;-6.780;-16.876;-16.019;-2.384;-5.774;11.027;5.849;11.623
3026887.734;-3.725;-10.543;-14.268;2.570;1.378;13.411;9.649;12.591
3026887.742;-8.568;-13.523;-20.005;4.359;-2.384;9.388;7.674;6.221
3026887.750;-9.649;-15.013;-19.744;3.763;-6.557;3.614;4.880;0.075
3026887.758;-10.319;-19.334;-20.154;-0.633;-0.224;-1.416;2.868;-3.986
3026887.766;-11.884;-18.738;-20.824;-3.427;-1.192;-4.359;0.000;-6.407
3026887.774;-7.786;-12.740;-18.403;1.974;-1.527;-0.112;4.284;-3.166
3026887.782;-8.754;-16.764;-17.695;-1.490;-5.849;-1.453;0.410;-3.912
3026887.790;-9.835;-19.670;-14.976;-10.282;-1.788;-5.290;-5.998;-6.184
3026887.798;-13.113;-22.240;-19.297;-3.614;-3.949;-3.092;-5.998;-4.172
3026887.806;-15.423;-23.097;-22.165;-2.310;-3.129;0.633;-4.806;0.373
3026887.814;-14.156;-21.420;-22.911;-4.582;-11.139;0.410;-5.066;1.527
3026887.822;-10.878;-19.409;-18.403;-7.562;-5.625;0.782;-3.539;0.410
3026887.830;-7.115;-19.781;-12.591;-7.041;9.686;1.304;-0.894;0.149
3026887.838;-13.001;-23.283;-19.819;-0.782;-2.831;-1.155;-2.570;-1.825
3026887.846;-14.529;-21.420;-23.022;-3.576;-6.407;-2.533;-3.353;-2.421
3026887.854;-9.015;-17.807;-15.832;-4.582;-4.284;-0.782;-1.416;-1.676
3026887.862;-6.594;-11.809;-12.405;3.204;2.421;-1.229;-1.602;-3.874
3026887.870;-4.917;-12.890;-14.082;3.502;0.224;-0.633;-1.118;-6.035
3026887.878;-8.419;-12.591;-17.919;5.327;-5.178;-2.235;-2.384;-9.462
3026887.886;-10.952;-15.125;-18.775;6.892;-3.986;-5.960;-7.376;-11.288
3026887.894;-14.231;-22.203;-24.550;-1.602;-13.374;-5.364;-7.786;-7.898
3026887.902;-20.601;-33.006;-29.430;-18.515;-12.778;-8.903;-13.076;-9.462
3026887.910;-24.959;-34.980;-33.118;-22.948;-13.560;-7.562;-13.821;-7.153
3026887.921;-27.940;-36.135;-37.290;-19.483;-20.377;-2.235;-10.319;-2.980
3026887.929;-19.707;-28.647;-31.069;-5.141;-10.915;8.084;0.335;3.651
3026887.937;-17.770;-30.212;-26.934;-8.568;-10.729;14.231;6.892;6.482
3026887.945;-18.924;-24.885;-26.897;-6.706;-12.629;10.990;5.215;2.645
3026887.953;-16.764;-22.836;-27.642;2.645;-9.090;6.407;2.272;-1.490
3026887.961;-16.801;-22.650;-26.785;4.731;-10.580;5.215;2.049;-3.763
3026887.969;-17.136;-24.177;-27.604;-0.708;-10.580;-0.224;-2.161;-10.170
3026887.977;-13.933;-21.867;-24.736;5.700;-10.766;0.596;-1.304;-10.170
3026887.985;-12.815;-18.887;-21.271;1.453;-6.706;1.080;-1.453;-9.127
3026887.993;-11.548;-18.403;-19.893;-2.868;-8.270;-0.410;-3.129;-9.760
3026888.001;-11.325;-17.993;-17.844;2.272;-2.719;-3.539;-6.109;-11.735
3026888.009;-4.806;-10.319;-10.356;8.494;0.075;-0.224;-4.433;-7.711
3026888.017;13.188;6.780;9.164;21.979;16.764;9.015;2.943;1.229
3026888.025;23.916;17.136;21.569;28.647;25.481;13.411;7.078;4.023
3026888.033;36.657;29.728;33.677;43.325;42.021;12.778;6.855;2.794
3026888.041;50.738;36.620;48.578;55.693;51.595;14.976;11.288;4.061
3026888.049;64.932;51.148;61.020;69.514;57.407;13.262;11.474;3.353
3026888.057;77.039;80.653;69.700;87.693;57.854;16.242;14.640;6.333
3026888.065;76.331;79.200;67.987;88.178;62.436;15.199;12.703;5.811
3026888.073;75.884;71.861;69.886;90.487;63.591;14.044;11.362;5.886
3026888.081;73.649;67.167;70.184;82.515;65.342;15.646;13.150;8.531
3026888.089;63.516;63.665;56.885;79.945;54.203;17.621;14.268;12.256
3026888.097;57.667;58.748;50.180;74.282;48.243;19.893;15.125;16.987
3026888.105;42.729;38.408;34.571;53.011;35.986;17.025;12.293;14.044
3026888.128;38.557;28.573;32.969;41.164;34.906;12.554;9.537;10.319
3026888.136;41.053;29.765;36.694;49.174;37.029;10.841;9.872;8.196
3026888.144;34.235;21.197;30.771;42.096;29.914;7.525;8.829;4.545
3026888.152;34.533;26.338;28.424;40.904;22.762;12.293;14.305;7.972
3026888.160;30.473;21.979;25.369;31.441;24.326;11.176;12.703;6.519
3026888.168;27.716;14.082;25.071;28.349;30.436;5.402;5.662;3.688
3026888.176;22.724;8.047;17.360;31.777;26.189;4.396;3.502;3.800
3026888.184;19.222;9.984;14.342;30.547;20.564;6.519;6.706;3.055
3026888.192;15.944;2.682;12.480;22.389;17.323;5.215;7.786;-0.112
3026888.200;5.253;-8.605;2.794;7.786;9.462;2.049;3.614;-2.421
3026888.208;1.229;-11.027;-3.688;8.233;-1.527;2.794;2.980;0.671
3026888.216;-3.129;-12.480;-6.594;8.196;-5.364;1.155;1.937;-0.075
3026888.224;-5.476;-16.689;-8.978;0.373;-1.825;2.421;2.794;-0.224
3026888.232;3.390;-9.015;-2.496;8.680;4.545;13.039;12.331;8.754
3026888.240;5.439;-6.333;3.688;6.407;12.890;17.509;16.242;12.144
3026888.248;3.390;-5.923;0.224;9.313;7.004;16.838;17.062;8.568
3026888.256;0.373;-6.594;-2.682;13.188;-1.527;15.721;16.093;5.811
3026888.264;0.671;-10.543;-3.502;8.754;2.533;15.385;17.583;4.359
3026888.272;2.943;-9.388;-1.416;8.158;1.192;17.360;20.713;7.786
3026888.280;5.178;-5.141;0.335;14.789;-2.570;21.122;25.965;11.958
3026888.288;-0.596;-11.995;-2.868;9.984;-2.831;12.815;18.440;4.396
3026888.296;-7.637;-21.867;-7.413;2.794;2.533;4.880;10.133;-2.123
3026888.304;-11.958;-23.991;-13.486;-5.104;0.075;6.407;9.872;1.229
3026888.312;-19.558;-32.336;-21.122;-16.876;-9.723;5.215;8.009;1.080
3026888.309;-20.079;-33.192;-23.246;-11.809;-14.305;5.923;8.307;1.490
3026888.317;-12.740;-23.171;-16.429;1.937;-12.480;12.480;14.454;6.482
3026888.325;-14.044;-23.432;-14.491;-2.645;-12.629;9.090;10.505;2.012
3026888.333;-16.838;-28.946;-16.727;-10.431;-8.121;4.433;7.749;-2.123
3026888.341;-15.534;-24.214;-19.595;-2.049;-10.021;3.912;7.376;-2.906
3026888.349;-10.282;-17.509;-13.672;10.058;-6.184;7.302;8.903;0.298
3026888.357;-13.597;-20.787;-17.546;5.402;-9.313;9.052;10.133;2.496
3026888.365;-21.607;-31.628;-22.836;-10.654;-14.231;9.313;10.692;1.229
3026888.373;-24.959;-32.708;-25.667;-11.548;-21.420;7.451;10.431;-1.714
3026888.381;-17.807;-22.128;-20.675;-0.559;-9.499;10.803;13.858;0.894
3026888.389;-17.211;-24.550;-19.372;5.327;-13.746;9.798;10.878;2.980
3026888.397;-17.770;-26.450;-20.862;-5.364;-16.727;8.680;6.221;5.215
3026888.405;-13.635;-25.146;-17.434;-6.333;-5.886;9.649;5.253;7.078
3026888.413;-12.927;-22.538;-14.864;-1.080;-7.227;11.139;7.078;9.574
3026888.421;-12.927;-17.770;-14.789;5.141;-8.494;13.113;9.723;10.990
3026888.429;-17.881;-22.650;-20.526;0.969;-14.715;12.219;10.505;8.419
3026888.437;-16.242;-20.303;-19.483;-2.608;-17.136;11.921;11.139;6.035
3026888.445;-13.150;-19.632;-16.578;2.272;-14.193;8.419;7.264;0.708
3026888.453;-14.603;-21.867;-18.515;5.849;-7.041;4.619;4.433;-2.198
3026888.461;-13.374;-22.054;-14.380;6.482;-11.586;8.196;7.078;1.229
3026888.469;-14.231;-16.987;-14.901;0.708;-17.323;6.668;4.806;-1.006
3026888.477;-18.440;-24.587;-18.552;-7.153;-14.082;0.857;-0.559;-6.519
3026888.485;-27.046;-34.161;-25.928;-12.964;-13.635;-2.868;-5.029;-8.568
3026888.493;-28.200;-30.249;-27.008;-10.468;-16.242;0.298;-3.986;-4.731
3026888.490;-22.016;-27.381;-22.091;-7.376;-14.678;6.557;2.161;0.708
3026888.498;-24.959;-32.708;-25.220;-12.033;-19.372;4.657;1.118;-2.347
3026888.506;-25.630;-30.212;-22.911;-13.970;-20.899;1.080;-2.012;-6.817
3026888.514;-28.387;-33.304;-25.928;-21.830;-23.097;-2.123;-6.445;-9.984
3026888.522;-22.538;-28.089;-21.495;-11.437;-20.377;-0.633;-5.737;-9.127
3026888.530;-10.207;-16.727;-9.723;4.731;-3.353;6.519;2.198;-3.017
3026888.538;-13.635;-21.569;-14.752;3.986;-5.737;5.029;1.416;-5.141
3026888.546;-27.306;-28.200;-29.393;-10.207;-23.358;3.688;-0.484;-7.264
3026888.554;-30.771;-34.906;-32.932;-12.629;-23.358;6.035;1.490;-5.439
3026888.562;-15.534;-19.409;-18.291;0.484;-15.199;7.451;5.923;-6.333
3026888.570;-11.437;-11.474;-13.076;5.960;-13.821;10.654;10.729;-5.141
3026888.578;-15.944;-18.291;-15.423;1.527;-9.090;10.654;8.084;-4.768
3026888.586;-21.793;-27.679;-22.948;-7.339;-14.231;7.525;3.688;-4.545
3026888.594;-22.762;-31.888;-23.805;-17.025;-24.848;7.190;2.123;-2.794
3026888.602;-18.328;-23.879;-17.658;-7.786;-20.266;7.786;3.316;-3.278
3026888.610;-15.125;-15.311;-16.876;-0.671;-17.546;9.798;7.376;-3.986
3026888.618;-18.664;-17.509;-20.452;-3.912;-18.403;7.339;4.433;-8.121
3026888.626;-14.901;-20.005;-12.927;-5.960;-9.015;11.660;7.525;-4.992
3026888.634;-10.841;-19.036;-7.488;-8.307;-5.215;17.546;12.964;0.112
3026888.642;-11.511;-18.179;-7.600;-7.451;-3.092;15.050;11.511;-0.782
3026888.650;-10.282;-14.678;-7.264;-2.496;-4.470;15.385;12.219;1.788
3026888.658;-9.798;-12.107;-9.127;-1.229;-6.855;12.442;10.058;0.037
3026888.666;-14.342;-18.664;-14.082;-11.735;-17.397;8.121;5.029;-3.129
3026888.674;-16.056;-20.824;-16.727;-7.786;-14.007;8.978;4.880;-1.490
3026888.685;-10.729;-13.746;-9.350;-1.490;-7.525;9.276;6.780;-3.017
3026888.693;-5.960;-11.846;-3.614;3.837;-5.066;9.798;9.537;-1.043
3026888.701;-8.680;-14.789;-7.674;0.261;-13.486;4.396;5.774;-4.806
3026888.709;-5.402;-10.096;-5.849;-2.831;-7.302;4.284;6.557;-4.247
3026888.717;-0.037;-4.061;-0.596;9.201;1.043;9.015;9.611;1.788
3026888.725;-7.227;-8.382;-4.843;5.737;-0.782;1.751;-1.527;-3.241
3026888.733;-8.531;-12.629;-6.631;0.112;-2.831;4.768;0.633;-1.229
3026888.741;-8.717;-13.970;-5.625;-5.029;-6.594;0.931;-0.596;-5.513
3026888.749;-7.898;-11.809;-3.465;-6.631;-9.611;-4.023;-0.075;-11.250
3026888.757;-10.431;-13.001;-8.643;-4.992;-13.411;-8.121;-1.676;-13.448
3026888.765;-16.429;-22.613;-14.417;-14.491;-17.434;-10.207;-4.135;-11.511
3026888.773;-17.174;-18.924;-15.981;-10.990;-18.477;-11.325;-4.023;-8.829
3026888.781;-14.864;-18.291;-14.305;-10.543;-17.136;-11.995;-3.502;-8.792
3026888.789;-8.978;-12.331;-7.711;-5.737;-10.282;-9.649;-2.012;-8.196
3026888.797;-3.539;-8.307;-2.012;-5.960;-1.006;-4.023;1.527;-6.072
3026888.805;-2.719;-7.339;-0.931;-3.725;-3.017;1.378;4.470;-6.221
3026888.813;0.298;-4.247;3.465;0.261;-3.390;7.264;8.717;-4.321
3026888.821;0.745;-4.247;7.264;0.037;6.780;12.070;10.617;0.224
3026888.829;-2.272;-5.066;4.508;0.522;6.035;14.305;11.586;5.774
3026888.837;-7.153;-11.660;-2.161;-10.319;-0.075;9.462;8.643;1.937
3026888.845;-5.960;-10.766;-2.123;-9.686;-5.364;3.800;5.700;-5.215
3026888.853;3.241;-2.272;6.333;-0.149;-1.229;7.115;9.723;-1.043
3026888.861;1.080;-5.327;4.396;-4.098;6.147;6.892;7.823;0.969
3026888.869;-2.310;-4.433;3.576;-8.941;1.043;4.359;3.204;-0.112
3026888.892;0.559;-3.316;8.121;-8.568;2.459;7.786;7.190;3.539
3026888.900;-0.149;-7.264;7.935;-11.362;4.917;7.525;8.494;3.129
3026888.908;0.149;-6.631;8.941;-9.723;10.952;8.270;9.537;3.912
3026888.916;-2.645;-4.135;5.178;-4.917;4.768;8.307;6.258;2.235
3026888.924;-1.304;0.671;5.923;-1.751;6.743;12.815;8.456;5.178
3026888.932;-3.614;-3.278;1.937;-9.164;5.178;15.758;11.660;9.015
3026888.940;-9.760;-14.044;-1.714;-20.005;-3.949;9.388;6.855;3.651
3026888.948;-2.198;-3.614;7.562;-8.978;2.868;5.029;5.402;-1.751
3026888.956;5.476;5.811;13.486;3.651;10.021;6.482;9.462;-1.267
3026888.964;2.012;2.421;8.605;-1.714;7.264;1.825;5.588;-5.029
3026888.972;-3.800;-0.969;3.763;-9.947;-1.788;-1.378;1.341;-5.215
3026888.980;-6.557;-5.364;2.719;-17.583;-3.502;-1.937;-0.894;-4.545
3026888.988;-5.178;-6.482;5.513;-23.991;1.863;2.086;1.080;-0.484
3026888.996;-8.680;-5.886;-0.484;-19.483;-0.484;5.774;2.421;0.447
3026889.004;-6.221;-3.800;1.043;-13.113;-4.284;9.649;5.588;2.347
3026889.012;-6.482;-4.694;3.986;-16.280;-2.161;12.144;6.109;3.651
3026889.020;-6.109;-7.115;5.662;-25.593;4.247;12.629;6.407;3.725
3026889.028;-9.984;-9.686;0.410;-27.381;-0.298;13.150;7.376;4.247
3026889.036;-11.735;-11.995;-0.969;-23.805;-2.012;13.262;9.127;4.582
3026889.044;-10.654;-8.754;0.596;-20.377;-8.456;11.399;8.419;3.725
3026889.052;-11.735;-7.674;-1.341;-19.558;-5.811;4.247;2.086;-1.900
3026889.060;-11.325;-11.362;-0.075;-28.685;1.118;0.149;-2.868;-4.284
3026889.068;-5.178;-8.009;6.668;-21.011;2.086;5.998;1.118;0.857
3026889.076;-2.421;-0.484;8.605;-10.431;1.490;8.866;2.049;4.843
3026889.075;4.582;7.488;16.093;-9.984;12.964;9.835;2.384;5.290
3026889.083;8.568;11.399;18.589;-11.362;11.288;11.474;4.768;5.625
3026889.091;6.035;6.333;17.360;-14.044;7.860;9.201;3.353;-0.447
3026889.099;11.511;13.448;22.240;-5.402;11.064;9.313;5.662;-1.751
3026889.107;8.158;10.133;20.973;-4.359;11.288;6.072;4.396;-5.923
3026889.115;2.123;-0.335;17.434;-18.775;13.672;1.267;0.410;-11.399
3026889.123;-3.278;-3.539;10.952;-26.412;4.992;0.782;0.633;-9.388
3026889.131;-3.576;0.261;10.356;-25.146;2.086;2.123;0.484;-5.625
3026889.139;0.224;4.955;13.076;-11.548;4.172;3.055;0.149;-4.023
3026889.147;2.757;7.525;14.938;-7.451;8.792;6.817;2.123;-0.186
3026889.155;4.433;7.376;13.560;-9.462;7.078;12.591;7.413;2.347
3026889.163;8.307;12.480;16.391;-1.118;3.539;15.013;11.958;2.272
3026889.171;11.846;19.260;21.979;8.978;13.262;18.179;15.274;4.061
3026889.179;16.503;27.046;27.157;17.807;20.228;19.632;17.136;5.104
3026889.187;13.709;22.538;24.997;8.941;18.254;17.956;12.703;3.614
3026889.195;10.505;16.056;20.452;2.980;11.772;18.738;11.139;4.955
3026889.203;3.502;7.153;14.603;-10.990;5.625;23.730;16.168;9.499
3026889.211;-5.253;-0.857;7.302;-14.082;2.123;21.793;14.938;8.084
3026889.219;-7.637;-2.608;5.327;-13.039;-0.820;24.624;19.297;11.250
3026889.227;2.980;8.717;17.099;-5.104;12.703;26.003;23.395;10.543
3026889.235;11.437;15.721;27.381;1.192;13.821;23.432;22.687;6.519
3026889.243;12.666;15.348;27.902;-5.811;11.474;18.775;17.434;2.459
3026889.251;13.262;15.385;27.642;-8.531;18.701;16.764;13.486;2.086
3026889.259;11.437;10.431;24.401;-2.645;13.374;17.658;13.486;4.061
3026889.269;11.958;14.529;25.928;-0.745;14.044;25.146;19.968;10.878
3026889.277;8.717;15.497;21.458;-5.551;18.738;25.518;17.919;12.033
3026889.285;8.643;16.391;21.718;-3.576;13.299;29.728;21.383;16.429
3026889.293;6.072;12.331;20.564;-3.017;8.121;27.269;21.495;13.933
3026889.301;3.763;7.600;17.658;0.745;10.841;24.997;20.750;11.213
3026889.309;-0.633;0.633;15.125;-9.574;1.304;22.203;21.160;7.674
3026889.317;4.619;7.153;21.979;-10.319;9.574;20.675;22.314;6.109
3026889.325;15.497;20.973;30.398;-0.373;26.226;18.738;23.916;3.129
3026889.333;20.936;23.134;34.422;6.184;29.616;14.305;22.501;-1.527
3026889.341;20.638;23.246;35.353;5.215;26.226;12.890;21.681;0.484
3026889.349;16.801;21.644;34.198;0.745;21.383;18.701;25.257;9.164
3026889.357;9.350;13.486;25.593;-5.402;13.039;26.971;29.281;17.174
3026889.365;6.706;10.692;19.558;-4.247;8.866;36.918;34.645;26.524
3026889.373;5.029;11.250;17.919;-5.029;9.350;35.912;32.037;27.567
3026889.381;-3.949;4.582;8.419;-8.270;-3.092;28.163;23.320;22.165
3026889.389;-4.694;3.017;10.096;-6.780;2.608;27.455;24.550;22.128
3026889.397;0.037;9.798;12.927;-2.161;14.491;23.879;27.195;17.174
3026889.405;4.135;12.703;18.552;1.974;13.113;20.303;29.877;10.543
3026889.413;12.778;17.472;27.791;6.519;17.434;20.079;32.037;7.451
3026889.421;23.395;30.734;36.843;16.466;29.653;20.899;32.112;10.170
3026889.429;22.501;30.771;34.794;11.809;24.587;18.030;25.518;11.474
3026889.437;17.695;26.450;28.387;12.256;18.142;16.168;18.999;13.374
3026889.445;12.442;18.850;20.266;8.196;9.164;21.458;19.632;19.185
3026889.453;10.431;15.460;19.446;3.278;5.998;27.642;24.475;23.544
3026889.449;9.649;16.391;18.924;2.645;10.580;32.708;31.590;23.618
3026889.457;3.874;10.021;11.511;-3.278;4.843;32.485;32.708;19.372
3026889.465;5.215;11.511;12.815;-1.378;5.290;34.086;34.235;21.048
3026889.473;8.233;15.944;15.758;3.949;9.723;37.029;39.153;23.432
3026889.481;5.923;16.615;14.193;3.800;8.009;34.496;39.414;20.005
3026889.489;7.786;12.890;15.162;4.247;6.258;34.347;41.351;21.011
3026889.497;9.909;15.236;19.483;8.643;15.497;32.820;39.451;20.564
3026889.505;8.158;14.380;18.068;4.359;8.643;27.716;33.192;18.105
3026889.513;6.668;15.162;17.025;4.247;7.637;20.042;23.469;14.380
3026889.521;16.354;18.999;26.114;9.164;23.022;15.646;17.025;12.629
3026889.529;16.093;19.372;25.295;7.674;21.346;15.721;15.087;13.411
3026889.537;13.746;16.205;23.730;6.445;15.795;21.979;18.701;18.142
3026889.545;20.117;22.799;27.716;12.517;22.464;23.842;21.830;19.260
3026889.553;23.171;25.108;30.659;16.689;25.779;22.613;24.587;16.578
3026889.561;22.464;25.406;31.181;19.073;21.756;22.240;27.344;14.156
3026889.569;22.389;28.126;29.542;15.125;17.211;22.538;30.063;13.858
3026889.577;18.440;22.650;25.555;8.158;14.529;21.681;28.685;13.188
3026889.585;16.578;22.352;24.550;16.652;17.323;20.266;24.587;14.342
3026889.593;15.981;19.334;25.406;15.050;21.905;20.079;22.575;14.082
3026889.601;8.866;9.798;18.440;5.029;25.183;12.033;15.050;5.588
3026889.609;2.533;5.513;12.740;-1.453;12.778;11.064;13.448;5.700
3026889.617;0.112;5.923;11.623;-2.645;1.900;13.746;14.380;9.425
3026889.625;2.980;10.356;12.293;7.562;5.215;14.342;14.491;11.027
3026889.633;9.090;12.144;20.005;9.015;13.374;16.838;17.472;14.603
3026889.645;7.153;6.817;18.626;0.447;12.964;17.062;17.323;13.709
3026889.653;5.290;6.966;15.944;0.745;8.196;14.342;16.764;7.823
3026889.661;9.388;15.572;20.154;12.033;19.222;8.270;13.411;0.633
3026889.669;13.262;14.491;24.214;12.703;21.867;5.960;11.809;-1.192
3026889.677;14.380;14.529;25.481;10.207;22.389;10.058;14.231;2.310
3026889.685;10.766;12.033;21.756;2.496;20.601;12.219;14.827;4.247
3026889.693;9.723;14.305;20.452;15.050;17.509;13.113;15.050;5.886
3026889.701;12.442;20.042;23.246;17.919;16.578;7.600;10.133;-1.416
3026889.709;9.462;11.288;21.569;1.900;4.582;2.272;4.433;-7.860
3026889.717;5.923;6.929;17.397;-7.004;14.305;2.198;2.235;-6.445
3026889.725;4.880;8.792;19.819;3.390;23.134;3.651;0.373;-2.943
3026889.733;6.706;12.703;20.005;13.560;17.174;6.743;1.565;1.602
3026889.741;3.651;8.568;15.385;3.204;12.331;9.537;5.327;4.657
3026889.749;4.321;6.966;17.211;0.112;7.339;13.784;10.654;6.855
3026889.757;10.505;16.578;23.134;9.723;16.131;18.366;17.174;7.637
3026889.765;11.511;15.683;23.581;14.827;18.217;17.397;16.727;4.582
3026889.773;12.554;17.881;23.209;16.354;12.927;15.274;15.981;2.794
3026889.781;8.121;10.952;19.744;10.021;8.307;9.499;9.574;-0.522
3026889.789;10.394;10.766;21.458;11.139;13.188;5.290;3.204;-1.788
3026889.797;12.554;15.162;23.805;11.027;23.022;-0.075;-3.129;-6.109
3026889.805;10.915;12.666;23.134;8.978;18.850;-3.241;-6.333;-9.909
3026889.813;10.282;10.431;22.650;7.041;14.976;4.917;0.000;-2.198
3026889.821;7.488;11.437;17.919;5.439;11.623;12.517;4.768;4.657
3026889.829;10.841;13.523;21.569;8.382;15.572;21.867;12.442;13.225
3026889.853;16.764;18.738;29.169;13.709;23.060;26.226;17.621;16.764
3026889.861;20.191;21.420;34.198;21.011;24.214;25.108;18.887;13.374
3026889.869;24.028;21.942;36.173;23.097;30.734;25.481;22.873;10.207
3026889.877;20.117;20.862;32.075;14.491;19.297;18.552;18.217;1.267
3026889.885;18.850;19.260;29.877;12.703;23.134;13.486;15.646;-1.565
3026889.893;20.973;21.346;32.298;17.360;22.240;9.499;11.809;-1.155
3026889.901;20.042;23.618;33.937;20.675;26.524;6.072;5.998;-0.447
3026889.909;20.266;22.314;35.129;18.105;25.108;6.706;5.066;2.384
3026889.917;21.011;19.334;36.359;13.448;27.120;11.548;8.829;7.302
3026889.925;17.323;13.635;30.212;9.201;20.228;14.454;11.064;10.580
3026889.933;12.219;10.692;22.501;4.172;10.505;14.231;10.245;10.021
3026889.941;11.288;13.039;24.661;9.015;12.778;11.064;7.302;6.668
3026889.949;15.907;14.603;30.026;7.376;23.879;10.915;7.972;6.407
3026889.957;19.856;19.632;33.341;12.405;23.991;7.674;8.009;2.570
3026889.965;22.948;25.369;33.826;18.813;22.389;2.421;7.339;-2.161
3026889.973;21.122;23.432;30.957;22.314;25.816;-8.456;-0.112;-9.052
3026889.981;14.976;13.933;22.016;11.884;18.589;-19.446;-10.505;-15.460
3026889.989;13.225;11.437;22.203;2.235;12.368;-19.930;-11.846;-12.144
3026889.997;15.870;15.162;26.003;8.568;7.376;-10.505;-5.551;-2.868
3026890.005;18.664;20.228;29.951;16.131;19.260;-1.155;0.335;4.955
3026890.013;14.007;11.772;24.252;8.456;18.030;1.788;0.298;6.557
3026890.021;1.453;-1.267;12.554;-7.525;9.537;1.527;-2.161;5.215
3026890.029;1.937;2.980;10.505;-3.912;4.396;3.725;1.155;6.221
3026890.037;5.513;4.545;17.248;-1.788;13.337;3.129;3.539;3.092
3026890.036;10.803;7.562;23.469;2.608;15.497;-2.384;1.714;-3.465
3026890.044;11.213;11.064;22.426;5.476;13.039;-9.276;-3.055;-10.245
3026890.052;4.321;3.241;15.646;-3.949;8.009;-17.285;-11.176;-16.503
3026890.060;6.072;5.476;14.752;-1.937;3.688;-14.752;-9.499;-11.809
3026890.068;5.998;1.043;13.784;-7.004;-1.453;-11.623;-7.153;-6.668
3026890.076;0.112;-6.184;12.778;-8.680;3.651;-8.829;-4.694;-3.166
3026890.084;2.272;1.751;15.162;-5.551;10.021;1.378;3.912;3.688
3026890.092;1.416;-1.080;10.021;-6.370;5.662;6.817;7.637;3.465
3026890.100;-3.725;-8.792;4.694;-9.052;-0.782;12.964;12.890;5.737
3026890.108;-7.860;-11.027;4.880;-11.139;-4.210;11.437;11.064;4.508
3026890.116;-3.465;-2.570;7.227;-4.880;0.745;8.456;8.568;3.278
3026890.124;0.559;-0.447;12.591;-1.751;4.992;8.419;9.947;4.508
3026890.132;0.522;-1.676;12.815;-2.272;3.949;2.235;5.998;0.075
3026890.140;0.335;-4.992;10.692;-5.402;-0.894;-2.533;3.427;-2.608
3026890.148;0.373;-2.943;11.139;-3.390;3.241;-3.986;1.267;-1.602
3026890.156;-1.192;-1.676;10.058;-7.600;6.333;-2.012;0.857;3.055
3026890.164;-5.029;-7.041;4.359;-11.846;2.198;-0.037;0.745;3.912
3026890.172;-6.668;-9.947;2.347;-11.027;-5.737;5.066;3.465;6.668
3026890.180;-4.545;-6.706;5.737;-7.637;-4.545;14.342;10.803;12.256
3026890.188;-3.166;-4.172;7.674;-5.998;-4.172;17.993;15.050;12.666
3026890.196;-5.998;-4.694;4.247;-4.657;-5.178;11.735;12.033;4.694
3026890.204;-7.153;-8.717;1.304;-6.706;-1.267;1.937;6.109;-4.545
3026890.212;-9.611;-8.978;-1.006;-7.898;-2.794;-6.557;-1.080;-7.898
3026890.220;-10.021;-8.382;-1.192;-10.207;-7.786;-13.113;-7.339;-8.680
3026890.229;-10.841;-12.480;-1.043;-17.546;-11.995;-13.262;-9.313;-5.588
3026890.237;-11.250;-12.293;-0.969;-15.013;-10.617;-10.654;-7.637;-1.341
3026890.245;-10.841;-15.162;-0.186;-10.990;-3.241;-7.227;-5.625;2.198
3026890.253;-10.692;-10.505;-0.112;-11.846;-5.998;-3.837;-2.459;2.421
3026890.261;-7.227;-6.929;3.874;-10.431;-3.465;0.484;3.651;2.123
3026890.269;-9.760;-11.809;1.565;-9.909;-3.539;-1.565;2.123;-2.533
3026890.277;-11.176;-14.417;-1.006;-9.276;-4.061;-5.327;-2.943;-7.041
3026890.285;-12.107;-12.852;-1.527;-9.649;-6.109;-7.264;-5.253;-10.654
3026890.293;-14.380;-14.193;-4.508;-8.158;-9.127;-8.233;-3.129;-12.740
3026890.301;-12.890;-11.958;-4.247;-14.715;-11.213;-7.153;1.043;-14.082
3026890.309;-9.611;-7.413;-1.565;-10.021;-9.015;-5.029;2.943;-10.803
3026890.317;-13.858;-15.013;-7.339;-10.729;-12.331;-8.792;-3.055;-9.127
3026890.325;-20.228;-26.263;-11.548;-26.003;-17.472;-11.176;-8.903;-6.706
3026890.333;-21.756;-25.630;-12.256;-27.604;-13.523;-7.525;-9.127;-2.421
3026890.341;-17.658;-16.056;-10.319;-12.815;-19.073;-1.937;-6.631;1.676
3026890.349;-16.168;-15.199;-9.649;-9.090;-15.311;-1.043;-6.706;0.000
3026890.357;-9.127;-11.362;-4.545;-10.952;-11.809;-2.310;-5.588;-2.533
3026890.365;-8.084;-10.952;-3.465;-9.090;-7.488;-3.465;-4.992;-5.364
3026890.373;-8.754;-9.164;-2.049;-5.476;-7.004;-5.774;-6.780;-8.643
3026890.381;-3.390;-4.992;2.682;1.751;-6.296;-3.800;-3.316;-7.749
3026890.389;-5.923;-7.041;0.969;-3.241;-6.035;-6.445;-4.768;-11.176
3026890.397;-6.519;-7.488;0.559;-8.903;-5.886;-5.923;-4.284;-10.207
3026890.405;-8.717;-10.803;-2.347;-8.196;-9.350;-3.651;-1.825;-5.141
3026890.413;-11.846;-13.374;-3.427;-10.394;-11.362;-6.855;-5.551;-6.296
3026890.430;-10.952;-14.789;-1.676;-13.523;-11.139;-8.903;-7.451;-8.643
3026890.438;-7.823;-7.637;0.894;-7.972;-5.066;-3.874;-3.837;-5.849
3026890.446;-8.233;-7.264;-0.596;-8.345;-11.399;-1.714;-3.166;-4.843
3026890.454;-10.058;-9.201;-1.788;-5.029;-11.921;-1.714;-3.166;-6.258
3026890.462;-7.376;-8.754;1.080;1.043;-11.995;2.608;1.974;-4.098
3026890.470;-4.396;-8.009;3.241;-3.912;-4.992;2.198;2.384;-5.327
3026890.478;-4.098;-4.545;4.210;-3.055;-5.476;-2.235;1.304;-10.021
3026890.486;-1.080;1.676;5.029;3.502;-7.115;-6.966;2.123;-14.156
3026890.494;3.390;2.384;8.158;8.680;-9.090;-6.966;5.737;-12.554
3026890.502;-0.671;-2.198;7.302;-0.857;-8.158;-11.139;1.267;-13.560
3026890.510;1.080;1.267;7.413;0.894;1.937;-9.835;0.298;-9.984
3026890.518;8.382;8.121;12.368;9.015;3.166;-1.304;6.482;-1.751
3026890.526;9.350;6.743;14.640;3.800;-7.227;1.937;6.743;1.863
3026890.534;9.947;9.462;16.801;1.825;2.570;1.974;5.439;4.061
3026890.542;7.749;7.041;13.225;2.310;7.711;-0.335;3.614;3.316
3026890.550;5.588;2.235;10.133;2.682;-1.676;-1.006;4.582;1.974
3026890.558;4.359;2.682;10.878;3.576;-3.502;-4.657;3.465;-3.539
3026890.566;6.892;6.333;11.884;5.327;-2.831;-8.084;4.917;-5.774
3026890.574;4.694;1.527;11.250;1.155;-1.229;-11.586;3.800;-6.445
3026890.582;2.459;-1.192;8.829;-4.619;-7.190;-11.474;4.545;-4.582
3026890.590;8.345;7.786;14.044;5.625;0.298;-8.866;6.631;-2.384
3026890.598;7.525;6.706;13.113;5.811;-1.714;-10.692;2.421;-3.874
3026890.606;3.278;2.757;7.376;0.708;-6.631;-9.388;0.522;-1.267
3026890.614;-1.490;-4.806;3.763;-8.196;-5.923;-9.090;-2.831;0.000
3026890.605;-1.453;-6.519;4.284;-10.021;-6.258;-8.456;-5.364;0.782
3026890.613;1.341;-3.614;6.296;-5.253;-2.421;-5.104;-3.874;3.651
3026890.621;-3.763;-6.370;2.794;-9.350;-5.625;-7.004;-4.210;1.155
3026890.629;-0.894;-6.594;5.215;-9.052;-7.190;-7.004;-0.671;0.782
3026890.637;1.751;-0.857;8.494;-6.072;-1.900;-8.754;1.155;-0.782
3026890.645;-0.559;-3.465;5.998;-11.995;-7.972;-13.933;-3.129;-4.135
3026890.653;3.576;1.974;8.941;-4.210;-2.310;-11.101;0.000;-1.080
3026890.661;5.476;7.264;11.623;5.700;5.439;-9.798;1.788;-0.149
3026890.669;6.817;5.104;13.113;1.900;5.402;-14.715;-2.943;-4.284
3026890.677;9.686;8.345;15.423;2.757;4.955;-17.807;-5.960;-7.935
3026890.685;6.072;5.141;12.852;1.006;-3.539;-20.191;-10.207;-10.505
3026890.693;0.559;0.373;6.258;-0.894;-1.229;-17.434;-9.909;-7.264
3026890.701;-4.880;-5.364;-0.596;-6.892;-8.307;-12.554;-7.637;-1.006
3026890.709;-5.849;-8.158;-1.676;-9.649;-7.451;-12.480;-9.537;0.447
3026890.717;-0.261;-4.694;4.508;-7.935;-1.155;-14.305;-10.654;-1.341
3026890.725;5.886;4.359;10.617;1.118;5.811;-16.876;-10.878;-4.508
3026890.733;9.015;8.978;12.256;7.488;3.651;-19.036;-8.084;-7.004
3026890.741;8.084;5.700;11.846;6.445;1.192;-24.214;-9.052;-13.784
3026890.749;8.196;3.837;11.511;0.149;5.998;-29.057;-12.815;-18.403
3026890.757;11.846;11.958;15.311;9.760;6.817;-25.928;-11.809;-15.311
3026890.765;11.846;13.039;14.566;15.423;4.396;-21.197;-10.319;-11.474
3026890.773;9.686;8.345;11.884;8.121;2.496;-15.423;-8.233;-5.476
3026890.781;5.960;3.874;7.935;2.310;0.969;-12.331;-7.004;-2.757
3026890.789;7.004;1.006;10.803;-3.241;5.588;-10.580;-6.855;0.075
3026890.815;12.740;7.674;14.640;8.419;10.654;-10.058;-6.109;3.427
3026890.823;15.199;13.188;17.434;12.256;10.133;-14.976;-10.468;-0.224
3026890.831;15.348;12.144;17.844;8.643;7.115;-17.807;-11.399;-5.662
3026890.839;11.250;8.233;12.852;9.239;2.049;-24.699;-15.534;-16.466
3026890.847;11.288;10.319;12.368;12.927;4.843;-27.753;-17.732;-21.495
3026890.855;18.254;16.168;19.409;18.962;20.042;-19.930;-9.574;-16.093
3026890.863;18.962;19.185;21.011;18.254;16.056;-14.491;-3.204;-12.740
3026890.871;17.434;19.670;18.738;15.460;-0.857;-7.451;3.651;-6.817
3026890.879;17.807;18.291;17.956;21.160;-3.278;-0.894;7.562;0.671
3026890.887;17.844;17.583;17.248;19.893;5.104;-4.508;2.421;0.522
3026890.895;18.403;17.099;20.340;14.119;15.534;-9.276;-3.576;-1.863
3026890.903;18.850;16.578;21.085;16.391;14.044;-12.182;-8.568;-4.210
3026890.911;16.689;18.291;18.738;15.013;8.866;-15.087;-13.486;-7.153
3026890.919;9.127;9.127;12.107;4.880;5.439;-17.732;-17.732;-11.139
3026890.927;11.474;10.207;13.188;8.568;2.794;-14.640;-14.491;-9.015
3026890.935;15.050;13.709;16.801;13.933;1.974;-15.944;-15.050;-9.984
3026890.943;18.850;13.448;20.266;15.460;11.213;-19.930;-17.099;-15.087
3026890.951;22.836;21.197;23.209;17.956;20.303;-15.497;-9.611;-12.480
3026890.959;19.334;18.962;21.942;8.978;12.405;-12.591;-4.508;-9.686
3026890.967;13.374;9.723;15.907;12.219;6.333;-8.568;-1.900;-5.364
3026890.975;9.239;6.631;10.543;9.537;2.608;-7.041;-3.278;-3.614
3026890.983;7.413;3.427;8.717;4.619;-1.453;-6.370;-5.253;-3.017
3026890.991;7.525;4.023;8.754;3.502;-1.043;-4.247;-3.800;-1.416
3026890.999;2.161;3.502;2.161;5.066;-4.508;-5.439;-5.513;-3.725
3026890.994;3.278;4.917;5.439;7.935;-3.353;-1.937;-0.969;-0.708
3026891.002;4.806;4.917;6.855;7.749;0.037;-0.633;2.347;-1.900
3026891.010;6.184;4.582;7.376;5.104;-4.172;-6.557;-0.596;-10.654
3026891.018;14.044;10.729;14.789;18.403;2.757;-14.044;-4.768;-19.521
3026891.026;23.134;22.836;22.165;27.977;16.540;-15.795;-7.227;-22.575
3026891.034;19.893;20.526;21.569;22.314;15.721;-13.262;-8.270;-18.328
3026891.042;8.270;6.557;12.070;3.502;-0.261;-6.929;-5.029;-8.605
3026891.050;2.459;-0.484;4.917;-1.565;-10.133;2.459;2.533;3.316
3026891.058;-1.937;-7.153;0.224;-6.221;-12.890;12.591;11.064;14.268
3026891.066;-4.470;-13.076;-0.149;-15.572;-10.729;14.417;13.337;14.640
3026891.074;5.327;-1.937;8.792;-4.321;-4.843;16.429;14.789;12.815
3026891.082;14.268;13.970;14.752;8.270;-0.931;22.687;20.079;16.689
3026891.090;14.640;16.876;13.970;12.368;0.931;25.555;21.718;19.819
3026891.098;24.065;22.724;22.128;22.277;9.835;25.034;21.793;18.366
3026891.106;26.040;21.271;25.295;19.968;7.972;13.858;13.970;5.513
3026891.114;24.438;19.334;25.667;15.385;3.651;6.296;9.052;1.378
3026891.122;20.303;15.981;21.979;10.990;9.649;2.086;5.774;0.931
3026891.130;16.429;9.835;18.887;5.104;7.637;1.602;4.023;2.719
3026891.138;14.454;9.649;15.385;7.451;5.253;4.843;7.488;7.786
3026891.146;14.827;9.313;17.248;4.396;5.998;11.362;14.193;14.529
3026891.154;14.380;8.047;16.466;0.186;4.508;19.334;21.532;23.022
3026891.162;14.380;7.004;15.274;2.906;-0.112;23.507;24.699;25.257
3026891.170;13.784;7.004;13.523;5.439;-7.860;22.538;23.432;22.687
3026891.178;15.907;13.299;14.715;15.609;-5.104;14.789;17.658;16.503
3026891.189;20.899;15.199;19.483;15.236;13.597;9.015;15.013;11.511
3026891.197;25.444;22.277;25.630;14.119;14.715;3.986;14.231;7.078
3026891.205;27.604;25.854;28.536;24.289;11.213;-0.447;12.927;2.310
3026891.213;21.122;17.844;19.930;23.954;5.290;-5.029;8.307;-3.688
3026891.221;20.713;16.727;18.552;20.675;12.666;-0.820;11.735;0.782
3026891.229;16.280;11.586;15.125;11.399;7.972;5.141;15.907;8.605
3026891.237;8.754;6.147;9.537;7.637;-3.017;9.835;17.285;15.050
3026891.245;1.155;-1.974;4.582;0.894;-2.012;14.678;19.521;18.626
3026891.253;-5.513;-8.009;-1.676;-8.754;-11.623;16.540;21.160;19.185
3026891.261;1.676;0.559;3.763;0.559;-4.098;18.552;23.209;20.862
3026891.269;11.437;6.482;14.193;9.798;5.588;18.738;23.246;20.824
3026891.277;14.678;12.219;17.099;14.380;10.394;8.307;14.454;11.809
3026891.285;19.409;17.956;19.707;17.323;7.413;-1.602;7.190;4.135
3026891.293;19.558;15.944;20.228;17.472;7.600;-7.451;1.900;-1.118
3026891.301;18.701;12.927;21.793;12.852;9.052;-4.806;2.868;2.086
3026891.309;13.486;12.144;15.944;11.921;8.829;-0.447;5.178;7.525
3026891.317;7.749;8.419;6.929;9.201;1.974;3.427;7.674;11.958
3026891.325;1.974;-1.565;3.204;-1.118;-1.155;9.350;12.480;17.248
3026891.333;-0.447;-6.482;1.453;-0.745;0.671;11.548;14.454;18.626
3026891.341;3.353;-0.633;5.066;3.278;1.341;14.305;20.005;20.377
3026891.349;4.545;0.894;8.829;1.267;1.565;12.852;19.856;17.732
3026891.357;8.829;6.333;11.399;5.141;5.960;7.264;15.758;14.082
3026891.365;13.597;14.566;14.491;14.603;9.239;4.917;11.735;13.374
3026891.373;17.174;14.715;16.689;15.534;9.947;3.986;9.425;13.970
3026891.370;15.534;7.749;13.374;13.001;7.898;1.267;5.923;13.448
3026891.378;11.139;4.321;10.133;4.284;6.333;-4.284;0.335;8.009
3026891.386;9.499;4.657;10.319;0.037;10.654;-5.476;-2.161;8.270
3026891.394;12.554;11.958;12.331;9.723;7.376;-2.757;0.075;11.586
3026891.402;11.139;6.184;10.394;9.835;7.041;-4.731;-3.278;7.898
3026891.410;11.139;2.384;9.537;9.015;9.239;-0.671;1.453;9.350
3026891.418;5.439;-0.969;3.502;-1.863;-5.923;-0.484;3.353;7.823
3026891.426;5.588;4.359;3.837;7.302;-4.135;-4.210;1.602;3.539
3026891.434;9.462;7.972;6.035;12.331;10.915;-7.413;0.112;0.149
3026891.442;11.064;6.109;9.760;11.809;6.519;-7.190;-1.229;-0.335
3026891.450;11.437;7.674;8.456;10.580;2.719;-6.445;-3.465;0.857
3026891.458;9.201;3.390;6.221;8.419;2.980;-4.917;-3.204;3.017
3026891.466;4.135;1.378;0.782;7.525;-3.986;-6.780;-6.221;3.204
3026891.474;-0.224;-2.906;-2.570;-2.570;-7.004;-6.855;-7.339;4.880
3026891.482;2.757;-1.937;0.633;-2.384;1.192;-4.135;-3.576;6.296
3026891.490;4.508;-0.075;3.725;2.421;1.602;-0.559;1.937;8.866
3026891.498;0.782;-4.210;-0.335;2.533;-4.917;1.229;3.986;8.121
3026891.506;0.745;-1.565;-2.421;3.912;-8.158;4.135;6.557;9.313
3026891.514;3.800;2.347;1.714;-3.427;-3.390;8.009;9.947;12.182
3026891.522;-3.241;-3.725;-4.657;-7.488;-8.717;3.427;4.061;7.190
3026891.530;-3.017;-3.837;-4.917;-2.868;-7.935;-0.857;0.969;4.061
3026891.538;-6.147;-5.290;-8.717;-5.253;-11.176;-12.927;-10.617;-6.743
3026891.546;-8.605;-9.462;-10.878;-11.586;-16.987;-17.248;-16.578;-10.319
3026891.554;-11.027;-11.362;-12.927;-15.199;-17.546;-16.764;-15.572;-9.462
3026891.565;-16.689;-12.480;-20.266;-11.772;-30.473;-18.962;-17.397;-9.909
3026891.573;-18.105;-15.087;-20.564;-10.543;-28.722;-13.374;-12.815;-4.247
3026891.581;-19.260;-18.105;-17.993;-20.303;-23.805;-11.213;-12.144;-2.533
3026891.589;-15.572;-16.317;-15.236;-16.503;-16.578;-12.740;-14.715;-4.768
3026891.597;-15.423;-18.068;-15.497;-16.876;-19.483;-14.082;-16.131;-7.898
3026891.605;-19.893;-18.179;-16.987;-20.601;-26.599;-18.328;-20.564;-12.219
3026891.613;-18.440;-17.174;-16.913;-16.652;-28.685;-18.999;-19.707;-13.672
3026891.621;-24.438;-23.991;-22.352;-22.240;-25.034;-19.744;-20.191;-16.056
3026891.629;-25.332;-26.152;-24.252;-27.604;-26.338;-21.905;-21.830;-18.552
3026891.637;-16.578;-16.205;-16.615;-19.148;-25.891;-17.509;-17.919;-14.454
3026891.645;-15.534;-15.944;-17.583;-15.609;-23.320;-15.199;-17.844;-12.107
3026891.653;-17.919;-19.930;-19.260;-21.532;-28.983;-17.136;-22.240;-13.337
3026891.661;-25.816;-24.401;-25.630;-26.114;-35.278;-15.944;-21.607;-13.374
3026891.669;-31.032;-29.281;-31.255;-32.373;-36.918;-17.583;-22.054;-15.125
3026891.677;-30.249;-32.224;-31.404;-34.310;-36.284;-15.981;-18.515;-13.597
3026891.685;-23.469;-26.375;-26.710;-28.238;-36.769;-13.113;-15.274;-12.480
3026891.693;-22.464;-22.314;-27.642;-21.346;-38.818;-21.234;-25.891;-19.632
3026891.701;-28.312;-27.753;-32.932;-31.553;-40.084;-28.238;-33.677;-25.630
3026891.709;-26.226;-27.046;-28.200;-33.230;-39.749;-22.873;-26.226;-22.464
3026891.717;-15.572;-16.652;-16.615;-24.661;-28.908;-14.193;-16.354;-17.062
3026891.725;-8.903;-11.623;-8.829;-15.013;-18.254;-14.938;-15.274;-18.291
3026891.733;-4.396;-6.109;-3.949;-8.047;-16.987;-16.168;-15.274;-18.217
3026891.741;-5.215;-5.476;-4.545;-10.058;-16.093;-20.675;-19.744;-20.452
3026891.749;-6.296;-5.588;-5.886;-12.293;-17.025;-21.011;-20.713;-17.211
3026891.759;-10.133;-9.276;-11.846;-20.079;-23.916;-19.856;-21.271;-14.752
3026891.767;-13.635;-14.305;-15.311;-27.977;-29.914;-15.162;-18.142;-10.170
3026891.775;-4.172;-8.270;-3.576;-15.162;-20.154;-6.668;-9.090;-1.341
3026891.783;-11.474;-12.964;-9.649;-17.136;-20.787;-11.511;-12.107;-7.525
3026891.791;-10.282;-12.256;-11.884;-13.150;-22.762;-13.933;-11.586;-11.548
3026891.799;-5.327;-8.792;-6.892;-17.360;-18.552;-16.540;-10.990;-14.268
3026891.807;-3.949;-6.035;-5.029;-17.025;-18.105;-22.128;-15.944;-17.360
3026891.815;-5.513;-9.052;-9.127;-14.976;-22.389;-22.724;-17.434;-16.280
3026891.823;-8.605;-13.672;-10.431;-16.913;-24.475;-20.340;-16.913;-13.225
3026891.831;-5.290;-9.127;-3.539;-18.142;-17.881;-16.280;-13.448;-10.021
3026891.839;-9.574;-14.715;-8.121;-23.656;-17.583;-19.707;-17.062;-13.858
3026891.847;-13.150;-18.664;-11.548;-26.524;-26.375;-20.750;-17.807;-15.572
3026891.855;-9.201;-11.176;-9.276;-19.036;-22.873;-20.862;-17.919;-13.635
3026891.863;-7.376;-7.786;-7.227;-15.236;-25.593;-22.091;-19.632;-14.007
3026891.871;-9.947;-15.460;-8.531;-22.501;-22.352;-24.699;-24.214;-14.193
3026891.879;-8.903;-14.417;-8.009;-18.291;-18.552;-21.532;-22.426;-11.474
3026891.887;-2.831;-6.966;-2.086;-13.076;-14.678;-17.211;-15.758;-10.468
3026891.895;1.080;-1.751;0.447;-11.735;-12.293;-16.466;-11.697;-11.586
3026891.903;-4.061;-5.402;-5.960;-12.964;-21.458;-21.234;-14.529;-17.174
3026891.911;-3.204;-6.407;-5.327;-10.021;-21.420;-22.724;-15.497;-17.360
3026891.919;-3.725;-5.141;-5.439;-10.133;-17.136;-21.309;-15.162;-14.603
3026891.927;-1.863;-3.949;-3.688;-11.027;-16.615;-20.526;-15.907;-12.144
3026891.935;-1.825;-5.737;-4.508;-13.672;-14.082;-24.252;-20.638;-14.082
3026891.943;-2.868;-5.290;-2.757;-13.188;-15.385;-26.561;-24.363;-15.199
3026891.956;-5.029;-6.743;-6.147;-12.852;-21.346;-27.530;-25.071;-15.162
3026891.964;-9.425;-12.554;-11.139;-15.050;-26.971;-26.971;-23.879;-14.640
3026891.972;-14.342;-17.956;-14.417;-27.046;-29.579;-31.106;-27.679;-20.638
3026891.980;-10.096;-13.076;-12.591;-18.738;-19.297;-29.169;-24.959;-20.228
3026891.988;-10.394;-14.044;-12.554;-14.454;-21.271;-29.653;-25.183;-21.495
3026891.996;-9.425;-14.082;-9.239;-11.176;-19.670;-29.430;-23.358;-21.011
3026892.004;-14.007;-16.689;-14.193;-22.464;-25.630;-32.112;-24.997;-24.177
3026892.012;-19.707;-20.824;-18.589;-31.628;-30.734;-34.720;-28.573;-26.226
3026892.020;-12.405;-14.156;-14.603;-10.952;-25.965;-30.883;-24.810;-22.501
3026892.028;-12.480;-13.225;-16.093;-13.076;-30.994;-32.485;-25.071;-26.561
3026892.036;-14.566;-17.472;-19.185;-15.534;-30.808;-30.063;-23.171;-24.140
3026892.044;-16.205;-18.179;-18.999;-19.595;-30.324;-28.238;-23.171;-20.564
3026892.052;-20.005;-20.266;-20.340;-26.897;-30.771;-29.840;-25.369;-20.899
3026892.060;-18.477;-17.434;-20.675;-17.211;-35.502;-26.934;-22.538;-18.924
3026892.068;-15.274;-18.142;-15.497;-17.770;-25.593;-22.650;-18.626;-16.168
3026892.076;-15.013;-19.856;-15.311;-16.056;-24.252;-19.260;-15.721;-14.827
3026892.084;-11.288;-14.901;-10.468;-21.793;-17.658;-19.744;-16.838;-14.752
3026892.092;-11.958;-12.591;-13.076;-18.179;-22.575;-24.326;-20.228;-18.738
3026892.100;-7.488;-7.935;-8.568;-5.364;-22.091;-21.756;-17.881;-17.732
3026892.108;-10.468;-11.846;-10.580;-9.127;-18.738;-22.426;-19.670;-18.775
3026892.116;-13.374;-15.907;-12.554;-14.603;-25.630;-25.518;-23.171;-19.819
3026892.124;-14.193;-20.005;-14.640;-18.440;-25.146;-25.257;-23.283;-20.042
3026892.132;-14.640;-18.142;-15.572;-16.168;-25.965;-26.077;-23.618;-23.507
3026892.140;-2.272;-4.470;-4.694;-3.241;-15.907;-20.377;-17.844;-21.048
3026892.150;5.215;4.880;1.155;8.903;-11.921;-13.076;-11.064;-16.242
3026892.158;-6.147;-9.760;-6.892;-8.605;-20.228;-15.013;-13.709;-16.093
3026892.166;-11.250;-16.354;-11.958;-11.586;-20.415;-13.523;-11.958;-11.921
3026892.174;-6.594;-12.740;-8.568;-12.256;-23.693;-13.076;-10.990;-11.586
3026892.182;-6.631;-11.660;-8.047;-14.342;-24.512;-17.993;-15.870;-15.609
3026892.190;-9.015;-12.368;-9.313;-6.817;-25.742;-18.366;-17.621;-16.466
3026892.198;-8.866;-14.156;-10.692;-12.927;-22.650;-16.429;-16.354;-15.050
3026892.206;-11.139;-18.887;-11.586;-17.248;-24.214;-16.131;-16.689;-16.391
3026892.214;-8.196;-16.242;-7.115;-14.491;-17.844;-12.256;-13.225;-13.337
3026892.222;-7.711;-13.150;-8.233;-10.468;-22.613;-7.004;-7.190;-8.829
3026892.230;-12.964;-19.073;-12.815;-10.878;-27.679;-8.941;-9.015;-10.021
3026892.238;-12.182;-20.191;-11.474;-13.560;-24.773;-11.697;-10.431;-11.399
3026892.246;-9.015;-14.193;-11.176;-11.735;-23.469;-12.517;-9.574;-12.480
3026892.254;-7.935;-16.429;-6.221;-14.268;-21.309;-16.131;-13.560;-16.466
3026892.262;-6.221;-15.274;-3.986;-9.239;-19.595;-18.962;-17.583;-19.670
3026892.270;-5.886;-9.574;-5.364;-5.290;-22.985;-22.091;-20.824;-21.569
3026892.278;-5.178;-10.058;-3.725;-6.557;-20.675;-19.036;-17.285;-18.701
3026892.286;-0.782;-5.849;-2.012;-2.831;-18.887;-11.921;-9.276;-14.640
3026892.294;0.745;-1.937;-1.118;1.751;-20.564;-8.605;-4.992;-13.486
3026892.302;-6.445;-10.282;-8.382;1.788;-20.266;-11.437;-8.270;-15.423
3026892.310;-11.213;-13.448;-11.213;-6.482;-23.469;-11.772;-11.325;-14.119
3026892.318;-8.978;-9.537;-9.574;-1.751;-26.003;-10.468;-12.554;-11.846
3026892.326;-13.337;-14.640;-11.437;-8.717;-26.301;-7.860;-13.337;-8.605
3026892.334;-16.429;-21.383;-13.188;-15.609;-29.095;-7.041;-12.442;-7.637
3026892.330;-15.758;-17.434;-12.964;-15.758;-32.447;-5.439;-8.680;-7.413
3026892.338;-7.637;-10.841;-4.321;-8.382;-18.850;-1.229;-5.253;-6.780
3026892.346;-3.725;-7.264;-1.043;-3.092;-9.909;-3.614;-9.798;-10.245
3026892.354;-0.112;-3.055;3.316;-0.186;-18.105;-1.118;-6.780;-8.382
3026892.362;-0.261;-5.402;4.768;-1.490;-18.030;-0.782;-5.551;-8.643
3026892.370;-1.490;-7.488;3.539;-7.451;-17.062;-3.688;-8.382;-9.015
3026892.378;-6.445;-6.743;-2.459;-5.700;-22.911;-11.474;-16.727;-14.640
3026892.386;-7.674;-8.792;-6.109;-4.880;-22.501;-10.543;-16.168;-12.778
3026892.394;-6.519;-13.262;-5.253;-11.064;-20.489;-10.096;-14.901;-12.107
3026892.402;-7.860;-13.560;-7.078;-14.454;-20.973;-13.262;-18.887;-13.001
3026892.410;-5.029;-8.047;-4.172;-8.233;-19.707;-10.431;-15.832;-8.494
3026892.418;-5.029;-6.743;-4.247;-5.439;-17.025;-6.333;-8.829;-4.955
3026892.426;-8.941;-11.511;-9.686;-8.419;-27.828;-7.078;-7.488;-7.004
3026892.434;-6.370;-12.368;-7.674;-4.880;-25.183;-7.302;-6.668;-7.935
3026892.442;0.186;-3.427;1.006;1.565;-13.895;-8.829;-7.711;-9.872
3026892.450;4.284;-0.075;4.061;-2.272;-9.835;-11.101;-9.574;-12.182
3026892.458;7.749;1.863;7.898;2.310;-8.009;-10.692;-9.052;-11.474
3026892.466;2.943;0.857;3.316;1.714;-15.534;-13.001;-12.293;-11.921
3026892.474;-2.384;-3.092;-1.453;-2.794;-15.944;-13.374;-13.262;-9.872
3026892.482;-7.749;-10.729;-8.158;-3.539;-13.784;-16.913;-16.466;-13.299
3026892.490;-13.560;-17.732;-13.411;-14.417;-22.240;-18.328;-17.621;-12.964
3026892.498;-19.632;-22.985;-18.477;-24.028;-32.671;-18.589;-19.632;-13.784
3026892.506;-13.933;-18.552;-15.609;-16.540;-29.244;-9.760;-11.995;-5.625
3026892.514;-11.958;-14.082;-16.131;-8.866;-27.455;-1.043;-0.969;1.676
3026892.524;-14.007;-19.297;-15.683;-16.689;-27.232;-1.416;1.304;-0.149
3026892.532;-9.239;-18.179;-10.841;-13.560;-22.873;-1.863;4.359;-0.745
3026892.540;-3.278;-5.439;-7.525;0.969;-22.873;-3.837;4.023;-4.657
3026892.548;-2.123;-1.974;-6.668;-0.820;-26.338;-11.586;-5.066;-11.399
3026892.556;-3.874;-7.600;-5.774;-5.774;-13.486;-14.715;-11.176;-11.772
3026892.564;-3.427;-9.276;-4.433;-8.307;-11.995;-16.093;-16.540;-10.580
3026892.572;-1.229;-6.407;-3.316;-2.980;-14.976;-12.182;-13.746;-5.551
3026892.580;-5.774;-8.680;-7.637;-8.307;-22.575;-13.784;-14.305;-8.978
3026892.588;-14.082;-17.025;-15.832;-16.429;-31.851;-17.025;-15.311;-12.740
3026892.596;-14.901;-17.434;-18.924;-18.105;-32.894;-10.841;-8.754;-7.302
3026892.604;-15.572;-21.942;-17.397;-16.801;-19.222;-9.276;-8.456;-6.407
3026892.612;-11.921;-15.646;-12.964;-15.199;-21.309;-4.508;-3.390;-1.676
3026892.620;-10.952;-12.815;-12.778;-14.417;-25.518;-5.737;-5.066;-2.794
3026892.628;-7.264;-12.517;-7.488;-16.578;-22.873;-12.405;-9.872;-7.264
3026892.636;-1.714;-3.912;-0.633;-6.333;-9.015;-14.491;-11.548;-8.568
3026892.644;-4.806;-7.488;-5.178;-7.115;-12.256;-18.962;-16.876;-12.107
3026892.652;-1.602;-8.531;-3.353;-9.499;-14.156;-20.862;-18.552;-12.219
3026892.660;3.129;-2.757;1.080;-2.980;-9.276;-19.595;-18.477;-11.213
3026892.668;2.719;1.267;0.484;2.310;-11.250;-12.219;-12.890;-6.706
3026892.676;-5.923;-8.494;-8.419;-9.835;-13.895;-11.027;-11.511;-7.637
3026892.684;-7.264;-9.425;-9.723;-9.388;-15.199;-9.760;-9.760;-8.531
3026892.692;-7.898;-8.754;-8.047;-10.394;-21.383;-10.766;-10.021;-9.947
3026892.700;-2.310;-6.221;-1.416;-8.829;-15.758;-5.215;-5.551;-5.215
3026892.708;0.894;-1.341;0.969;1.229;-12.852;-6.519;-7.711;-3.874
3026892.719;-1.751;-2.980;-0.037;0.708;-9.686;-12.405;-13.560;-5.290
3026892.727;-3.576;-5.811;-1.527;-4.210;-9.052;-16.391;-16.652;-7.525
3026892.735;-3.204;-3.725;-4.545;-5.029;-11.995;-17.248;-16.391;-8.084
3026892.743;-2.012;-5.104;-3.166;-4.433;-8.903;-18.924;-19.222;-12.293
3026892.751;4.210;0.447;5.923;0.857;3.390;-17.174;-18.887;-11.250
3026892.759;11.995;11.772;12.815;11.027;5.998;-9.686;-12.517;-5.141
3026892.767;3.465;1.863;4.061;3.129;-4.880;-9.201;-13.411;-5.402
3026892.775;-4.247;-4.731;-4.992;-6.370;-13.597;-4.023;-8.605;-1.639
3026892.783;-1.006;-1.155;-2.496;-2.943;-13.895;3.651;1.676;2.831
3026892.791;1.080;1.192;-1.080;4.731;-10.841;0.931;0.969;-1.304
3026892.799;1.863;2.868;-0.373;2.272;-2.794;-5.700;-6.333;-6.258
3026892.807;2.384;1.714;3.316;0.745;-3.166;-11.176;-15.423;-7.153
3026892.815;1.378;-2.719;3.949;-3.017;-0.261;-12.405;-18.738;-5.253
3026892.823;-0.186;-2.831;2.049;-3.316;-0.820;-12.182;-17.956;-5.290
3026892.831;-1.192;-0.931;-0.894;-4.284;-9.537;-12.740;-18.962;-6.258
3026892.839;1.267;-1.341;2.421;-0.931;-4.321;-13.486;-19.893;-7.153
3026892.847;-0.894;-5.402;0.671;-7.488;-4.135;-14.864;-21.197;-10.058
3026892.855;-2.794;-2.235;-0.559;-9.350;-5.625;-13.113;-17.919;-10.505
3026892.863;2.347;4.768;3.986;2.980;-4.843;-6.557;-9.537;-5.774
3026892.871;1.043;-0.559;4.321;3.353;-5.066;-3.017;-5.588;-3.092
3026892.879;-5.476;-7.898;-3.837;-8.829;-14.193;-3.688;-4.955;-5.215
3026892.887;-7.860;-11.958;-5.811;-16.131;-8.605;-1.788;-3.949;-4.433
3026892.895;-7.749;-8.233;-7.413;-12.256;-10.356;0.410;-4.433;-1.639
3026892.903;-8.643;-7.376;-6.817;-9.276;-11.474;-1.751;-9.798;-1.341
3026892.915;-10.096;-10.729;-5.886;-9.090;-16.727;-4.955;-16.280;-1.080
3026892.923;-8.680;-11.101;-2.794;-11.697;-7.078;-8.941;-19.521;-3.837
3026892.931;-9.649;-11.213;-4.992;-11.362;-10.990;-15.572;-22.948;-10.207
3026892.939;-8.270;-9.313;-5.066;-11.176;-17.881;-17.621;-22.948;-11.995
3026892.947;-9.909;-13.560;-7.190;-8.829;-18.850;-19.036;-22.501;-14.082
3026892.955;-6.557;-5.960;-5.215;-6.519;-8.866;-12.815;-16.466;-10.394
3026892.963;-5.327;-4.135;1.639;-11.176;0.149;-5.625;-12.964;-5.774
3026892.971;-9.798;-12.293;-0.112;-16.466;-5.364;-3.166;-14.231;-5.327
3026892.979;-11.474;-16.950;-4.843;-17.025;-11.809;-2.980;-14.342;-5.849
3026892.987;-6.892;-8.866;-3.055;-10.021;-13.299;-0.075;-11.213;-3.837
3026892.995;-5.960;-2.794;-3.092;-12.517;-13.746;-1.043;-10.282;-2.943
3026893.003;-10.617;-9.537;-7.451;-15.907;-14.156;-4.098;-11.772;-3.912
3026893.011;-13.113;-12.144;-7.339;-17.248;-16.615;-5.439;-11.474;-3.800
3026893.019;-7.972;-8.568;-2.123;-9.909;-6.370;-3.539;-8.345;-0.373
3026893.027;-12.815;-14.491;-8.419;-18.962;-15.162;-6.445;-10.729;-3.576
3026893.035;-12.629;-14.044;-8.605;-21.681;-13.374;-5.029;-9.723;-2.682
3026893.043;-9.537;-7.339;-6.668;-12.517;-11.437;-2.347;-7.786;-1.639
3026893.051;-6.370;-3.614;-3.800;-8.084;-10.170;0.894;-6.817;-0.075
3026893.059;-3.539;-4.284;-0.224;-11.884;-4.731;3.874;-3.725;2.980
3026893.067;-7.562;-9.201;-3.539;-16.540;-10.394;2.049;-3.949;0.075
3026893.075;-6.594;-4.061;-3.166;-12.293;-14.640;0.633;-2.682;-2.347
3026893.083;-0.112;7.860;2.757;-3.204;-8.419;1.490;1.714;-0.857
3026893.091;0.261;5.551;1.825;-6.221;-7.749;3.390;3.800;3.465
3026893.099;-5.625;-5.290;-5.662;-13.746;-9.984;4.843;4.210;7.041
3026893.109;-12.964;-8.270;-13.188;-15.050;-15.832;3.539;1.304;6.631
3026893.117;-12.927;-12.293;-10.543;-19.558;-10.207;4.321;0.335;7.637
3026893.125;-7.823;-5.811;-3.278;-17.136;-5.700;6.743;1.006;10.766
3026893.133;-4.619;-2.272;0.522;-13.225;-0.298;3.949;-2.831;10.207
3026893.141;-4.582;-3.688;-1.341;-14.827;-5.327;1.676;-6.370;8.717
3026893.149;-6.780;-5.923;-5.066;-19.073;-11.139;-0.596;-7.153;5.998
3026893.157;-9.164;-8.568;-8.121;-18.775;-14.268;-2.310;-7.004;2.980
3026893.165;-6.706;-1.378;-5.066;-10.394;-4.135;-0.447;-1.378;3.465
3026893.173;-5.253;2.384;-3.316;-7.153;-3.763;-2.347;-0.671;-0.894
3026893.181;-0.857;4.880;0.559;-4.917;-4.210;-1.863;2.123;-1.825
3026893.189;-0.447;2.645;1.714;-8.792;-5.625;0.373;3.092;1.863
3026893.197;-5.364;-1.900;-1.937;-16.317;-6.445;-2.608;-3.949;1.639
3026893.205;-5.774;-0.522;-1.118;-14.789;-0.820;-0.484;-4.023;4.843
3026893.213;-3.539;2.645;0.149;-8.456;-1.602;0.186;-3.241;5.737
3026893.221;-0.745;8.084;3.390;-6.631;-1.788;0.484;-2.906;7.674
3026893.229;-3.427;4.955;1.676;-7.078;0.261;-2.719;-7.078;4.880
3026893.237;-2.943;3.129;0.037;-8.568;-1.900;-4.806;-8.754;2.980
3026893.245;-4.061;0.522;-0.186;-13.448;-5.960;-3.874;-6.407;4.470
3026893.253;-1.192;2.272;4.619;-9.835;-1.192;2.533;2.980;8.047
3026893.261;1.714;10.394;7.078;-4.508;2.384;9.984;13.262;11.623
3026893.269;2.831;9.872;4.284;-2.980;3.614;8.568;10.952;7.451
3026893.277;1.714;4.768;1.639;-4.172;1.043;5.960;6.631;4.433
3026893.285;-1.043;3.427;3.092;-11.511;-1.863;7.153;4.470;8.754
3026893.293;-4.247;0.224;0.745;-14.864;-1.937;5.960;-0.447;10.319
3026893.288;-0.186;0.745;3.800;-10.803;3.092;12.293;3.427;17.285
3026893.296;0.708;5.960;4.955;-11.213;4.061;12.144;3.204;17.025
3026893.304;1.304;7.898;3.725;-4.768;-5.998;8.121;1.863;13.448
3026893.312;-1.304;5.811;-0.745;-9.052;-4.657;8.568;5.029;12.405
3026893.320;-8.941;-2.496;-4.470;-19.856;-2.123;3.651;1.937;6.333
3026893.328;-3.725;1.267;0.596;-12.815;0.559;10.133;8.047;10.170
3026893.336;-0.410;3.986;4.396;-9.164;3.055;16.987;12.890;15.236
3026893.344;-2.570;5.029;1.192;-10.878;-2.943;15.348;10.952;13.374
3026893.352;-0.373;6.817;3.129;-9.984;1.602;20.191;15.348;17.323
3026893.360;-4.694;0.522;0.969;-11.735;3.017;19.483;15.087;16.131
3026893.368;-9.425;-4.098;-5.513;-15.907;-0.596;16.205;10.729;15.907
3026893.376;-9.798;-4.396;-5.737;-17.583;-1.304;12.293;4.768;15.199
3026893.384;-12.033;-5.476;-4.657;-19.297;-9.164;7.898;-1.416;12.927
3026893.392;-8.233;-5.439;-2.719;-21.160;-3.688;7.078;-2.868;12.442
3026893.400;-3.837;-0.224;0.112;-15.311;5.066;10.133;0.559;14.044
3026893.408;2.086;9.686;6.519;-5.774;5.588;15.758;7.376;19.632
3026893.416;4.247;10.133;7.786;1.788;4.061;17.323;10.096;20.266
3026893.424;0.931;4.247;4.843;-7.898;6.966;14.342;7.264;15.162
3026893.432;-2.757;4.917;0.857;-10.990;5.662;14.529;7.711;13.337
3026893.440;2.272;11.995;6.706;-5.178;7.451;15.385;9.835;11.399
3026893.448;4.172;10.096;8.941;-3.465;9.350;13.746;10.617;10.356
3026893.456;3.241;8.494;8.196;-3.651;10.282;16.987;12.890;13.448
3026893.464;-1.043;4.731;2.645;-7.451;6.557;20.750;12.778;17.509
3026893.472;-6.296;-2.570;-2.906;-12.331;-0.335;16.280;7.451;14.715
3026893.497;-3.278;3.316;-2.198;-7.376;-3.576;15.087;6.221;13.895
3026893.505;0.037;9.537;3.874;0.820;3.055;17.323;8.903;15.460
3026893.513;-0.335;6.706;6.370;-7.041;11.176;15.497;8.084;12.890
3026893.521;2.868;8.456;7.674;-0.559;15.162;14.193;8.531;12.666
3026893.529;3.166;9.239;6.855;0.335;9.090;14.827;11.213;12.554
3026893.537;-0.894;8.829;1.304;4.172;-2.012;11.995;10.021;7.413
3026893.545;-0.931;12.256;-1.192;0.820;-3.912;12.666;11.064;8.047
3026893.553;0.037;9.499;4.321;2.719;1.974;11.772;8.866;6.817
3026893.561;-3.427;2.161;1.751;-3.502;5.700;7.711;2.496;4.023
3026893.569;-7.674;0.149;-3.316;-12.480;-3.427;5.215;-2.384;3.651
3026893.577;-9.350;-1.192;-5.029;-8.680;-2.943;3.763;-6.929;4.880
3026893.585;-7.935;1.602;-3.800;-3.092;3.129;6.780;-5.551;9.760
3026893.593;-3.688;1.937;1.565;-5.215;11.474;10.356;-1.527;12.890
3026893.601;-3.502;2.310;1.267;-8.605;5.737;11.139;-0.894;10.990
3026893.609;-4.061;2.384;2.645;-6.892;5.104;13.299;1.118;10.058
3026893.617;-5.513;-1.825;2.123;-4.806;0.335;13.448;4.545;8.233
3026893.625;-4.582;0.931;0.075;-4.731;2.161;15.013;8.941;8.605
3026893.633;-4.955;5.402;-0.112;-8.270;4.806;10.468;5.662;5.737
3026893.641;-5.141;3.949;-0.484;-6.370;-1.043;4.284;-1.006;2.012
3026893.649;-3.055;3.353;0.037;-1.267;-0.894;4.880;1.378;2.570
3026893.657;-0.894;6.333;5.476;2.496;8.419;9.574;5.700;5.811
3026893.665;-4.694;-0.075;1.714;-12.144;11.586;8.941;2.943;7.227
3026893.673;-7.190;-2.757;0.857;-16.876;5.364;10.692;2.570;10.356
3026893.681;-6.519;-0.969;1.416;-14.082;4.843;11.474;3.241;11.884
3026893.694;-3.874;2.496;-0.075;-6.855;0.410;15.423;6.855;15.534
3026893.702;-4.694;-0.149;-1.006;-11.101;0.037;11.697;2.682;11.846
3026893.710;-7.451;-4.247;-0.745;-12.442;4.321;5.141;-1.974;6.817
3026893.718;-1.714;0.224;6.407;-7.339;9.872;11.213;8.047;12.070
3026893.726;1.192;5.625;7.674;-2.235;7.972;16.280;15.944;15.311
3026893.734;8.568;10.841;13.262;-0.857;16.131;19.558;20.042;18.701
3026893.742;14.342;15.944;16.540;6.221;21.048;18.738;17.397;18.440
3026893.750;14.044;16.801;14.864;11.101;19.297;16.652;14.752;16.987
3026893.758;11.846;14.789;11.846;6.966;14.380;16.168;13.001;16.913
3026893.766;10.990;13.746;13.784;2.608;13.001;14.342;9.462;17.323
3026893.774;5.774;7.823;9.723;-1.863;10.617;12.778;5.774;18.179
3026893.782;3.055;4.917;7.004;-4.955;13.821;9.052;2.347;16.056
3026893.790;3.092;7.786;5.141;-3.353;9.909;6.370;1.118;12.852
3026893.798;3.912;7.674;4.619;-1.974;7.264;8.382;4.359;12.927
3026893.806;1.453;2.943;0.112;-0.410;1.155;9.090;7.004;12.331
3026893.814;-2.310;-1.267;-0.633;-5.513;7.786;9.425;7.935;12.182
3026893.822;-4.955;-2.198;-0.037;-11.250;11.437;8.978;7.823;10.282
3026893.830;-3.837;-2.459;0.894;-14.938;3.017;10.505;10.692;11.474
3026893.838;0.745;1.527;3.800;-4.768;5.700;11.176;12.890;12.107
3026893.846;5.923;5.253;9.015;-2.794;13.970;10.766;11.139;12.219
3026893.854;5.737;4.023;7.413;-2.943;17.025;9.388;7.302;11.735
3026893.862;5.960;8.307;6.035;-2.272;10.952;10.282;4.843;13.374
3026893.870;9.686;12.219;11.213;0.149;17.397;11.250;4.359;16.242
3026893.878;9.201;8.978;11.437;0.149;18.477;10.878;3.725;16.019
3026893.874;6.445;7.004;6.780;-3.166;18.813;6.929;0.745;11.772
3026893.882;5.960;6.221;5.625;-5.178;8.531;6.258;1.900;10.803
3026893.890;6.519;2.272;6.035;-2.049;10.803;8.829;4.545;13.895
3026893.898;9.090;6.706;10.207;1.341;14.268;12.144;8.270;17.770
3026893.906;10.915;14.156;13.299;4.582;14.827;13.821;10.431;18.775
3026893.914;9.649;10.766;14.342;-0.037;23.060;9.015;6.594;13.262
3026893.922;11.139;12.554;16.093;2.384;24.512;10.468;9.499;12.331
3026893.930;8.680;9.835;11.399;0.224;19.409;11.735;11.511;11.548
3026893.938;9.090;7.264;11.213;-2.235;17.248;11.548;10.841;14.156
3026893.946;11.623;11.809;13.411;1.378;17.099;14.380;11.101;19.707
3026893.954;10.654;11.213;12.740;2.421;18.254;15.274;9.947;22.426
3026893.962;11.958;12.703;12.293;1.714;17.621;17.136;11.362;23.656
3026893.970;11.511;10.543;11.288;2.123;19.148;15.050;12.331;19.185
3026893.978;10.468;8.792;11.586;1.378;17.360;9.947;10.468;13.448
3026893.986;4.880;3.353;7.041;-2.347;13.635;6.929;8.792;9.462
3026893.994;0.596;1.937;2.570;-2.235;8.680;7.302;9.499;10.245
3026894.002;4.768;6.445;5.886;-1.788;14.938;10.543;11.697;14.454
3026894.010;5.066;3.651;5.849;-3.166;15.348;10.245;9.649;15.199
3026894.018;4.508;3.017;4.955;-3.763;16.056;10.803;8.978;16.391
3026894.026;5.774;7.078;7.749;0.298;17.546;12.554;11.362;17.025
3026894.034;10.803;15.125;12.033;11.958;18.738;17.770;17.658;20.750
3026894.042;14.193;18.850;11.586;11.809;18.254;24.550;24.289;23.358
3026894.050;18.775;21.942;15.944;14.529;16.429;28.908;27.902;24.773
3026894.058;17.323;18.626;16.280;11.995;16.838;27.791;27.157;23.171
3026894.070;15.236;17.025;15.907;12.629;23.134;25.928;25.332;21.458
3026894.078;9.611;9.611;10.468;3.017;20.638;20.936;21.085;17.211
3026894.086;7.451;10.021;9.276;5.662;17.434;18.366;18.813;15.087
3026894.094;10.356;18.589;11.101;8.792;15.758;20.117;19.409;17.248
3026894.102;9.090;12.293;9.127;5.551;10.878;17.695;16.652;16.391
3026894.110;8.754;9.723;9.649;5.402;19.222;18.701;16.987;17.546
3026894.118;10.878;13.895;13.597;6.370;21.197;23.060;19.036;20.973
3026894.126;7.115;13.225;8.233;5.662;16.354;23.209;18.813;19.260
3026894.134;2.533;8.792;1.602;0.410;8.829;23.693;20.117;18.999
3026894.142;3.912;6.519;4.768;2.235;9.201;23.283;20.936;19.483
3026894.150;5.104;7.190;9.350;5.029;19.111;22.575;20.117;19.111
3026894.158;2.049;6.743;5.253;-1.341;19.893;20.564;17.360;17.099
3026894.166;3.763;6.109;4.359;-0.447;14.491;23.097;18.254;20.713
3026894.174;1.453;2.757;2.272;-2.794;10.021;21.756;15.236;20.601
3026894.182;-0.335;2.608;-1.527;0.633;6.370;24.103;16.391;21.346
3026894.190;-1.192;4.955;-1.751;0.820;6.258;26.897;19.744;21.495
3026894.198;2.421;4.657;4.284;-2.608;14.491;30.547;23.842;23.991
3026894.206;9.239;11.809;8.829;6.966;12.368;35.278;29.877;28.946
3026894.214;4.470;6.706;3.949;7.339;13.337;25.108;19.595;19.893
3026894.222;5.923;9.909;3.353;7.451;12.927;23.209;16.689;19.185
3026894.230;9.350;14.417;7.451;4.992;16.950;26.226;19.595;21.420
3026894.238;12.703;14.640;10.505;8.531;20.824;27.493;20.266;22.314
3026894.246;13.523;17.919;11.548;10.915;20.713;27.642;21.532;22.538
3026894.254;13.858;13.784;13.746;10.766;21.346;27.679;21.607;22.054
3026894.250;14.454;16.503;14.827;6.184;18.552;33.118;26.599;27.120
3026894.258;15.907;19.372;16.578;6.296;20.936;33.043;28.275;26.189
3026894.266;18.999;18.626;19.111;12.927;29.504;29.840;26.152;23.209
3026894.274;18.999;21.681;15.981;18.924;20.824;25.891;22.762;19.521
3026894.282;8.121;9.835;6.594;4.992;11.995;19.632;17.919;14.938
3026894.290;5.178;9.425;6.370;1.192;13.001;24.065;23.730;21.085
3026894.298;11.548;17.099;11.660;10.394;19.409;26.487;26.114;25.481
3026894.306;18.477;18.813;17.956;14.454;26.077;21.346;20.303;22.538
3026894.314;25.444;29.393;23.283;18.813;29.318;23.283;21.681;24.214
3026894.322;23.097;25.593;21.085;20.042;25.891;22.203;22.054;22.277
3026894.330;22.165;19.185;19.707;15.795;22.948;23.656;24.028;24.214
3026894.338;23.805;21.085;21.793;16.689;24.736;24.922;24.103;27.157
3026894.346;27.753;29.057;26.338;20.266;27.455;29.467;26.152;32.000
3026894.354;28.200;30.026;25.555;20.228;31.069;31.739;26.748;33.192
3026894.362;24.438;23.991;23.246;19.222;31.106;27.157;22.277;28.946
3026894.370;24.661;22.054;20.489;18.999;25.220;22.873;20.377;24.512
3026894.378;25.071;28.312;20.303;24.810;26.748;18.254;21.234;18.589
3026894.386;23.544;26.003;20.750;21.160;24.289;17.546;25.444;18.813
3026894.394;22.203;21.346;20.601;17.621;22.575;15.572;25.742;21.048
3026894.402;27.306;26.301;26.971;17.732;34.608;16.578;24.289;24.922
3026894.410;25.295;25.034;22.165;24.140;25.518;14.789;17.211;24.475
3026894.418;24.699;27.008;20.936;22.054;26.114;17.658;15.311;27.120
3026894.426;27.008;27.120;23.656;22.091;29.616;23.954;19.297;31.143
3026894.434;34.347;29.914;31.963;25.481;44.852;29.057;25.518;33.416
3026894.458;38.855;37.700;37.812;35.837;43.213;27.306;27.642;29.467
3026894.466;41.872;41.500;39.227;39.339;44.256;27.791;30.883;30.175
3026894.474;34.980;34.682;30.957;35.055;40.457;25.071;28.759;27.716
3026894.482;24.661;23.805;20.936;16.168;32.261;17.993;22.203;21.122
3026894.490;22.352;19.260;18.105;14.491;31.143;20.415;23.916;23.767
3026894.498;25.257;23.991;20.564;23.209;29.281;20.005;23.320;23.991
3026894.506;27.753;28.051;25.332;23.432;30.883;18.552;21.122;24.997
3026894.514;25.332;25.406;25.220;17.658;38.110;18.030;18.664;26.897
3026894.522;27.493;26.859;26.561;20.340;35.651;24.363;22.911;32.857
3026894.530;25.481;24.475;21.234;21.309;29.877;23.693;20.266;29.616
3026894.538;22.389;19.446;16.987;21.607;22.314;22.911;18.030;25.891
3026894.546;24.959;25.332;18.105;22.948;25.220;28.573;27.008;28.051
3026894.554;22.203;22.985;16.987;16.280;23.693;25.518;27.418;23.209
3026894.562;23.283;20.526;18.030;19.595;23.097;19.222;24.326;18.403
3026894.570;22.575;22.575;16.168;24.736;22.911;12.517;17.844;13.597
3026894.578;16.429;16.056;11.474;18.738;17.472;6.557;11.213;10.468
3026894.586;16.056;16.466;11.139;9.462;16.019;7.153;9.798;13.225
3026894.594;13.262;15.795;8.978;8.829;17.323;8.047;7.749;15.013
3026894.602;17.062;18.068;13.076;14.827;17.025;12.517;10.841;19.483
3026894.610;23.767;21.495;19.819;20.042;22.836;19.036;16.987;24.252
3026894.618;24.997;21.718;21.681;21.458;22.873;16.764;15.497;19.297
3026894.626;26.301;23.954;22.799;21.867;27.679;16.913;16.689;16.689
3026894.634;28.051;29.020;24.550;22.314;27.269;19.446;18.813;17.509
3026894.642;27.008;28.163;23.171;27.418;29.132;17.546;16.727;15.758
3026894.641;25.705;22.054;20.489;23.246;26.822;17.472;18.626;16.205
3026894.649;29.728;27.753;25.295;28.498;28.461;19.073;21.979;18.999
3026894.657;34.198;34.496;29.951;40.382;38.296;23.060;27.418;24.177
3026894.665;22.575;23.246;18.515;25.816;25.406;20.750;24.438;21.048
3026894.673;18.515;18.850;12.815;18.291;17.211;16.317;17.583;16.801
3026894.681;22.836;18.254;16.242;15.870;23.395;16.578;15.907;17.248
3026894.689;27.008;23.656;19.185;24.624;24.252;18.924;17.360;19.558
3026894.697;25.965;23.991;17.658;26.897;12.517;18.962;17.211;20.117
3026894.705;23.693;22.165;16.429;24.959;16.317;18.626;16.689;18.924
3026894.713;20.489;16.354;18.887;18.068;22.762;16.503;12.666;15.721
3026894.721;20.713;18.217;19.781;17.844;29.355;14.566;8.978;15.236
3026894.729;25.146;25.369;24.103;21.569;29.430;12.293;4.359;14.193
3026894.737;32.969;32.000;30.808;28.796;34.198;18.030;10.245;21.234
3026894.745;25.928;23.507;24.252;20.862;27.902;19.483;11.697;22.426
3026894.753;13.560;9.127;12.517;7.972;18.217;18.105;11.213;19.595
3026894.761;10.543;8.196;8.531;8.009;16.242;23.320;17.770;22.314
3026894.769;11.250;10.878;11.809;7.115;18.924;23.581;18.291;19.558
3026894.777;13.821;13.039;11.884;14.827;11.101;25.406;16.317;18.589
3026894.785;12.517;10.952;11.362;8.494;12.256;25.146;13.113;18.738
3026894.793;10.766;6.668;11.027;4.321;16.615;23.283;9.686;17.025
3026894.801;12.927;8.531;13.001;11.027;16.764;21.383;8.047;16.205
3026894.809;14.566;11.586;13.448;14.231;17.136;18.552;5.290;14.342
3026894.817;18.291;14.566;15.274;16.093;19.670;17.658;4.359;14.193
3026894.825;23.432;21.458;22.128;20.117;24.699;17.583;4.061;14.156
3026894.835;20.787;16.317;20.526;19.893;27.567;15.087;0.708;11.176
3026894.843;17.360;13.039;16.578;13.113;18.179;18.179;4.359;13.299
3026894.851;16.280;13.970;13.411;16.801;11.623;22.240;10.841;14.640
3026894.859;19.744;15.125;16.429;16.540;18.403;25.854;16.056;15.832
3026894.867;18.068;18.626;15.199;15.050;19.781;22.314;13.374;13.076
3026894.875;22.054;22.165;19.670;21.420;16.838;22.538;14.789;14.454
3026894.883;25.295;22.799;23.916;22.985;23.469;18.962;11.846;14.156
3026894.891;23.618;20.340;21.867;23.358;22.799;14.603;5.998;13.821
3026894.899;20.713;18.440;17.732;19.819;14.082;15.534;4.917;16.354
3026894.907;19.819;18.291;16.056;14.603;13.299;14.678;3.725;15.423
3026894.915;22.091;20.191;16.354;20.713;17.956;16.019;5.215;16.205
3026894.923;23.358;20.750;16.876;18.254;12.480;20.452;10.170;20.601
3026894.931;25.183;21.346;21.718;23.060;20.079;24.401;15.944;25.108
3026894.939;22.277;17.956;20.638;14.827;19.185;22.873;15.646;23.320
3026894.947;20.415;13.635;17.062;9.350;15.870;24.140;17.621;25.071
3026894.955;24.214;17.844;18.515;13.709;22.426;27.455;20.862;27.604
3026894.963;30.994;27.865;25.406;25.108;25.630;28.349;23.097;27.381
3026894.971;33.975;33.975;29.877;35.278;27.120;27.455;23.693;27.157
3026894.979;28.051;26.040;24.587;24.363;23.842;22.501;19.483;24.848
3026894.987;22.165;16.801;18.366;16.727;14.082;17.956;14.156;22.687
3026894.995;24.885;22.389;20.303;22.575;20.340;14.566;8.941;19.707
3026895.003;28.647;26.524;23.618;25.965;21.867;12.703;6.221;18.030
3026895.011;28.573;23.991;25.667;20.415;25.667;14.976;7.711;19.595
3026895.019;32.634;27.828;29.691;19.334;30.957;18.105;10.505;22.575
3026895.030;39.637;34.310;36.396;29.691;34.720;18.924;14.268;21.160
3026895.038;39.414;34.980;36.582;37.737;35.986;16.615;13.784;17.807
3026895.046;32.075;27.232;29.281;27.977;29.169;11.846;9.574;14.640
3026895.054;25.742;23.171;22.464;20.899;22.464;8.866;8.270;13.374
3026895.062;25.034;23.544;19.930;20.340;12.815;9.350;8.941;15.236
3026895.070;21.718;19.222;14.380;22.352;11.846;7.004;6.407;13.337
3026895.078;24.028;22.538;15.460;23.507;26.189;6.407;4.135;12.703
3026895.086;29.989;27.455;22.203;28.014;24.661;9.350;7.339;14.007
3026895.094;33.639;27.977;27.381;24.214;28.312;11.437;10.468;14.529
3026895.102;35.129;30.510;28.089;28.126;25.518;16.540;16.056;18.775
3026895.110;35.651;32.596;28.238;34.422;28.238;16.950;16.950;18.924
3026895.118;35.241;33.751;28.126;33.490;29.691;14.380;13.970;16.317
3026895.126;33.602;29.095;25.779;24.959;30.398;15.721;15.013;17.807
3026895.134;27.455;20.787;23.246;16.503;21.830;14.715;12.927;16.242
3026895.142;23.805;15.646;18.924;17.621;13.262;15.236;13.337;16.056
3026895.150;27.083;20.601;23.767;23.842;22.985;16.466;16.242;17.472
3026895.158;31.777;26.561;26.375;28.461;30.920;14.901;15.199;17.434
3026895.166;35.912;31.590;29.169;33.006;32.857;13.188;12.703;16.168
3026895.174;35.800;31.255;29.989;32.745;33.863;14.454;13.858;16.876
3026895.182;33.900;31.516;24.289;32.559;24.438;13.113;12.591;14.529
3026895.190;35.278;30.808;27.679;33.937;23.916;14.678;13.858;15.311
3026895.198;38.631;34.533;32.559;34.831;26.524;15.125;15.199;15.423
3026895.206;35.278;31.888;29.467;31.553;24.736;13.970;14.044;12.182
3026895.214;30.212;25.369;23.469;22.762;18.515;11.697;11.213;10.505
3026895.210;25.146;19.968;18.254;22.091;18.999;10.207;9.723;11.362
3026895.218;20.377;13.411;14.976;13.523;15.646;7.451;5.290;8.792
3026895.226;18.664;10.058;15.832;7.227;17.956;10.021;5.066;10.543
3026895.234;16.242;10.058;14.156;4.210;12.442;14.715;10.245;13.672
3026895.242;12.890;5.774;10.952;5.439;8.494;14.119;10.356;11.697
3026895.250;14.938;9.611;10.766;13.337;16.317;14.976;10.952;14.529
3026895.258;14.678;9.127;9.574;13.672;12.331;13.374;8.605;14.305
3026895.266;17.770;14.044;13.225;13.933;10.021;13.597;10.617;13.486
3026895.274;14.566;9.276;8.754;10.356;4.955;10.841;10.915;7.302
3026895.282;13.448;6.445;9.313;7.972;8.568;10.543;10.505;4.210
3026895.290;19.670;13.746;15.795;15.348;14.640;16.168;15.423;9.313
3026895.298;20.228;16.801;15.199;18.030;11.176;15.162;14.752;7.115
3026895.306;18.664;15.907;13.784;18.030;7.041;10.654;7.525;3.763
3026895.314;16.280;11.362;12.405;13.337;11.288;9.388;4.247;4.582
3026895.322;10.133;6.445;8.196;9.239;9.276;7.860;1.043;5.551
3026895.330;8.345;2.980;4.992;5.625;9.909;12.480;5.551;11.213
3026895.338;8.978;3.055;6.184;5.141;9.201;16.205;10.245;12.703
3026895.346;5.327;1.527;1.341;1.527;-5.849;12.219;6.668;7.413
3026895.354;8.941;6.706;2.608;12.033;-3.204;14.007;10.543;7.637
3026895.362;4.508;-0.112;0.410;3.986;0.075;13.895;11.027;6.706
3026895.370;1.155;-5.327;-1.751;-1.304;1.304;12.927;8.643;7.227
3026895.378;3.129;-0.447;0.633;6.668;-0.671;11.921;6.370;6.594
3026895.386;9.872;7.786;5.662;12.107;0.931;11.139;5.215;6.147
3026895.394;10.617;7.078;7.339;8.605;2.533;8.494;1.378;5.364
3026895.419;4.284;0.261;4.694;-0.410;4.843;3.912;-3.688;0.969
3026895.427;5.290;-1.006;4.694;2.272;3.874;5.551;-1.565;0.969
3026895.435;4.247;-1.676;1.490;8.121;-1.751;9.835;2.123;3.688
3026895.443;-0.894;-7.153;-2.794;2.459;-5.476;14.603;5.178;7.823
3026895.451;-1.490;-3.427;-5.104;1.192;-3.129;19.744;9.798;13.784
3026895.459;-2.347;-4.098;-3.427;-0.559;-5.998;16.019;6.519;10.319
3026895.467;1.490;-0.037;1.863;3.017;7.264;12.554;3.055;8.047
3026895.475;3.465;1.267;2.123;11.213;6.072;10.319;0.969;7.302
3026895.483;9.239;7.674;7.972;17.323;4.768;12.517;3.837;8.605
3026895.491;11.772;12.256;9.201;13.784;3.465;11.623;3.576;7.451
3026895.499;10.692;10.170;5.811;9.276;-2.868;10.096;2.719;4.731
3026895.507;10.841;11.213;7.153;14.268;-3.986;13.337;5.513;5.476
3026895.515;11.921;11.921;11.697;15.795;0.782;14.491;5.551;3.912
3026895.523;16.205;12.517;13.895;16.652;12.964;17.248;6.817;6.296
3026895.531;13.039;14.603;11.474;14.640;9.723;17.993;7.562;7.637
3026895.539;9.798;11.474;7.451;7.860;7.637;19.968;10.803;8.084
3026895.547;9.723;12.591;6.966;11.735;1.863;24.438;15.721;13.597
3026895.555;4.992;5.178;3.576;10.468;-0.894;20.824;12.368;11.809
3026895.563;4.880;2.868;3.241;10.543;-1.825;16.056;8.233;10.319
3026895.571;7.749;2.757;4.731;8.158;-4.657;14.082;7.562;9.947
3026895.579;10.803;12.107;7.376;10.319;-5.364;11.884;6.370;8.121
3026895.587;16.987;17.472;12.927;23.246;4.172;16.466;12.368;11.809
3026895.595;16.168;11.697;13.188;14.342;9.760;17.360;15.683;9.760
3026895.603;20.899;15.311;18.552;17.434;16.727;15.572;15.199;7.749
3026895.600;29.802;25.183;28.275;24.550;21.160;20.266;19.446;12.852
3026895.608;23.358;19.334;22.613;18.440;17.360;19.036;16.205;11.586
3026895.616;21.234;18.999;18.030;16.652;11.846;19.297;16.354;13.486
3026895.624;20.303;16.652;16.131;17.360;5.662;19.111;15.981;14.231
3026895.632;17.248;12.144;13.933;13.188;6.594;20.377;17.136;17.658
3026895.640;14.082;12.107;9.425;12.554;0.447;17.136;13.895;17.248
3026895.648;8.270;3.837;5.476;7.674;-3.651;10.282;6.855;10.654
3026895.656;16.317;11.176;13.858;10.356;12.703;13.858;11.474;14.529
3026895.664;22.575;16.280;19.185;18.440;16.615;15.870;15.460;15.013
3026895.672;18.589;18.887;15.907;17.546;12.293;12.517;15.125;9.164
3026895.680;20.079;19.632;17.732;21.495;12.890;12.778;17.323;7.041
3026895.688;24.214;19.409;21.979;21.271;13.933;13.895;18.552;7.451
3026895.696;26.673;23.022;25.257;20.824;18.887;12.778;16.727;8.903
3026895.704;21.197;22.203;18.440;20.303;14.640;8.643;9.947;7.600
3026895.712;14.193;14.640;11.474;15.870;7.302;7.153;5.402;9.276
3026895.720;12.815;9.611;10.468;8.345;15.162;9.164;6.631;11.623
3026895.728;6.855;1.565;5.662;-4.172;5.551;9.798;8.084;11.958
3026895.736;2.347;0.224;-2.719;2.086;-7.637;8.829;9.090;10.319
3026895.744;4.731;7.711;0.782;11.958;-1.229;10.990;13.262;10.096
3026895.752;7.898;6.780;6.035;10.356;4.508;9.835;13.672;6.780
3026895.760;7.898;4.955;4.992;4.880;4.768;8.568;13.448;4.135
3026895.768;8.531;4.992;5.402;10.990;3.688;5.290;10.617;0.931
3026895.776;10.766;9.164;6.035;9.015;-0.186;-0.149;4.508;-2.421
3026895.784;17.360;15.274;10.803;15.050;8.792;0.410;3.800;-0.931
3026895.795;22.501;19.148;18.589;16.317;20.266;5.774;5.774;5.811
3026895.803;22.985;19.222;20.862;19.297;22.203;14.342;10.692;15.795
3026895.811;14.827;10.133;12.666;14.827;9.574;17.211;12.405;18.254
3026895.819;6.519;5.253;3.688;6.072;3.800;17.323;13.337;18.813
3026895.827;0.149;-1.304;-1.825;-0.373;-2.831;16.578;13.821;16.764
3026895.835;0.820;-5.141;-2.719;1.416;-5.253;18.328;17.397;17.136
3026895.843;11.958;10.356;6.706;13.150;2.161;18.589;20.713;17.807
3026895.851;12.890;15.646;8.196;17.993;-2.719;12.591;18.328;10.543
3026895.859;15.050;16.093;8.121;20.526;5.774;8.233;17.062;5.737
3026895.867;18.813;20.601;11.735;21.942;7.600;2.272;12.293;-1.378
3026895.875;22.873;20.228;18.217;23.581;10.505;-5.104;5.327;-12.331
3026895.883;27.567;26.226;21.942;30.547;16.280;-5.327;6.109;-16.764
3026895.891;21.085;20.303;15.311;26.152;9.276;-4.247;6.445;-17.248
3026895.899;15.125;15.609;11.884;14.566;3.390;0.075;6.929;-8.792
3026895.907;12.144;11.213;10.133;8.382;4.694;6.519;8.456;1.937
3026895.915;10.543;5.290;9.350;5.700;5.439;11.511;8.829;10.766
3026895.923;8.494;4.396;7.413;2.049;7.227;15.087;10.021;15.199
3026895.931;4.694;1.043;3.502;-1.527;1.155;16.578;10.952;14.901
3026895.939;2.310;0.559;-1.490;1.229;-4.135;9.686;6.184;7.451
3026895.947;9.388;6.966;6.258;9.239;4.880;5.141;4.135;2.719
3026895.955;12.964;12.442;8.419;10.915;5.476;-0.447;-1.490;-3.092
3026895.963;8.382;7.376;2.906;6.594;-3.055;-5.402;-8.047;-7.413
3026895.971;9.760;5.886;4.731;8.307;0.596;-0.075;-3.651;-1.751
3026895.979;9.313;6.743;2.682;11.958;0.671;1.714;-1.639;1.304
3026895.990;10.282;10.729;3.539;12.517;0.373;5.402;1.751;5.066
3026895.998;5.364;4.694;1.043;6.743;-4.545;-0.186;-5.066;0.000
3026896.006;2.608;0.559;2.347;-1.937;-0.596;0.484;-5.178;-0.037
3026896.014;-0.298;-4.768;1.490;-3.651;3.166;3.688;-1.267;1.267
3026896.022;1.416;-3.614;0.633;-0.335;-1.304;8.531;4.992;4.619
3026896.030;3.576;1.714;2.049;2.123;2.719;13.635;11.064;8.605
3026896.038;7.153;7.823;3.874;5.104;0.112;17.807;16.205;10.431
3026896.046;10.058;10.803;7.711;3.576;3.725;21.122;17.807;12.070
3026896.054;13.001;12.405;12.368;12.256;8.121;19.073;13.001;9.313
3026896.062;17.546;13.672;18.142;18.962;15.907;16.429;10.803;6.780
3026896.070;17.025;14.901;16.727;17.881;11.623;14.454;10.468;4.210
3026896.078;17.136;21.867;14.640;18.179;2.608;11.101;10.245;-0.820
3026896.086;22.389;25.034;19.930;21.905;16.093;9.350;12.144;-3.874
3026896.094;22.314;20.005;23.171;22.240;25.481;2.608;5.551;-10.766
3026896.102;21.718;18.850;25.928;17.844;24.401;0.969;2.012;-8.754
3026896.110;17.360;16.503;21.458;11.623;18.701;4.135;1.080;-1.900
3026896.118;12.815;12.852;16.391;10.952;12.740;6.407;1.378;2.943
3026896.126;11.995;9.760;14.007;8.084;5.029;9.649;3.986;7.823
3026896.134;8.754;6.855;9.760;3.502;2.645;9.425;1.043;7.823
3026896.142;13.523;14.231;14.380;5.588;10.356;10.319;3.465;8.084
3026896.150;21.644;20.713;26.263;22.240;21.048;12.852;9.015;8.754
3026896.158;20.154;16.652;24.661;18.105;22.352;9.499;7.525;5.476
3026896.166;17.211;18.515;19.073;10.245;15.758;7.190;6.147;4.284
3026896.174;20.526;19.595;21.830;13.597;22.352;7.637;6.407;6.743
3026896.170;19.632;16.429;20.899;16.391;14.007;4.284;3.353;5.662
3026896.178;20.973;15.758;21.048;18.142;16.280;3.129;2.980;6.147
3026896.186;15.534;11.921;16.019;6.258;10.245;1.937;2.235;5.439
3026896.194;9.798;8.270;10.617;-2.161;8.643;1.118;2.980;5.774
3026896.202;10.207;9.201;9.015;6.706;9.090;4.992;6.482;8.643
3026896.210;8.345;8.978;5.737;10.654;7.376;6.258;6.407;10.133
3026896.218;7.413;5.700;2.868;4.321;-3.204;8.009;7.600;12.182
3026896.226;4.508;-0.335;-0.522;-2.310;-3.725;10.207;7.786;15.050
3026896.234;6.109;1.565;0.149;7.749;3.837;11.958;8.531;17.360
3026896.242;10.058;9.499;6.333;10.803;3.874;9.239;6.817;14.715
3026896.250;14.752;13.597;12.256;9.276;7.041;4.247;4.843;9.760
3026896.258;11.995;11.548;10.058;5.960;7.264;-0.335;2.943;7.190
3026896.266;10.543;8.680;8.121;10.990;9.276;-4.731;0.596;4.880
3026896.274;10.803;6.445;7.972;9.425;9.201;-5.029;0.633;5.290
3026896.282;6.855;4.135;2.719;1.416;4.061;-3.092;0.596;7.376
3026896.290;3.129;2.757;-1.714;-1.229;-0.484;4.359;5.849;11.735
3026896.298;-0.112;0.820;-2.235;1.639;-5.178;9.499;10.952;14.007
3026896.306;2.161;-1.378;-1.639;3.874;-1.341;11.437;15.050;14.082
3026896.314;6.743;6.519;0.633;10.245;-3.725;14.603;19.073;16.131
3026896.322;4.321;4.172;0.000;4.582;-2.310;14.491;17.770;15.870
3026896.330;7.898;10.505;5.104;7.823;5.327;10.878;14.715;14.156
3026896.338;11.660;13.188;7.935;10.356;8.307;10.096;14.231;14.901
3026896.346;12.107;8.568;8.754;7.153;12.517;8.643;12.591;15.534
3026896.354;12.405;8.680;8.792;4.917;7.972;5.066;9.313;13.411
3026896.364;4.768;2.645;1.602;-0.522;-2.682;-1.788;3.204;7.972
3026896.372;1.192;-0.671;-1.155;-0.447;-2.645;-4.210;1.937;5.364
3026896.380;3.576;5.849;-1.937;8.121;-1.267;-0.484;5.104;8.643
3026896.388;5.774;9.537;1.043;5.774;1.490;5.886;8.717;13.113
3026896.396;3.986;6.109;2.645;3.278;3.353;11.437;13.784;13.933
3026896.404;2.086;5.066;1.565;5.700;5.215;12.442;16.764;9.760
3026896.412;3.651;2.980;2.906;6.445;7.264;15.460;21.681;11.697
3026896.420;4.321;2.384;2.235;6.557;0.745;16.466;22.389;13.001
3026896.428;2.161;-0.522;-2.235;-3.763;-3.949;7.600;13.039;6.184
3026896.436;5.290;7.339;0.931;6.445;4.545;4.545;8.903;7.637
3026896.444;2.347;5.290;-0.037;7.786;1.118;-0.671;0.894;6.892
3026896.452;0.298;1.043;-2.421;2.496;-2.757;-2.161;-2.086;6.929
3026896.460;-3.576;-5.439;-5.774;-3.986;-8.382;-4.433;-3.725;4.508
3026896.468;-3.576;-8.307;-4.694;-4.731;-5.662;-2.682;-1.900;4.135
3026896.476;5.066;6.296;2.831;7.451;7.451;7.823;9.276;10.841
3026896.484;10.133;11.027;3.576;13.411;11.697;15.385;19.595;12.666
3026896.492;9.127;8.531;2.310;8.792;5.588;17.472;23.469;11.176
3026896.500;7.227;8.121;2.496;11.995;4.768;11.548;20.005;5.551
3026896.508;13.299;14.380;9.947;18.217;13.039;8.531;18.440;6.631
3026896.516;12.815;15.832;7.860;20.340;8.680;1.751;9.611;5.178
3026896.524;4.023;4.955;-0.075;6.072;-0.447;-5.998;-2.086;2.049
3026896.532;-0.782;0.708;-6.780;-0.671;-5.513;-7.637;-6.892;2.198
3026896.540;-0.075;-1.937;-3.241;0.373;-11.176;-4.619;-6.445;2.868
3026896.548;2.682;0.522;0.298;2.682;3.204;-3.278;-4.955;0.820
3026896.560;4.470;4.955;-0.224;9.090;4.619;0.447;-1.453;2.384
3026896.568;-4.992;-1.565;-9.835;2.757;-8.903;-1.267;-4.247;-2.719
3026896.576;-8.754;-7.898;-13.895;-8.829;-13.001;-1.267;-3.166;-3.427
3026896.584;-5.327;-7.674;-10.133;-7.600;-6.221;1.043;1.490;-1.527
3026896.592;-5.327;-6.817;-8.643;-3.092;-6.519;0.969;4.508;-1.863
3026896.600;-10.319;-10.841;-14.491;-4.843;-16.429;-5.402;0.894;-7.711
3026896.608;-9.015;-7.339;-12.703;-4.731;-15.087;-11.474;-1.341;-14.193
3026896.616;-1.267;0.894;-7.153;6.557;-6.892;-8.456;2.682;-12.442
3026896.624;2.533;5.811;-3.316;10.431;-4.433;-2.161;4.619;-6.072
3026896.632;0.596;2.459;-6.966;8.270;-5.737;-0.186;0.298;-2.719
3026896.640;2.943;-0.224;-2.086;5.811;-4.694;2.310;-2.906;1.229
3026896.648;-1.825;-2.533;-5.253;2.757;-1.751;-1.192;-10.058;-2.682
3026896.656;-0.633;0.261;-5.178;3.688;-4.396;2.794;-8.643;0.075
3026896.664;1.714;0.261;-2.123;8.382;-3.427;6.966;-2.608;1.118
3026896.672;-0.559;-1.900;-4.210;0.335;-5.625;2.980;-1.714;-5.811
3026896.680;2.943;1.714;-1.974;5.029;-7.190;7.413;5.625;-4.768
3026896.688;4.172;2.645;-1.192;5.998;-1.267;9.649;10.319;-7.488
3026896.696;5.849;3.763;0.633;10.245;0.782;8.158;10.617;-9.462
3026896.704;3.763;6.035;-1.565;12.405;-7.451;4.284;6.668;-11.548
3026896.712;-4.359;-1.974;-9.947;4.172;-14.752;-2.868;-3.166;-15.572
3026896.720;-1.304;-3.800;-6.035;4.023;-11.623;2.496;-0.820;-5.141
3026896.728;-2.943;-6.109;-6.072;1.825;-8.009;0.969;-4.992;-4.284
3026896.736;2.608;1.229;-2.086;4.806;-2.347;3.874;-2.235;-0.112
3026896.744;4.470;6.594;-1.267;6.855;-6.035;8.717;4.694;3.576
3026896.755;4.917;6.109;2.645;9.052;-1.565;7.935;5.104;1.937
3026896.763;10.803;9.164;8.382;10.766;2.794;7.711;7.413;-0.373
3026896.771;14.752;12.554;12.666;12.480;9.090;7.041;8.531;-2.496
3026896.779;17.770;16.466;12.405;21.085;7.637;7.078;10.394;-3.055
3026896.787;14.380;10.394;8.196;16.280;3.614;8.270;11.474;-1.006
3026896.795;15.795;12.852;8.270;9.984;3.204;11.511;13.858;3.986
3026896.803;13.262;13.076;9.276;3.912;-0.522;12.964;15.087;5.215
3026896.811;7.637;8.978;3.539;9.127;-1.527;9.201;12.368;1.304
3026896.819;6.966;4.545;1.416;15.944;-5.215;5.551;9.127;-0.894
3026896.827;5.439;0.224;1.080;7.637;-5.104;3.576;6.482;-1.304
3026896.835;5.253;3.278;1.565;1.341;-0.373;4.098;5.886;1.453
3026896.843;5.625;5.625;0.112;5.998;3.502;3.576;4.582;3.427
3026896.851;4.470;1.602;-1.937;15.385;-1.080;2.198;4.135;4.135
3026896.859;9.649;7.935;4.023;15.944;-1.416;2.012;6.147;4.843
3026896.867;12.815;12.442;8.307;11.027;0.000;2.645;8.494;3.241
3026896.875;11.511;7.376;7.451;7.190;0.335;2.235;9.425;3.204
3026896.883;9.835;7.823;3.986;8.903;2.980;1.565;8.456;5.178
3026896.891;3.837;2.868;-1.602;7.786;-6.072;-0.596;4.061;4.880
3026896.899;-0.261;-3.278;-5.625;-0.745;-13.746;-1.118;1.714;3.576
3026896.907;1.378;-1.080;-4.098;-1.304;-7.153;-0.447;2.645;1.378
3026896.915;3.166;1.602;-1.527;9.239;-5.849;-0.186;4.359;0.931
3026896.923;7.190;6.929;1.565;19.185;-3.055;3.017;8.158;3.390
3026896.931;3.912;3.092;-1.676;12.480;-3.576;0.559;5.215;1.155
3026896.939;1.751;-2.906;-3.986;10.580;-9.239;-2.384;1.267;0.708
3026896.950;4.657;2.123;-2.831;6.445;-15.236;-1.118;2.347;3.278
3026896.958;10.505;11.101;3.204;17.583;0.671;-2.682;1.416;2.645
3026896.966;10.207;10.468;2.347;19.073;8.121;-2.943;2.235;1.043
3026896.974;8.494;7.339;3.465;13.076;3.763;-0.708;6.445;1.863
3026896.982;3.874;-1.900;-0.410;4.359;-3.129;-4.210;2.459;-2.235
3026896.990;3.725;-1.416;-2.868;5.662;-6.780;-5.141;2.421;-2.794
3026896.998;8.941;8.568;2.943;15.646;5.960;-1.751;7.786;1.714
3026897.006;8.866;9.164;3.092;10.133;-0.075;5.923;13.933;8.754
3026897.014;-1.229;-4.917;-9.313;-4.098;-11.213;3.837;10.245;7.041
3026897.022;-4.396;-6.668;-11.995;-1.751;-17.025;2.272;7.376;6.631
3026897.030;-1.304;-3.017;-8.605;6.221;-7.451;3.353;6.855;7.823
3026897.038;-3.129;0.410;-12.890;5.700;-9.350;-1.974;1.788;3.465
3026897.046;0.559;2.272;-9.649;4.023;-6.631;0.447;4.284;5.253
3026897.054;7.376;5.849;-1.341;12.740;-1.788;3.576;8.084;7.376
3026897.062;12.033;12.591;2.310;16.168;1.974;4.992;9.201;6.594
3026897.070;8.158;8.382;1.006;14.640;-1.565;0.410;5.811;2.161
3026897.078;3.092;1.565;-1.900;5.364;-1.900;-6.929;-2.198;-2.682
3026897.086;4.694;5.960;-2.943;9.090;-4.806;-2.906;0.820;0.820
3026897.094;3.874;3.688;-4.359;12.778;-6.929;-1.043;3.092;3.502
3026897.102;0.186;-0.037;-8.345;6.631;-5.886;-2.868;1.676;2.570
3026897.110;-2.868;-3.390;-10.692;5.737;-5.066;-6.482;-0.298;-2.161
3026897.118;-0.484;-2.235;-8.382;3.316;-3.055;-4.955;-0.224;-1.490
3026897.126;-0.149;1.378;-7.786;4.880;-8.196;-0.447;1.080;2.533
3026897.134;-2.682;-6.780;-9.239;2.310;-10.543;0.633;-0.186;0.931
3026897.157;-0.931;-5.811;-6.035;4.880;-3.614;1.043;0.969;-0.857
3026897.165;2.012;3.166;-3.837;12.890;-2.682;2.161;2.310;-0.522
3026897.173;3.316;4.210;-5.253;10.170;-3.278;2.049;0.894;-0.186
3026897.181;6.035;6.668;-1.527;9.798;-2.496;1.900;1.118;0.000
3026897.189;6.743;3.278;1.527;13.858;0.894;1.602;1.527;-1.080
3026897.197;5.215;2.757;0.298;13.672;2.645;3.278;4.172;-0.484
3026897.205;0.484;3.055;-4.843;7.674;0.335;1.900;3.390;-3.166
3026897.213;-2.384;-0.745;-9.052;8.903;-7.972;-1.900;-0.484;-8.419
3026897.221;1.080;0.075;-7.004;14.566;-3.949;-1.006;0.596;-7.153
3026897.229;-2.235;0.298;-10.468;8.568;-6.035;-1.341;-0.894;-6.966
3026897.237;-9.574;-6.184;-13.933;7.562;-11.399;2.421;1.453;-4.098
3026897.245;-4.657;-4.843;-6.296;8.047;-7.488;7.302;5.178;0.522
3026897.253;-3.688;-1.751;-6.706;7.078;-8.605;3.986;0.931;-0.335
3026897.261;1.080;2.645;-3.166;11.362;-2.347;6.817;3.614;2.570
3026897.269;4.880;4.992;0.112;14.529;0.410;7.041;4.433;1.937
3026897.277;5.439;4.657;1.118;19.073;2.421;5.960;3.837;0.708
3026897.285;0.522;-0.410;-2.682;8.643;-4.359;2.235;0.820;-4.247
3026897.293;1.751;2.645;-1.714;9.537;-1.602;3.912;2.384;-3.986
3026897.301;4.284;5.923;1.080;14.789;7.078;6.147;3.166;-1.639
3026897.309;5.104;5.662;2.272;18.552;1.974;6.258;1.863;-1.825
3026897.317;12.293;15.423;8.121;27.865;4.992;4.247;0.000;-2.719
3026897.325;17.323;22.985;13.001;36.359;10.282;1.341;-2.570;-4.843
3026897.333;28.946;31.665;26.561;36.284;16.913;5.513;1.416;-1.937
3026897.341;40.457;43.549;39.637;44.145;27.232;12.480;7.749;4.284
3026897.323;46.827;50.701;46.864;55.581;41.164;10.952;6.817;3.129
3026897.331;57.034;64.075;56.438;72.494;49.919;11.176;6.706;4.917
3026897.339;59.679;67.055;59.530;71.973;55.507;13.486;6.817;8.382
3026897.347;62.361;70.073;61.207;72.382;51.819;10.431;3.651;6.184
3026897.355;66.198;76.741;61.207;75.288;50.329;12.219;7.078;7.227
3026897.363;67.391;75.623;64.820;78.529;53.272;12.964;11.250;6.370
3026897.371;65.602;70.594;65.453;79.088;53.495;12.852;13.635;5.141
3026897.379;59.456;65.975;57.146;69.439;50.254;10.915;12.815;3.390
3026897.387;54.352;61.095;50.850;60.387;44.331;7.562;10.654;2.831
3026897.395;49.025;55.693;44.480;55.879;38.072;2.384;3.614;1.118
3026897.403;44.107;49.509;38.035;51.521;34.161;-1.267;-2.123;-0.112
3026897.411;37.625;39.786;35.204;43.288;32.522;-0.671;-1.490;0.857
3026897.419;23.916;28.796;21.271;30.063;14.976;-2.757;-4.098;-2.384
3026897.427;20.787;23.022;18.291;23.879;13.448;-3.055;-1.527;-2.384
3026897.435;21.793;26.114;18.403;28.498;15.050;0.298;4.061;1.453
3026897.443;15.460;15.721;10.282;20.415;4.619;-2.123;3.316;-1.490
3026897.451;12.442;12.703;8.196;14.491;6.892;-4.210;2.645;-2.645
3026897.459;11.511;11.958;7.562;12.629;10.356;-2.161;5.700;-1.676
3026897.467;11.399;10.990;9.611;12.331;10.133;-3.688;4.731;-2.459
3026897.475;13.970;12.815;12.182;19.632;13.039;-3.912;2.943;-0.373
3026897.483;15.274;14.454;13.113;19.372;10.729;-3.763;3.092;1.341
3026897.491;14.640;17.211;11.884;22.277;8.345;-3.837;2.757;1.788
3026897.499;6.668;5.402;2.198;8.754;-0.149;-7.898;-1.341;-3.576
3026897.507;3.874;3.241;-1.974;9.425;-2.794;-9.947;-3.055;-5.960
3026897.518;10.617;10.468;3.502;14.044;5.700;0.037;5.290;4.545
3026897.526;9.723;7.674;6.706;15.311;10.803;-0.224;4.061;4.843
3026897.534;12.070;10.021;8.792;16.056;10.021;2.198;7.041;8.456
3026897.542;13.337;12.219;8.754;18.589;8.568;6.035;12.591;11.958
3026897.550;11.995;9.611;6.147;15.423;3.204;5.737;14.603;10.021
3026897.558;13.411;14.789;6.780;19.073;1.155;6.780;17.732;10.617
3026897.566;4.247;5.960;0.261;11.697;0.671;-1.639;9.015;2.943
3026897.574;5.700;5.811;-0.484;9.201;5.662;-4.433;2.608;3.465
3026897.582;5.513;1.490;0.484;7.562;-0.261;-6.258;-2.868;4.694
3026897.590;3.800;-1.825;2.868;2.757;0.671;-6.296;-4.768;4.023
3026897.598;9.127;7.749;6.072;7.898;4.470;4.061;6.109;12.629
3026897.606;7.153;10.319;2.645;7.413;2.421;8.196;10.654;16.801
3026897.614;-0.671;-1.453;-7.562;5.178;-5.998;3.204;4.880;12.554
3026897.622;-1.565;-6.258;-7.376;2.310;-11.437;3.055;5.662;11.064
3026897.630;1.676;1.080;-3.017;1.602;-2.161;2.347;5.849;11.064
3026897.638;-2.123;-3.874;-5.998;-2.682;-7.562;0.410;4.508;9.239
3026897.646;-3.278;-3.129;-4.023;-4.135;-7.153;1.304;6.445;8.866
3026897.654;3.763;-0.447;2.645;7.786;-1.341;4.061;10.692;10.841
3026897.662;5.737;-0.894;4.731;3.502;9.201;6.109;11.995;11.474
3026897.670;3.502;0.894;0.149;2.049;1.490;4.023;7.674;8.345
3026897.678;1.825;-0.820;-2.496;-2.086;-6.817;1.229;3.800;5.327
3026897.686;-1.490;-3.614;-8.084;-1.118;-9.425;0.261;3.427;3.316
3026897.694;3.614;1.974;-1.527;8.345;-0.075;1.341;6.184;4.433
3026897.702;3.614;2.049;0.931;8.121;1.937;2.570;6.407;6.333
3026897.715;-2.049;-4.023;-3.465;1.863;-1.043;1.974;2.719;8.754
3026897.723;-6.855;-7.786;-8.047;-7.376;-6.221;2.272;0.559;9.574
3026897.731;-12.107;-15.907;-14.529;-10.990;-13.262;2.012;0.522;7.674
3026897.739;-7.935;-10.170;-12.480;-4.359;-6.780;9.760;8.419;13.337
3026897.747;-7.935;-7.562;-13.113;0.186;-9.052;14.752;16.317;15.013
3026897.755;-11.474;-13.076;-16.391;-8.754;-16.168;6.482;11.027;6.333
3026897.763;-6.109;-6.557;-9.760;-6.482;-3.539;1.267;7.488;1.937
3026897.771;1.416;0.037;-3.055;6.855;0.410;2.757;9.984;3.092
3026897.779;9.388;3.912;3.688;15.944;1.825;4.061;9.462;4.694
3026897.787;7.413;8.009;3.986;12.107;3.055;2.719;7.078;2.533
3026897.795;-1.304;1.229;-5.625;4.172;-3.725;-0.261;3.353;-2.384
3026897.803;1.043;-2.570;-1.937;-1.416;6.072;5.402;8.233;-0.112
3026897.811;3.688;1.229;4.061;9.350;9.090;8.680;10.505;2.421
3026897.819;2.831;3.427;1.863;10.356;4.172;9.723;9.872;6.519
3026897.827;-2.980;-3.986;-5.029;5.066;-1.788;7.339;7.227;6.892
3026897.835;-4.694;-5.588;-7.190;0.298;-8.084;5.774;5.811;6.072
3026897.843;-4.657;-3.017;-7.488;2.794;-10.841;10.356;10.580;9.835
3026897.851;-4.917;-7.898;-8.717;3.539;-4.433;7.004;7.153;6.370
3026897.859;-0.484;-2.272;-3.055;9.127;-0.745;2.980;2.831;3.204
3026897.867;4.731;4.359;2.831;16.168;7.600;4.508;3.576;4.731
3026897.875;4.917;5.923;2.496;14.678;3.241;4.321;2.831;4.135
3026897.883;3.353;2.421;1.825;7.451;-0.596;3.055;2.645;2.012
3026897.891;3.837;1.714;2.384;8.419;5.178;-0.931;-1.043;-5.029
3026897.899;4.321;1.043;1.974;10.058;6.594;-9.350;-9.127;-14.529
3026897.908;5.327;5.849;1.155;11.623;6.743;-12.480;-11.399;-15.870
3026897.916;1.378;4.433;1.714;10.878;-5.998;-18.850;-19.222;-15.981
3026897.924;5.141;6.482;5.439;12.033;0.522;-15.683;-17.174;-9.611
3026897.932;-2.049;-2.347;-2.868;7.153;-3.539;-18.217;-20.005;-12.182
3026897.940;-11.250;-10.394;-11.511;-2.012;-10.766;-16.913;-17.695;-13.337
3026897.948;-13.448;-10.021;-14.231;-5.886;-9.164;-6.668;-8.270;-8.903
3026897.956;-16.913;-14.119;-19.372;-6.072;-19.707;-0.224;-3.874;-5.588
3026897.964;-15.050;-13.225;-15.497;-1.751;-13.225;2.719;-3.092;-2.198
3026897.972;-15.236;-14.417;-12.740;-3.129;-5.960;2.235;-5.029;-2.049
3026897.980;-15.274;-14.864;-13.039;-5.513;-10.319;-1.639;-7.972;-5.886
3026897.988;-13.039;-12.219;-13.523;-2.310;-15.572;-8.643;-14.007;-13.970
3026897.996;-6.370;-6.333;-8.345;5.476;-11.623;-15.013;-17.472;-21.197
3026898.004;6.147;8.419;3.166;22.203;3.278;-11.846;-12.852;-19.968
3026898.012;6.072;11.586;4.359;20.750;5.625;-10.356;-9.276;-19.893
3026898.020;-4.172;-2.012;-5.364;9.425;-6.482;-9.462;-8.382;-18.962
3026898.028;-13.188;-13.188;-15.683;-0.708;-13.262;-5.737;-6.594;-13.374
3026898.036;-21.458;-18.664;-23.507;-10.505;-20.415;-0.969;-5.811;-8.307
3026898.044;-25.220;-19.446;-26.077;-14.864;-23.320;3.465;-3.614;-3.576
3026898.052;-22.277;-22.724;-23.209;-11.623;-16.503;8.047;-0.075;0.745
3026898.060;-16.354;-19.968;-16.466;-9.760;-22.091;7.227;-1.453;0.075
3026898.068;-12.778;-14.827;-12.554;-3.763;-18.924;0.484;-5.439;-6.109
3026898.076;-10.654;-6.184;-9.723;2.570;-10.505;-8.158;-12.480;-12.666
3026898.084;-14.342;-10.319;-11.437;-3.278;-12.033;-17.174;-22.128;-18.254
3026898.092;-10.207;-9.760;-6.594;-5.476;-4.023;-22.016;-24.848;-23.618
3026898.117;2.757;-0.112;2.570;10.058;0.373;-22.091;-20.340;-27.008
3026898.125;6.855;6.706;3.278;15.125;-1.416;-17.211;-13.411;-23.618
3026898.133;3.502;5.476;2.980;8.643;-3.539;-17.993;-15.050;-20.638
3026898.141;6.407;8.792;7.935;9.798;6.929;-11.325;-12.107;-9.611
3026898.149;4.284;2.533;4.806;5.253;7.823;-2.533;-6.519;0.596
3026898.157;-0.447;-3.539;1.080;-2.123;-2.459;1.490;-3.614;6.296
3026898.165;-6.333;-10.021;-3.204;-8.047;-4.806;-4.880;-10.580;0.820
3026898.173;-7.041;-9.052;-4.284;-7.376;-4.210;-10.468;-14.566;-6.221
3026898.181;-1.080;-1.527;0.857;3.353;3.688;-13.337;-14.938;-9.611
3026898.189;4.321;4.992;5.513;8.270;5.439;-14.976;-13.448;-12.629
3026898.197;5.700;8.903;5.625;13.150;3.837;-16.056;-12.368;-15.460
3026898.205;9.276;9.947;6.370;16.131;2.943;-11.697;-7.786;-13.858
3026898.213;9.462;7.637;6.035;15.311;1.490;-6.594;-2.310;-11.474
3026898.221;9.611;7.972;6.258;12.890;0.633;-4.619;0.559;-9.686
3026898.229;5.364;8.084;5.364;10.058;4.619;-6.296;0.782;-9.425
3026898.237;-2.533;-0.671;-3.725;7.264;0.708;-11.586;-4.098;-11.697
3026898.245;-6.109;-7.302;-7.525;1.192;-4.470;-10.543;-5.141;-5.886
3026898.253;-9.462;-11.809;-10.207;-9.425;-7.860;-8.382;-6.296;-0.931
3026898.261;-5.104;-3.353;-8.158;-3.241;-10.058;-4.172;-3.316;2.608
3026898.269;-3.651;-4.768;-7.376;2.570;-8.158;-4.619;-3.576;1.527
3026898.277;-4.545;-6.407;-8.009;-1.267;-7.115;-6.333;-4.955;0.075
3026898.285;-4.433;-7.376;-6.258;-4.992;-5.402;-10.245;-7.078;-5.737
3026898.293;-8.903;-10.505;-11.399;-5.476;-12.405;-17.993;-11.325;-15.050
3026898.301;-6.370;-6.072;-10.990;4.768;-12.740;-15.125;-6.221;-15.721
3026898.284;-3.204;-3.055;-6.333;8.270;-4.023;-14.305;-4.694;-15.013
3026898.292;-8.345;-10.170;-11.697;-9.723;-9.537;-21.085;-13.597;-17.956
3026898.300;-13.374;-15.013;-15.646;-12.703;-16.876;-21.495;-18.775;-15.683
3026898.308;-16.205;-17.695;-17.844;-10.766;-17.770;-20.191;-21.346;-10.170
3026898.316;-15.274;-13.784;-19.521;-11.325;-20.824;-15.944;-19.409;-2.757
3026898.324;-17.509;-17.211;-20.787;-13.188;-19.222;-13.635;-16.317;-2.645
3026898.332;-12.778;-14.603;-15.646;-7.823;-8.009;-8.382;-8.941;-1.602
3026898.340;-11.846;-13.784;-14.864;-10.096;-9.090;-6.333;-4.731;-3.800
3026898.348;-9.947;-11.846;-12.890;-5.253;-11.101;-9.798;-6.519;-8.903
3026898.356;-6.333;-4.433;-8.568;-3.129;-12.033;-16.354;-10.692;-15.385
3026898.364;-4.880;-3.390;-7.637;2.086;-9.835;-23.730;-15.423;-21.011
3026898.372;-2.608;-2.459;-5.290;-0.373;-5.290;-24.699;-15.795;-20.079
3026898.380;-3.427;-7.786;-5.141;-0.186;-1.788;-26.003;-19.260;-20.713
3026898.388;-11.511;-16.354;-15.907;-11.586;-10.990;-28.908;-25.108;-23.879
3026898.396;-14.193;-15.609;-16.503;-13.933;-14.752;-21.942;-23.134;-17.434
3026898.404;-17.732;-16.242;-18.999;-15.423;-16.876;-18.030;-23.246;-14.603
3026898.412;-22.389;-21.383;-24.214;-20.452;-25.108;-15.832;-22.650;-12.070
3026898.420;-20.638;-22.911;-23.879;-18.217;-18.440;-11.735;-15.981;-8.456
3026898.428;-17.956;-17.025;-21.532;-14.678;-19.819;-9.611;-10.245;-6.519
3026898.436;-9.537;-7.749;-15.087;-6.258;-21.011;-4.768;-1.304;-3.763
3026898.444;-2.757;0.820;-12.033;3.316;-11.995;-4.508;2.049;-6.817
3026898.452;4.359;7.451;-3.092;12.480;-11.362;-2.421;6.445;-7.823
3026898.460;7.041;6.445;3.055;14.864;-0.447;-3.502;4.806;-10.468
3026898.468;5.402;5.588;2.496;6.147;4.917;-9.090;-3.092;-16.242
3026898.479;2.272;-1.453;-0.708;4.806;0.186;-10.654;-7.041;-18.999
3026898.487;-9.537;-10.654;-12.442;-8.531;-9.127;-18.477;-16.987;-23.991
3026898.495;-20.489;-20.824;-22.426;-20.601;-18.850;-25.220;-28.238;-27.530
3026898.503;-24.401;-26.189;-25.630;-18.179;-22.426;-24.438;-30.883;-24.997
3026898.511;-25.034;-25.891;-27.120;-18.068;-29.877;-18.775;-24.848;-18.179
3026898.519;-23.432;-26.785;-26.487;-20.787;-24.885;-14.193;-17.174;-13.635
3026898.527;-15.460;-18.030;-18.366;-16.503;-18.924;-12.480;-13.635;-11.325
3026898.535;-9.052;-7.935;-14.007;-4.694;-11.809;-13.039;-14.752;-11.884
3026898.543;-6.370;-6.780;-10.692;0.075;-12.442;-14.454;-17.397;-13.709
3026898.551;-2.086;-1.453;-6.035;-0.894;-12.070;-12.033;-14.976;-11.697
3026898.559;-4.135;-4.768;-7.451;-4.359;-8.270;-13.225;-14.491;-14.044
3026898.567;-5.811;-7.302;-9.201;-1.453;-9.723;-14.305;-14.529;-16.391
3026898.575;-2.682;-3.465;-5.104;3.017;-8.680;-10.431;-13.262;-12.778
3026898.583;-10.766;-9.760;-13.262;0.075;-11.809;-11.176;-17.062;-13.188
3026898.591;-21.532;-22.575;-22.389;-18.030;-20.787;-13.970;-21.756;-13.076
3026898.599;-31.888;-34.980;-32.745;-28.610;-27.530;-18.552;-26.263;-16.652
3026898.607;-32.037;-28.424;-33.937;-22.054;-31.926;-18.850;-26.301;-19.222
3026898.615;-21.346;-18.999;-23.767;-11.027;-29.765;-11.995;-16.615;-15.423
3026898.623;-14.082;-10.431;-17.360;-5.923;-16.354;-5.178;-6.929;-13.337
3026898.631;-5.439;0.484;-11.101;5.998;-12.778;0.149;1.565;-13.337
3026898.639;-0.075;2.794;-6.184;9.201;-7.376;0.373;4.098;-17.174
3026898.647;0.335;3.055;-2.496;9.015;-5.253;-1.602;2.123;-19.707
3026898.655;-4.396;-3.688;-6.631;4.470;-5.178;-10.543;-9.164;-25.108
3026898.663;-5.886;-4.619;-7.562;0.708;-6.184;-16.764;-18.738;-26.040
3026898.675;-10.729;-10.058;-12.442;-5.998;-13.635;-21.383;-27.828;-26.338
3026898.683;-15.050;-20.005;-16.391;-14.007;-16.578;-25.146;-34.831;-28.573
3026898.691;-20.117;-22.240;-19.483;-12.778;-17.360;-26.524;-38.855;-29.728
3026898.699;-22.538;-24.103;-24.661;-16.019;-19.185;-19.670;-34.645;-23.097
3026898.707;-21.793;-20.824;-20.973;-15.534;-25.369;-10.319;-23.842;-15.013
3026898.715;-21.048;-21.197;-20.340;-17.658;-23.097;-9.686;-21.309;-15.646
3026898.723;-19.632;-17.658;-19.073;-6.407;-16.540;-10.505;-21.569;-17.844
3026898.731;-17.695;-14.417;-17.285;-2.086;-16.578;-9.164;-17.956;-19.073
3026898.739;-17.844;-14.156;-18.962;-3.055;-23.656;-6.557;-13.635;-19.781
3026898.747;-18.366;-15.311;-19.148;-9.127;-26.487;-8.047;-13.001;-25.332
3026898.755;-16.578;-15.944;-18.850;-9.388;-19.372;-14.454;-17.285;-30.436
3026898.763;-12.852;-11.027;-13.001;-0.894;-16.317;-16.727;-21.681;-26.971
3026898.771;-15.162;-15.087;-12.070;-2.347;-11.399;-15.348;-23.805;-21.793
3026898.779;-18.217;-17.732;-14.007;-11.772;-17.472;-9.686;-21.048;-12.591
3026898.787;-19.409;-19.148;-17.174;-19.819;-21.346;1.043;-15.795;-3.129
3026898.795;-26.971;-27.679;-25.108;-23.283;-28.647;3.502;-16.205;-2.049
3026898.803;-26.487;-27.679;-22.948;-21.309;-22.277;3.576;-14.976;-3.316
3026898.811;-22.426;-21.718;-19.036;-15.683;-19.707;3.166;-11.176;-7.823
3026898.819;-13.970;-12.703;-11.697;-6.184;-14.976;12.591;3.204;-2.570
3026898.827;-5.290;-0.745;-2.086;-0.559;-12.703;20.601;14.491;2.459
3026898.835;1.602;7.190;3.390;5.513;-4.433;17.323;14.715;-0.447
3026898.843;3.874;11.288;3.576;14.976;-4.061;7.562;7.413;-6.221
3026898.851;-1.043;2.421;0.261;10.468;-12.442;-3.949;-3.576;-13.225
3026898.859;0.149;-1.453;2.012;3.912;-2.608;-5.066;-6.035;-10.617
3026898.869;-6.706;-7.451;-4.955;-7.413;-7.190;-3.912;-8.158;-7.227
3026898.877;-13.746;-9.798;-10.841;-9.760;-8.792;-6.668;-14.491;-9.499
3026898.885;-15.125;-11.362;-10.133;-8.568;-11.921;-6.445;-12.033;-9.835
3026898.893;-21.867;-20.042;-19.334;-17.099;-28.647;-9.537;-11.474;-16.317
3026898.901;-22.799;-25.332;-21.607;-24.848;-27.120;-7.451;-6.035;-15.274
3026898.909;-13.523;-10.245;-12.964;-7.898;-17.583;0.075;1.192;-5.774
3026898.917;-5.849;-0.708;-5.960;7.674;-6.519;3.390;2.719;0.671
3026898.925;-0.894;5.066;-2.012;8.866;-4.992;7.749;8.009;5.290
3026898.933;-3.912;-3.353;-5.662;1.304;-13.039;5.253;7.153;0.969
3026898.941;-3.576;-5.104;-2.533;-2.272;-9.388;-1.527;3.017;-6.482
3026898.949;-1.676;-2.235;0.112;-2.272;-5.215;-7.898;-2.198;-12.182
3026898.957;-1.490;-2.682;1.714;0.224;-3.651;-14.119;-8.792;-17.323
3026898.965;-3.763;-7.264;0.745;-3.539;-0.969;-14.231;-10.319;-14.491
3026898.973;-13.150;-15.609;-8.568;-14.901;-10.729;-15.534;-15.087;-12.070
3026898.981;-16.429;-19.222;-14.752;-14.864;-17.136;-10.990;-12.703;-3.576
3026898.989;-14.864;-15.199;-13.635;-10.915;-15.758;-4.619;-6.966;3.204
3026898.997;-15.534;-15.609;-15.125;-6.594;-15.497;-2.384;-4.657;3.055
3026899.005;-5.998;-5.849;-4.694;-0.261;-6.966;5.439;6.557;7.302
3026899.013;-3.278;0.708;-4.545;5.141;-10.207;9.909;11.548;9.313
3026899.021;-5.588;1.118;-8.084;4.433;-14.380;5.253;8.456;3.874
3026899.029;-5.849;-2.645;-6.780;1.229;-10.990;0.745;6.296;-0.969
3026899.037;-8.307;-5.476;-6.743;1.118;-3.465;-3.576;2.347;-5.029
3026899.045;-10.580;-11.511;-8.717;-2.533;-3.204;-4.880;0.373;-3.316
3026899.053;-11.213;-13.076;-7.041;-10.021;-4.806;-6.072;-1.825;-1.714
3026899.064;-13.262;-11.064;-9.947;-13.858;-13.635;-8.456;-5.402;-1.937
3026899.072;-15.125;-12.815;-13.225;-12.331;-15.609;-10.952;-10.245;-2.086
3026899.080;-13.188;-10.766;-12.815;-8.382;-20.117;-8.978;-10.058;0.447
3026899.088;-9.388;-9.276;-10.580;-1.900;-12.517;-2.421;-3.837;5.662
3026899.096;-3.502;-3.837;-4.768;-4.731;-7.302;6.035;7.562;9.537
3026899.104;-1.974;1.825;-3.092;1.416;-11.958;8.680;12.890;7.749
3026899.112;1.937;6.817;-0.298;13.672;-4.768;13.672;18.738;11.027
3026899.120;2.794;6.184;-0.633;11.437;-1.006;11.697;14.752;11.623
3026899.128;-2.421;-0.708;-3.502;-0.633;-10.319;3.651;4.582;7.823
3026899.136;-5.364;-4.396;-4.992;-2.570;-6.855;-2.421;-2.645;4.880
3026899.144;-6.706;-4.470;-8.233;-3.353;-8.829;-6.557;-7.637;3.949
3026899.152;-8.419;-8.568;-11.250;-5.029;-13.597;-10.990;-11.846;-0.522
3026899.160;-11.437;-10.058;-10.952;-9.425;-14.603;-15.497;-17.397;-5.998
3026899.168;-16.615;-15.981;-15.981;-11.176;-17.099;-14.305;-17.732;-5.290
3026899.176;-18.068;-19.856;-16.168;-14.827;-17.993;-11.586;-14.417;-3.874
3026899.184;-15.087;-14.007;-14.305;-11.548;-13.970;-5.923;-6.817;0.633
3026899.192;-11.213;-9.462;-10.431;-5.551;-14.007;-0.186;-1.043;4.098
3026899.200;-6.370;-4.210;-7.674;1.825;-11.101;2.235;0.671;6.072
3026899.208;-5.998;-4.880;-7.711;2.086;-11.548;1.863;0.522;5.439
3026899.216;-4.694;-3.502;-6.333;-3.353;-11.176;1.006;0.149;2.123
3026899.224;2.272;7.823;-1.937;5.849;-6.743;1.006;1.416;1.788
3026899.232;2.421;5.476;-1.974;10.133;-8.717;1.602;1.490;3.092
3026899.240;-1.714;2.496;-4.657;8.717;-8.568;5.141;4.321;5.886
3026899.248;-5.811;-1.788;-7.078;1.155;-7.898;4.657;5.178;4.545
3026899.245;-10.803;-8.568;-11.213;-4.210;-10.915;-2.533;-1.229;-2.533
3026899.253;-8.941;-7.264;-8.978;-1.416;-9.350;-1.565;-2.980;2.012
3026899.261;-15.311;-12.852;-15.013;-10.505;-16.466;-4.061;-6.966;2.235
3026899.269;-20.228;-19.483;-17.844;-17.323;-15.721;-7.078;-9.611;-0.559
3026899.277;-15.683;-13.672;-14.491;-12.219;-14.156;-3.465;-6.594;2.794
3026899.285;-9.909;-9.425;-9.947;-0.633;-8.829;-2.496;-5.439;1.788
3026899.293;-2.459;1.676;-2.682;4.582;-4.582;-3.502;-6.631;-0.224
3026899.301;4.359;10.990;4.917;13.150;4.731;-0.969;-4.396;0.149
3026899.309;8.270;14.305;10.394;19.111;6.855;2.459;-2.682;1.006
3026899.317;18.366;23.395;21.532;24.810;12.368;5.439;0.969;2.570
3026899.325;27.977;32.932;33.043;35.428;24.438;7.935;3.502;4.396
3026899.333;30.920;34.347;37.625;37.402;31.888;10.319;7.004;5.513
3026899.341;30.771;30.063;38.221;31.665;29.877;11.437;6.743;6.445
3026899.349;30.771;39.637;40.010;42.804;33.826;6.482;-0.633;4.731
3026899.357;32.149;47.013;40.345;49.695;27.604;3.763;-5.886;5.476
3026899.365;39.600;50.440;46.194;52.489;35.092;1.788;-9.015;5.178
3026899.373;47.907;53.830;56.401;53.570;45.039;-1.378;-12.144;2.384
3026899.381;50.217;58.264;57.630;58.562;41.425;-5.476;-15.534;-1.937
3026899.389;50.627;66.608;54.501;66.832;41.462;-8.196;-16.205;-5.327
3026899.397;53.309;68.918;55.060;69.365;46.901;-2.086;-8.196;-1.304
3026899.405;50.105;64.410;50.887;63.963;40.345;4.992;-2.012;2.533
3026899.413;36.806;44.033;35.241;46.752;22.575;9.388;1.714;1.900
3026899.421;27.604;34.831;28.983;38.929;18.142;21.271;12.368;9.872
3026899.429;12.182;23.656;14.678;27.195;8.270;18.924;8.196;8.643
3026899.439;-4.843;5.811;-1.006;7.600;-8.382;8.605;-3.055;0.559
3026899.447;-12.182;-5.364;-7.339;-4.880;-10.915;-2.608;-13.299;-10.058
3026899.455;-14.640;-13.001;-7.935;-15.460;-11.325;-11.250;-21.756;-14.678
3026899.463;-16.019;-18.291;-7.711;-16.205;-11.660;-14.193;-25.928;-11.697
3026899.471;-15.870;-16.615;-7.711;-11.623;-10.431;-12.219;-25.034;-6.706
3026899.479;-21.607;-20.154;-15.199;-20.266;-16.689;-13.262;-25.667;-9.090
3026899.487;-23.395;-19.744;-19.819;-24.699;-26.636;-13.001;-24.810;-11.586
3026899.495;-19.446;-16.019;-17.472;-15.013;-29.132;-8.270;-20.936;-8.680
3026899.503;-22.650;-19.260;-20.266;-17.844;-21.495;-3.614;-18.552;-7.786
3026899.511;-28.275;-23.283;-23.842;-17.770;-21.532;0.522;-13.374;-7.339
3026899.519;-31.404;-24.401;-28.498;-21.979;-25.481;8.121;-2.570;-3.241
3026899.527;-36.433;-31.330;-32.410;-30.287;-34.273;8.941;1.378;-3.874
3026899.535;-35.018;-32.894;-31.851;-32.187;-37.439;9.090;1.490;-3.241
3026899.543;-31.814;-32.857;-29.467;-34.012;-30.883;6.706;-2.012;-3.576
3026899.551;-26.189;-26.785;-19.111;-28.871;-25.742;1.937;-7.115;-4.433
3026899.559;-19.222;-16.280;-14.007;-14.752;-19.521;-1.974;-9.798;-5.066
3026899.567;-17.956;-18.552;-12.480;-19.148;-16.838;-9.201;-15.758;-10.617
3026899.575;-13.635;-16.280;-8.047;-19.446;-6.221;-9.276;-15.907;-8.941
3026899.583;-14.007;-12.852;-12.219;-14.529;-11.921;-8.754;-15.981;-8.419
3026899.591;-19.409;-14.678;-20.526;-15.646;-21.942;-12.480;-20.079;-12.927
3026899.599;-21.607;-16.764;-22.314;-12.591;-21.458;-7.004;-13.746;-8.568
3026899.607;-23.134;-18.850;-24.065;-12.591;-24.289;5.066;-1.378;0.745
3026899.615;-26.785;-20.750;-26.785;-17.844;-32.485;11.325;6.370;5.700
3026899.623;-32.112;-27.865;-32.671;-26.226;-34.496;11.995;8.494;5.849
3026899.636;-36.433;-33.751;-37.178;-34.496;-39.339;8.680;5.774;5.141
3026899.644;-36.694;-34.571;-35.316;-35.539;-40.866;0.410;-3.278;1.751
3026899.652;-34.869;-36.471;-28.647;-37.588;-24.885;-9.164;-14.268;-3.688
3026899.660;-25.071;-27.865;-17.695;-33.490;-11.064;-14.044;-19.446;-5.215
3026899.668;-20.564;-22.799;-13.411;-28.685;-12.703;-20.079;-25.332;-9.984
3026899.676;-16.503;-20.526;-11.548;-25.555;-11.697;-21.048;-26.524;-11.101
3026899.684;-15.460;-20.824;-11.511;-25.183;-15.683;-14.752;-20.154;-6.370
3026899.692;-15.572;-17.025;-10.952;-21.271;-16.540;-11.958;-16.131;-7.041
3026899.700;-16.689;-15.721;-11.697;-15.311;-15.497;-8.568;-11.027;-7.823
3026899.708;-20.750;-20.340;-18.068;-20.266;-17.658;-5.998;-7.264;-8.978
3026899.716;-27.046;-26.338;-26.450;-23.842;-26.077;-5.588;-6.296;-9.649
3026899.724;-35.688;-36.247;-36.210;-39.376;-38.631;-7.376;-8.084;-8.196
3026899.732;-45.188;-44.927;-46.976;-43.623;-51.446;-5.066;-9.798;-3.241
3026899.740;-48.690;-49.248;-47.348;-46.045;-41.947;-3.949;-12.331;0.782
3026899.748;-52.601;-52.452;-47.088;-51.074;-39.116;-10.096;-21.085;-4.694
3026899.756;-47.162;-44.592;-41.798;-46.007;-37.141;-11.995;-23.581;-7.525
3026899.764;-33.453;-29.653;-30.398;-36.322;-31.516;-6.072;-17.174;-3.688
3026899.772;-23.469;-21.793;-20.117;-24.252;-23.209;-4.359;-14.640;-2.757
3026899.780;-12.703;-13.672;-12.815;-12.815;-9.537;-5.066;-15.199;-3.017
3026899.788;-7.674;-6.668;-6.445;-8.456;-4.210;-6.221;-14.827;-6.035
3026899.796;-7.376;-6.706;-6.557;-12.666;-10.878;-4.768;-11.437;-6.817
3026899.804;-8.941;-8.456;-7.004;-16.168;-15.646;-4.880;-8.754;-7.451
3026899.812;-10.580;-11.809;-7.115;-13.635;-4.955;-6.258;-8.196;-9.686
3026899.820;-19.297;-21.495;-17.062;-22.091;-10.766;-7.562;-8.196;-11.325
3026899.829;-28.685;-30.883;-29.244;-29.914;-28.051;-3.688;-5.923;-4.806
3026899.837;-35.986;-35.726;-33.639;-33.379;-32.857;-2.757;-7.935;0.969
3026899.845;-36.322;-30.473;-31.181;-28.275;-26.077;-0.596;-7.972;4.098
3026899.853;-38.557;-35.614;-34.608;-27.828;-29.244;-3.874;-11.586;0.522
3026899.861;-32.634;-31.814;-30.585;-28.163;-23.954;-1.378;-9.164;1.937
3026899.869;-30.734;-31.516;-26.710;-31.777;-27.940;-4.098;-11.660;-1.639
3026899.877;-29.430;-27.679;-27.418;-26.189;-19.446;-8.494;-15.497;-6.072
3026899.885;-28.461;-26.263;-30.324;-22.426;-16.391;-8.345;-13.635;-7.339
3026899.893;-29.355;-29.169;-30.287;-26.710;-19.446;-10.207;-16.429;-8.531
3026899.901;-25.369;-25.742;-24.214;-25.257;-16.950;-6.743;-14.529;-3.651
3026899.909;-22.165;-24.624;-20.787;-23.656;-12.927;-5.551;-13.746;-4.172
3026899.917;-25.518;-30.026;-25.146;-27.865;-16.168;-4.843;-11.027;-8.121
3026899.925;-22.613;-23.581;-24.587;-27.046;-18.217;-3.539;-7.451;-7.749
3026899.933;-21.979;-20.638;-25.034;-24.065;-18.366;-1.378;-6.296;-4.433
3026899.941;-23.022;-21.011;-28.349;-23.060;-24.065;-0.671;-6.892;-2.459
3026899.949;-27.195;-29.802;-32.783;-28.647;-24.512;-3.055;-11.064;-3.129
3026899.957;-30.436;-35.204;-32.783;-32.783;-28.126;-6.966;-17.472;-4.508
3026899.965;-30.361;-32.559;-32.969;-35.092;-24.252;-7.786;-18.887;-4.247
3026899.973;-27.493;-27.567;-29.951;-30.510;-19.185;-5.402;-15.758;-3.278
3026899.981;-20.750;-19.670;-23.544;-20.750;-15.907;-3.725;-12.442;-3.017
3026899.989;-18.217;-17.174;-20.564;-14.082;-13.709;-1.751;-8.158;-3.278
3026899.997;-23.171;-24.699;-27.083;-22.464;-18.142;-6.035;-11.027;-8.903
3026900.005;-25.406;-24.550;-30.696;-26.301;-27.195;-9.201;-14.193;-11.660
3026900.013;-28.461;-30.398;-29.579;-27.865;-28.238;-14.491;-19.856;-16.689
3026900.023;-30.361;-32.783;-30.287;-30.734;-20.154;-16.876;-21.234;-17.472
3026900.031;-33.565;-37.998;-34.235;-37.290;-23.879;-17.025;-19.930;-17.658
3026900.039;-35.465;-39.190;-34.422;-36.806;-24.475;-17.025;-19.185;-17.658
3026900.047;-35.241;-35.316;-35.278;-35.912;-25.705;-15.385;-19.260;-14.305
3026900.055;-37.365;-36.769;-40.345;-33.900;-34.012;-19.036;-25.257;-17.397
3026900.063;-31.106;-33.230;-35.092;-27.157;-26.450;-18.403;-25.034;-18.179
3026900.071;-26.561;-26.673;-29.877;-24.401;-24.214;-18.962;-25.369;-20.936
3026900.079;-23.358;-20.526;-27.604;-20.824;-21.085;-18.589;-25.257;-20.862
3026900.087;-27.344;-26.189;-31.963;-24.736;-25.481;-21.569;-25.183;-25.034
3026900.095;-34.794;-35.278;-38.445;-31.739;-29.691;-23.730;-25.369;-28.089
3026900.103;-35.800;-34.906;-39.078;-31.926;-36.135;-25.183;-26.561;-27.418
3026900.111;-34.347;-28.908;-38.818;-26.226;-28.498;-28.647;-29.840;-30.957
3026900.119;-25.742;-19.446;-29.616;-18.515;-21.681;-23.432;-23.916;-29.579
3026900.127;-22.054;-18.887;-23.246;-21.867;-22.426;-21.905;-23.954;-29.504
3026900.135;-24.512;-24.326;-26.114;-24.475;-20.638;-26.152;-30.920;-30.473
3026900.143;-25.667;-23.581;-28.275;-19.297;-22.352;-20.415;-27.604;-21.718
3026900.151;-30.696;-29.095;-32.112;-29.653;-26.636;-13.225;-21.383;-14.789
3026900.159;-38.333;-36.471;-38.706;-38.929;-30.883;-12.219;-21.048;-14.715
3026900.167;-38.333;-35.055;-41.164;-34.720;-32.708;-8.233;-17.136;-12.256
