Timestamp,AFz,AF3,AF4,AF7,AF8,Pz,P3,P4,2024-04-18 12:07:02.253,fs=125
3027153.271;-390.336;-762.716;-1310.334;-229.664;-190.698;-408.329;-221.133;-160.560
3027153.279;-391.044;-764.206;-1305.342;-243.932;-193.976;-411.011;-222.363;-163.838
3027153.287;-396.110;-771.694;-1307.726;-261.851;-198.223;-410.564;-220.016;-162.981
3027153.295;-403.486;-782.274;-1311.526;-280.142;-199.750;-415.631;-224.635;-166.856
3027153.303;-405.386;-782.721;-1308.545;-279.285;-202.209;-419.952;-230.409;-168.644
3027153.311;-398.755;-769.533;-1296.476;-271.387;-190.511;-420.958;-231.378;-167.303
3027153.319;-401.326;-774.153;-1297.332;-285.395;-200.197;-420.548;-231.043;-166.483
3027153.327;-410.043;-783.429;-1302.026;-297.390;-216.477;-419.915;-230.595;-164.844
3027153.335;-410.900;-782.348;-1295.842;-296.198;-209.697;-424.236;-234.023;-168.905
3027153.343;-400.171;-769.198;-1281.798;-294.447;-191.405;-421.517;-229.217;-165.850
3027153.351;-393.316;-756.234;-1273.938;-277.348;-190.102;-419.058;-226.051;-162.423
3027153.359;-396.632;-757.799;-1272.634;-274.591;-195.578;-421.591;-227.652;-163.950
3027153.367;-396.185;-760.742;-1268.238;-280.030;-199.340;-415.668;-220.947;-158.362
3027153.375;-398.941;-763.647;-1265.891;-292.324;-212.006;-408.813;-214.167;-151.284
3027153.383;-400.394;-754.260;-1265.332;-288.710;-219.680;-406.280;-213.273;-146.069
3027153.391;-397.637;-753.514;-1257.993;-288.412;-223.033;-403.337;-211.485;-141.598
3027153.399;-395.253;-754.669;-1250.915;-285.804;-213.310;-406.615;-214.726;-145.212
3027153.407;-392.906;-752.732;-1243.949;-286.363;-203.885;-413.470;-217.594;-153.035
3027153.415;-394.583;-745.356;-1244.321;-286.587;-212.528;-424.273;-226.572;-161.827
3027153.423;-394.546;-744.872;-1237.653;-283.122;-212.342;-432.581;-234.060;-166.483
3027153.431;-390.075;-737.458;-1226.440;-282.340;-210.330;-429.526;-230.297;-161.640
3027153.439;-393.502;-733.621;-1228.079;-278.242;-223.517;-430.532;-231.527;-161.640
3027153.447;-389.665;-733.212;-1220.144;-278.279;-216.253;-425.130;-227.094;-155.084
3027153.455;-386.350;-724.047;-1215.897;-272.281;-220.537;-422.485;-224.859;-153.370
3027153.449;-384.673;-722.744;-1210.459;-278.130;-225.976;-415.295;-217.073;-149.272
3027153.457;-381.321;-719.018;-1200.400;-275.671;-214.875;-408.106;-210.889;-143.945
3027153.465;-378.490;-712.611;-1193.993;-271.834;-205.077;-410.676;-214.651;-145.882
3027153.473;-377.968;-706.539;-1190.752;-266.880;-215.210;-415.333;-219.308;-149.347
3027153.481;-377.744;-704.415;-1186.729;-265.613;-228.994;-415.258;-217.184;-151.731
3027153.489;-369.996;-695.176;-1175.478;-263.564;-224.784;-426.471;-225.492;-164.174
3027153.497;-365.935;-687.353;-1169.443;-260.770;-214.800;-428.371;-226.125;-167.117
3027153.505;-366.978;-684.261;-1167.394;-265.352;-216.886;-420.064;-218.004;-159.144
3027153.513;-364.110;-685.565;-1160.800;-267.997;-217.035;-411.496;-211.596;-148.490
3027153.521;-361.092;-681.132;-1147.576;-259.653;-216.439;-408.329;-209.138;-145.920
3027153.529;-355.132;-671.297;-1138.896;-254.214;-209.063;-405.759;-208.020;-143.833
3027153.537;-353.903;-665.300;-1134.984;-257.492;-217.967;-401.586;-203.587;-141.114
3027153.545;-366.271;-679.605;-1142.211;-265.501;-229.813;-407.808;-210.255;-149.496
3027153.553;-362.992;-665.411;-1137.704;-258.014;-227.541;-404.716;-206.865;-145.659
3027153.561;-355.951;-660.717;-1124.628;-252.835;-218.153;-398.569;-199.117;-140.667
3027153.569;-348.352;-650.324;-1115.650;-239.238;-209.101;-398.681;-199.825;-140.443
3027153.577;-343.695;-641.830;-1108.944;-233.464;-205.673;-399.649;-201.128;-140.890
3027153.585;-349.768;-643.246;-1109.429;-242.442;-223.443;-402.145;-205.263;-144.131
3027153.593;-352.412;-645.816;-1107.380;-253.730;-230.819;-403.225;-206.046;-144.392
3027153.601;-350.289;-647.791;-1098.476;-247.285;-221.021;-399.202;-201.091;-141.077
3027153.609;-347.234;-638.701;-1096.092;-237.487;-224.821;-399.500;-200.346;-140.108
3027153.617;-351.369;-634.491;-1097.582;-242.591;-230.335;-402.741;-203.587;-139.624
3027153.625;-351.854;-635.423;-1094.081;-258.498;-234.954;-399.202;-202.097;-136.197
3027153.633;-349.134;-635.944;-1085.177;-249.892;-239.797;-396.408;-200.644;-136.495
3027153.644;-341.423;-620.186;-1074.076;-232.533;-239.573;-393.018;-196.174;-137.538
3027153.652;-330.470;-616.424;-1060.367;-222.586;-223.666;-385.791;-187.010;-132.620
3027153.660;-317.991;-602.752;-1042.895;-215.210;-206.977;-375.547;-174.232;-123.307
3027153.668;-316.799;-580.177;-1034.327;-219.755;-209.212;-377.856;-176.728;-126.176
3027153.676;-319.369;-584.088;-1037.084;-220.984;-217.818;-379.793;-180.975;-128.001
3027153.684;-322.014;-592.321;-1034.141;-220.202;-222.065;-381.246;-185.296;-128.224
3027153.692;-319.369;-591.800;-1023.971;-223.406;-213.198;-379.421;-185.631;-125.729
3027153.700;-317.730;-578.538;-1015.961;-228.770;-214.912;-374.541;-181.757;-121.444
3027153.708;-316.612;-569.746;-1013.912;-217.259;-219.271;-377.111;-183.657;-126.734
3027153.716;-314.154;-568.517;-1009.852;-211.708;-218.414;-375.435;-181.012;-128.597
3027153.724;-326.261;-588.037;-1020.730;-228.360;-244.044;-375.025;-181.124;-131.167
3027153.732;-331.327;-589.825;-1017.228;-247.508;-236.891;-372.492;-180.006;-127.517
3027153.740;-321.195;-573.061;-999.160;-230.633;-223.033;-363.551;-172.295;-116.676
3027153.748;-312.850;-558.160;-990.182;-209.510;-217.967;-361.353;-170.320;-113.994
3027153.756;-312.328;-557.527;-985.488;-222.735;-225.455;-366.680;-177.100;-119.917
3027153.764;-306.554;-546.835;-977.628;-221.208;-218.153;-367.425;-177.957;-123.419
3027153.772;-295.900;-539.571;-961.460;-202.209;-210.516;-362.694;-168.905;-122.488
3027153.780;-284.240;-522.956;-942.908;-186.488;-205.487;-359.193;-160.858;-120.960
3027153.788;-289.641;-522.919;-948.906;-192.635;-210.740;-360.869;-162.050;-122.301
3027153.796;-298.023;-536.405;-956.058;-212.081;-232.421;-354.871;-158.213;-116.229
3027153.804;-297.129;-527.352;-948.422;-211.038;-226.721;-348.985;-156.276;-111.647
3027153.812;-298.843;-524.446;-949.502;-197.999;-223.890;-342.689;-152.513;-107.028
3027153.820;-296.608;-518.672;-942.871;-199.936;-233.278;-344.962;-155.382;-107.065
3027153.828;-301.078;-524.521;-942.834;-208.505;-242.218;-345.223;-156.686;-105.463
3027153.838;-303.909;-525.415;-939.928;-221.767;-242.069;-335.760;-150.502;-97.528
3027153.846;-302.829;-526.458;-931.546;-225.790;-241.846;-331.253;-146.516;-96.895
3027153.854;-298.806;-515.729;-925.101;-213.683;-234.842;-333.935;-148.267;-100.881
3027153.862;-297.502;-509.880;-924.207;-206.307;-237.189;-335.611;-150.241;-103.489
3027153.870;-295.155;-510.626;-918.359;-211.932;-236.034;-337.213;-151.210;-104.234
3027153.878;-281.408;-493.042;-900.030;-202.805;-237.562;-333.898;-144.616;-100.397
3027153.886;-275.671;-482.760;-889.339;-196.099;-231.043;-332.855;-142.641;-100.099
3027153.894;-283.457;-484.288;-893.436;-199.303;-240.542;-337.660;-147.820;-104.047
3027153.902;-284.165;-483.394;-890.568;-197.515;-244.305;-332.296;-141.971;-100.918
3027153.910;-290.833;-494.197;-891.574;-210.665;-245.050;-333.674;-142.567;-101.961
3027153.918;-292.733;-490.993;-891.648;-217.557;-252.277;-334.568;-140.592;-100.136
3027153.926;-284.836;-484.586;-878.572;-210.591;-238.717;-329.912;-135.563;-92.536
3027153.934;-277.311;-470.169;-863.001;-200.607;-234.693;-332.072;-138.879;-91.679
3027153.942;-276.640;-469.610;-862.293;-205.971;-246.204;-336.803;-145.510;-98.050
3027153.950;-274.740;-470.690;-857.823;-207.722;-240.467;-342.764;-151.396;-105.351
3027153.958;-270.046;-454.783;-848.919;-196.435;-235.103;-341.497;-152.178;-104.718
3027153.966;-263.527;-438.429;-837.967;-188.164;-223.704;-337.772;-150.315;-101.142
3027153.974;-263.937;-443.347;-833.385;-190.213;-231.415;-334.755;-146.143;-97.118
3027153.982;-267.774;-450.611;-835.508;-206.456;-245.236;-332.966;-142.008;-96.224
3027153.990;-264.198;-437.982;-826.903;-199.117;-237.674;-329.912;-137.649;-93.989
3027153.998;-264.682;-432.767;-826.642;-195.019;-247.173;-323.094;-129.715;-88.252
3027154.006;-265.576;-429.414;-821.576;-190.176;-239.126;-320.338;-126.623;-86.948
3027154.014;-260.733;-430.346;-812.672;-193.380;-233.613;-318.624;-124.276;-84.266
3027154.022;-258.163;-429.749;-806.451;-193.082;-238.791;-322.461;-128.336;-87.656
3027154.049;-260.435;-426.061;-803.657;-198.483;-238.642;-332.706;-140.443;-98.161
3027154.057;-259.802;-427.701;-798.404;-199.042;-236.519;-331.029;-142.232;-95.852
3027154.065;-256.002;-420.995;-793.673;-199.080;-239.946;-326.931;-140.592;-94.511
3027154.073;-251.792;-413.805;-786.260;-188.164;-241.175;-324.547;-140.294;-92.164
3027154.081;-240.654;-396.483;-771.284;-169.873;-227.652;-317.171;-131.764;-85.719
3027154.089;-233.203;-389.926;-759.065;-162.870;-232.719;-310.130;-121.333;-82.515
3027154.097;-235.997;-392.422;-756.644;-168.309;-224.523;-311.285;-118.390;-84.639
3027154.105;-237.077;-386.238;-755.489;-168.681;-225.864;-313.409;-115.670;-88.923
3027154.113;-239.275;-378.005;-756.048;-168.309;-239.536;-310.019;-110.939;-87.060
3027154.121;-245.385;-386.648;-756.495;-172.742;-246.838;-311.546;-114.664;-86.427
3027154.129;-242.591;-386.760;-748.523;-166.409;-237.525;-308.119;-114.776;-82.180
3027154.137;-244.677;-390.187;-747.331;-169.873;-244.677;-305.139;-117.123;-78.231
3027154.145;-248.030;-392.310;-749.677;-179.335;-257.269;-309.572;-127.032;-82.329
3027154.153;-233.538;-368.506;-728.294;-163.727;-238.456;-304.915;-123.791;-78.455
3027154.161;-221.320;-354.685;-711.121;-151.396;-222.698;-293.218;-112.131;-68.285
3027154.169;-227.839;-364.147;-714.399;-167.787;-236.332;-294.186;-111.200;-71.563
3027154.177;-232.682;-370.219;-717.528;-170.767;-244.901;-300.445;-113.100;-78.417
3027154.185;-233.352;-364.967;-714.846;-166.111;-237.450;-303.686;-114.925;-81.025
3027154.193;-233.352;-361.130;-712.760;-168.644;-247.471;-301.488;-111.572;-80.653
3027154.201;-226.274;-348.017;-698.715;-157.319;-231.266;-293.292;-103.228;-75.325
3027154.209;-221.841;-344.999;-690.445;-158.325;-229.068;-289.343;-100.955;-72.718
3027154.217;-224.486;-351.295;-692.159;-171.214;-237.115;-289.977;-105.388;-71.973
3027154.225;-232.831;-351.481;-696.518;-165.366;-249.818;-293.702;-115.149;-74.059
3027154.233;-234.172;-352.003;-690.892;-167.117;-237.487;-294.857;-120.625;-72.643
3027154.228;-222.549;-337.400;-678.450;-163.391;-237.711;-286.698;-113.659;-64.224
3027154.236;-222.102;-336.915;-675.172;-165.664;-240.430;-290.424;-118.539;-69.253
3027154.244;-224.896;-339.299;-676.513;-174.381;-255.816;-290.088;-117.645;-71.749
3027154.252;-222.884;-331.849;-669.025;-164.844;-254.661;-280.738;-106.730;-66.757
3027154.260;-209.510;-317.991;-647.642;-149.161;-225.492;-279.732;-102.334;-69.290
3027154.268;-200.681;-303.835;-636.950;-143.535;-220.910;-271.313;-90.674;-65.826
3027154.276;-205.487;-311.323;-638.515;-152.364;-227.801;-269.637;-87.880;-65.826
3027154.284;-207.163;-311.211;-637.434;-157.990;-236.742;-267.774;-86.613;-64.783
3027154.292;-203.289;-306.778;-632.219;-163.168;-237.674;-265.799;-87.507;-60.871
3027154.300;-201.613;-300.743;-624.582;-157.766;-230.223;-265.762;-92.946;-57.705
3027154.308;-211.410;-308.044;-628.419;-162.758;-238.493;-272.915;-104.271;-62.659
3027154.316;-215.024;-309.162;-629.462;-162.981;-247.546;-273.809;-105.686;-64.932
3027154.324;-211.075;-303.686;-622.794;-161.342;-246.279;-267.401;-97.379;-60.722
3027154.332;-207.908;-299.662;-617.579;-169.985;-247.881;-256.449;-86.799;-53.421
3027154.340;-196.360;-287.965;-599.958;-152.625;-238.679;-245.497;-77.710;-48.392
3027154.348;-186.488;-263.117;-584.796;-124.238;-218.712;-240.020;-70.073;-49.248
3027154.356;-183.173;-258.461;-580.475;-121.519;-221.245;-237.525;-64.261;-50.589
3027154.364;-183.918;-264.384;-579.245;-135.414;-225.268;-239.536;-64.299;-53.383
3027154.372;-191.256;-269.897;-582.151;-148.602;-232.719;-247.806;-71.637;-61.542
3027154.380;-192.188;-266.470;-581.555;-147.223;-243.597;-250.824;-77.225;-61.579
3027154.388;-194.013;-273.436;-581.145;-146.292;-238.456;-250.004;-79.982;-55.209
3027154.396;-203.438;-278.652;-581.220;-156.574;-249.036;-254.437;-88.476;-55.581
3027154.404;-194.870;-261.776;-566.766;-158.474;-232.011;-247.993;-84.601;-47.795
3027154.412;-184.998;-253.320;-551.604;-136.606;-213.608;-241.548;-80.168;-44.256
3027154.409;-181.645;-248.626;-548.586;-136.085;-220.984;-236.854;-75.325;-45.076
3027154.417;-183.135;-254.214;-550.710;-143.461;-239.722;-226.572;-62.771;-40.941
3027154.425;-183.322;-246.316;-544.675;-146.367;-235.848;-222.959;-58.077;-41.686
3027154.433;-175.089;-232.570;-537.224;-128.224;-223.629;-220.053;-53.644;-42.170
3027154.441;-173.822;-235.625;-532.195;-126.362;-221.245;-223.517;-55.395;-48.317
3027154.449;-173.859;-229.441;-529.252;-135.750;-232.458;-232.793;-64.149;-57.183
3027154.457;-174.418;-229.962;-525.452;-139.140;-237.189;-234.544;-66.906;-57.369
3027154.465;-178.404;-237.226;-523.664;-141.971;-235.662;-232.384;-65.677;-54.613
3027154.473;-172.742;-226.311;-514.761;-135.973;-226.125;-227.131;-60.946;-48.727
3027154.481;-173.114;-220.276;-510.737;-139.102;-228.062;-226.125;-60.685;-47.460
3027154.489;-178.888;-225.082;-511.520;-144.579;-242.926;-227.913;-63.293;-47.535
3027154.497;-177.547;-226.572;-507.720;-145.696;-242.405;-227.168;-63.665;-47.572
3027154.505;-174.567;-224.076;-500.008;-149.943;-232.980;-226.647;-62.771;-48.913
3027154.513;-164.919;-212.006;-488.944;-134.036;-231.341;-218.041;-52.899;-42.506
3027154.521;-157.617;-211.820;-479.557;-132.062;-221.990;-218.712;-53.160;-42.096
3027154.529;-156.015;-199.415;-471.585;-135.377;-221.431;-227.019;-60.536;-49.770
3027154.537;-155.941;-190.288;-466.555;-131.316;-221.804;-231.229;-64.075;-54.315
3027154.545;-155.494;-193.901;-466.704;-134.669;-223.778;-224.747;-58.524;-49.658
3027154.553;-147.335;-190.698;-455.938;-124.350;-210.777;-212.081;-46.641;-35.912
3027154.561;-150.837;-183.806;-452.250;-125.244;-217.259;-217.222;-52.638;-39.190
3027154.569;-155.792;-181.794;-455.305;-128.597;-224.486;-223.815;-61.020;-45.411
3027154.577;-146.814;-173.710;-442.192;-124.462;-216.588;-221.841;-60.014;-42.319
3027154.585;-142.865;-175.461;-438.504;-123.605;-219.420;-218.004;-55.917;-36.098
3027154.593;-143.051;-170.991;-438.951;-121.295;-223.182;-213.943;-52.266;-34.235
3027154.604;-141.449;-169.650;-430.085;-122.786;-218.339;-211.634;-50.105;-35.316
3027154.612;-138.432;-169.687;-421.926;-122.488;-212.453;-215.210;-53.532;-38.408
3027154.620;-130.646;-155.941;-413.284;-114.776;-208.989;-210.218;-47.721;-34.496
3027154.628;-130.869;-151.582;-410.788;-116.229;-213.273;-209.585;-47.646;-34.757
3027154.636;-131.130;-155.382;-406.317;-116.117;-210.106;-207.163;-46.231;-31.888
3027154.644;-137.389;-162.534;-404.455;-122.748;-208.952;-213.273;-53.421;-39.563
3027154.652;-128.895;-147.335;-394.359;-113.323;-206.418;-209.808;-50.180;-36.471
3027154.660;-126.474;-136.681;-391.118;-111.051;-205.971;-213.683;-54.985;-37.067
3027154.668;-134.818;-144.690;-399.053;-124.983;-218.041;-221.580;-63.926;-43.511
3027154.676;-136.979;-157.915;-395.440;-128.411;-219.345;-219.867;-62.585;-40.233
3027154.684;-135.377;-158.250;-390.336;-126.436;-208.318;-215.061;-60.424;-35.800
3027154.692;-125.132;-130.311;-378.974;-117.794;-207.163;-202.991;-48.801;-26.524
3027154.700;-121.184;-122.190;-372.268;-114.553;-198.036;-202.507;-48.317;-29.132
3027154.708;-115.223;-119.098;-358.149;-107.214;-193.194;-199.005;-45.188;-29.393
3027154.716;-112.802;-119.433;-353.493;-98.683;-196.882;-196.695;-40.494;-29.542
3027154.724;-111.423;-116.192;-351.071;-102.669;-198.968;-197.999;-38.333;-33.863
3027154.732;-114.441;-121.184;-347.644;-109.039;-197.850;-203.811;-44.852;-39.153
3027154.740;-124.164;-135.228;-354.238;-127.517;-206.567;-205.934;-50.329;-38.557
3027154.748;-127.107;-129.603;-356.100;-128.597;-211.895;-202.470;-51.185;-34.049
3027154.756;-118.166;-109.710;-348.017;-109.598;-206.567;-191.405;-43.698;-23.022
3027154.764;-117.645;-113.212;-343.584;-109.822;-215.769;-179.037;-31.888;-13.486
3027154.772;-118.427;-116.825;-339.970;-117.011;-213.385;-173.338;-25.146;-10.803
3027154.780;-120.737;-117.682;-335.574;-113.174;-198.260;-173.673;-22.575;-13.597
3027154.788;-124.276;-117.682;-338.629;-120.662;-215.881;-185.519;-31.218;-27.306
3027154.798;-114.255;-102.371;-327.006;-110.529;-207.834;-187.866;-30.883;-31.143
3027154.806;-102.073;-89.221;-309.274;-96.969;-187.755;-183.471;-23.022;-28.796
3027154.814;-103.042;-92.871;-307.187;-98.757;-195.354;-183.359;-23.060;-28.089
3027154.822;-110.716;-98.236;-307.187;-113.435;-205.599;-187.196;-31.888;-28.946
3027154.830;-116.713;-105.798;-309.125;-119.582;-196.174;-187.680;-39.041;-26.301
3027154.838;-113.770;-92.275;-305.250;-110.827;-199.787;-179.261;-35.577;-18.105
3027154.846;-120.625;-101.812;-308.342;-116.602;-206.605;-179.298;-37.886;-19.036
3027154.854;-130.199;-108.443;-315.458;-124.723;-221.357;-180.751;-41.239;-21.383
3027154.862;-128.075;-109.822;-313.334;-128.374;-220.612;-170.507;-30.734;-13.784
3027154.870;-128.858;-109.486;-309.795;-133.999;-224.039;-167.564;-24.848;-16.280
3027154.878;-126.623;-99.987;-302.941;-126.623;-216.253;-174.642;-28.498;-26.561
3027154.886;-115.708;-86.576;-290.610;-110.641;-207.685;-177.026;-28.275;-30.994
3027154.894;-111.945;-84.266;-285.208;-107.884;-210.702;-184.923;-36.024;-38.706
3027154.902;-109.076;-82.105;-280.552;-110.529;-207.908;-189.543;-41.574;-41.351
3027154.910;-101.477;-66.459;-266.992;-107.177;-199.750;-182.539;-36.508;-34.645
3027154.918;-99.912;-60.834;-260.547;-94.324;-200.309;-175.200;-30.473;-27.157
3027154.926;-113.025;-77.374;-271.760;-108.108;-215.732;-177.100;-36.098;-29.467
3027154.934;-119.209;-90.860;-274.368;-124.313;-219.904;-169.240;-32.447;-23.358
3027154.942;-120.513;-89.481;-271.685;-133.216;-214.875;-159.703;-26.524;-14.044
3027154.950;-120.103;-77.449;-269.860;-119.098;-218.414;-163.205;-31.516;-17.546
3027154.958;-112.690;-69.216;-259.168;-108.220;-200.607;-162.460;-29.244;-18.924
3027154.966;-103.861;-62.436;-242.442;-105.463;-197.552;-157.580;-22.948;-16.317
3027154.974;-105.537;-73.202;-240.654;-111.498;-204.518;-163.093;-26.077;-23.730
3027154.982;-104.420;-65.826;-242.889;-115.521;-211.745;-170.842;-30.808;-34.459
3027155.007;-93.170;-47.795;-226.758;-98.348;-194.907;-169.799;-30.361;-36.694
3027155.015;-89.109;-40.270;-217.892;-90.487;-184.141;-172.257;-35.763;-38.706
3027155.023;-90.487;-38.370;-215.881;-96.783;-181.161;-169.985;-35.018;-35.092
3027155.031;-84.378;-32.671;-207.759;-90.413;-184.365;-158.101;-25.667;-21.569
3027155.039;-89.519;-41.649;-211.522;-93.989;-188.462;-152.849;-23.693;-15.609
3027155.047;-93.095;-40.680;-211.075;-101.738;-195.280;-149.012;-21.756;-13.001
3027155.055;-96.820;-39.749;-210.404;-96.746;-207.201;-149.198;-23.022;-14.342
3027155.063;-101.291;-48.168;-210.255;-107.773;-206.716;-153.072;-25.071;-21.718
3027155.071;-94.995;-43.772;-199.340;-102.222;-191.294;-149.012;-18.813;-22.799
3027155.079;-85.980;-28.349;-190.437;-97.752;-183.508;-145.659;-14.268;-22.203
3027155.087;-81.658;-17.844;-183.731;-84.117;-195.950;-150.017;-18.664;-27.083
3027155.095;-74.208;-12.703;-175.722;-72.047;-191.927;-149.086;-18.142;-26.338
3027155.103;-71.488;-5.439;-168.495;-81.025;-188.723;-145.473;-17.174;-23.209
3027155.111;-61.318;4.061;-154.302;-66.273;-173.077;-136.383;-10.803;-16.503
3027155.119;-53.868;4.768;-144.802;-63.255;-161.529;-131.764;-8.047;-12.293
3027155.127;-58.115;0.931;-144.690;-73.090;-164.807;-134.148;-12.442;-14.678
3027155.135;-62.101;-0.447;-142.492;-79.609;-165.813;-131.875;-13.933;-8.680
3027155.143;-64.373;2.980;-140.183;-77.449;-172.108;-133.850;-16.727;-8.047
3027155.151;-67.092;4.135;-143.163;-85.756;-178.926;-135.712;-16.540;-9.015
3027155.159;-74.804;-7.600;-150.800;-90.711;-195.242;-137.910;-15.944;-14.193
3027155.167;-68.545;-2.943;-138.842;-92.238;-182.092;-135.042;-9.462;-14.640
3027155.175;-58.301;9.760;-128.075;-78.529;-168.234;-133.067;-6.706;-14.305
3027155.183;-52.638;17.844;-118.725;-71.228;-163.615;-129.826;-5.066;-11.176
3027155.191;-53.048;19.707;-116.676;-76.331;-168.309;-129.230;-6.258;-8.456
3027155.189;-44.145;29.840;-106.543;-63.814;-163.764;-122.823;-1.676;0.149
3027155.197;-47.684;24.624;-105.686;-69.998;-171.661;-125.431;-6.147;-1.676
3027155.205;-55.172;19.222;-108.890;-79.125;-179.149;-135.154;-14.454;-7.600
3027155.213;-68.098;0.522;-115.745;-96.224;-170.916;-134.483;-13.225;-5.998
3027155.221;-60.461;16.466;-107.586;-90.823;-170.618;-125.878;-3.353;0.484
3027155.229;-34.049;51.782;-81.621;-51.633;-158.884;-118.949;4.321;5.104
3027155.237;-27.120;57.518;-74.804;-47.721;-164.509;-115.894;6.072;7.376
3027155.245;-12.256;63.851;-56.885;-41.202;-167.564;-114.515;6.780;7.488
3027155.253;7.637;87.656;-34.943;-20.303;-152.998;-102.520;18.813;14.678
3027155.261;26.599;119.992;-12.293;9.574;-139.698;-93.952;27.083;20.899
3027155.269;34.980;123.717;-0.931;30.361;-120.290;-94.101;28.946;20.415
3027155.277;31.926;125.282;-3.092;31.702;-128.597;-97.789;26.338;15.348
3027155.285;29.653;125.244;-5.290;38.929;-143.796;-93.728;30.324;17.099
3027155.293;27.381;125.803;-6.855;31.888;-149.533;-87.805;37.216;19.707
3027155.301;27.679;131.465;-0.484;24.773;-147.335;-82.515;43.102;25.220
3027155.309;29.728;125.617;8.233;32.447;-125.132;-81.807;44.927;26.114
3027155.317;24.326;117.794;3.651;18.068;-129.156;-86.389;39.674;23.171
3027155.325;12.554;112.019;-7.972;16.689;-147.335;-90.785;35.614;20.564
3027155.333;1.676;103.712;-14.231;-1.527;-163.019;-94.324;29.616;16.317
3027155.341;4.061;105.165;-8.233;-0.894;-155.084;-91.381;29.206;18.217
3027155.349;3.204;101.291;-7.376;-0.894;-154.898;-83.372;32.410;23.469
3027155.357;0.782;99.167;-7.302;-0.559;-162.423;-75.586;39.861;26.785
3027155.365;4.917;114.217;-1.751;3.204;-158.586;-68.769;48.243;31.628
3027155.373;6.482;123.009;3.614;11.139;-160.076;-70.184;49.882;28.014
3027155.371;10.543;120.141;10.207;17.770;-155.531;-71.079;50.962;26.859
3027155.379;14.715;119.172;17.211;8.307;-146.069;-72.308;51.223;25.742
3027155.387;14.603;121.482;22.203;10.505;-146.590;-76.480;48.131;23.246
3027155.395;7.451;121.295;17.099;8.121;-153.705;-81.807;41.053;21.271
3027155.403;-5.737;103.638;5.737;-4.284;-167.526;-86.091;32.783;18.254
3027155.411;-13.374;94.324;0.261;-13.411;-170.097;-84.676;31.069;18.887
3027155.419;-13.821;95.107;2.161;-17.621;-174.232;-78.082;36.694;23.209
3027155.427;6.966;121.593;26.934;2.831;-153.333;-73.649;40.792;25.667
3027155.435;6.706;117.794;30.957;-4.247;-152.625;-73.984;39.600;25.220
3027155.443;5.104;115.447;31.777;-4.917;-154.227;-74.506;39.078;23.618
3027155.451;9.760;122.972;36.173;7.078;-152.104;-76.070;37.253;22.277
3027155.459;5.886;118.911;35.502;6.035;-157.505;-75.698;37.551;22.613
3027155.467;3.614;111.498;38.520;2.831;-161.752;-76.592;37.812;19.707
3027155.475;7.339;128.448;43.027;5.886;-155.084;-76.294;38.818;19.372
3027155.483;7.115;136.308;46.417;14.044;-150.874;-72.829;39.823;22.314
3027155.491;0.596;122.078;42.915;11.213;-156.909;-71.526;39.600;22.203
3027155.499;-4.694;111.945;41.053;-1.527;-158.474;-66.720;43.623;24.587
3027155.507;-5.029;116.713;44.331;-5.513;-155.270;-63.181;45.709;27.791
3027155.515;0.298;122.264;53.272;1.267;-150.129;-57.518;49.509;33.788
3027155.523;-0.857;122.115;53.234;2.533;-150.800;-57.779;47.795;30.585
3027155.531;0.335;127.256;54.538;3.986;-153.519;-55.507;52.080;28.871
3027155.539;5.290;132.881;60.834;6.631;-149.347;-52.042;59.120;30.547
3027155.547;12.331;137.947;70.743;11.958;-152.849;-51.223;61.616;29.802
3027155.555;19.483;144.430;80.727;12.442;-142.530;-50.999;61.132;29.467
3027155.563;13.858;139.438;78.231;7.972;-142.418;-54.836;54.389;25.071
3027155.571;4.321;124.164;71.451;3.017;-155.978;-59.381;46.939;23.134
3027155.579;0.782;125.840;71.079;-6.855;-148.043;-61.952;42.766;21.569
3027155.587;-2.980;128.187;71.451;0.894;-150.949;-64.299;39.563;18.477
3027155.595;-4.657;123.009;73.127;-2.608;-154.376;-61.058;40.717;23.171
3027155.603;-6.184;122.413;73.761;-11.325;-159.703;-57.258;42.208;26.710
3027155.611;-7.041;126.101;73.239;-2.496;-163.801;-56.028;40.680;25.071
3027155.619;-1.974;127.852;80.355;1.453;-158.772;-50.813;47.386;26.934
3027155.627;0.484;131.838;86.278;1.118;-149.161;-51.595;47.833;25.108
3027155.635;1.490;130.385;92.871;-0.745;-141.263;-52.936;44.070;21.532
3027155.643;5.998;140.145;99.167;3.278;-141.077;-47.162;47.311;24.997
3027155.651;5.066;137.761;98.720;0.969;-151.023;-46.231;45.225;26.785
3027155.659;-3.278;130.571;91.754;-8.270;-158.548;-49.770;39.972;22.091
3027155.667;-9.909;127.032;86.650;-9.239;-166.371;-48.727;41.313;20.117
3027155.675;-7.562;125.952;94.920;-9.499;-156.425;-44.294;45.337;24.438
3027155.683;-14.007;116.602;91.605;-21.569;-156.090;-47.386;40.159;22.054
3027155.691;-3.465;133.440;99.763;-4.098;-154.153;-45.635;41.127;23.916
3027155.699;5.141;140.406;113.510;5.141;-148.304;-41.164;42.617;28.089
3027155.707;10.543;145.994;123.642;3.316;-141.338;-40.866;41.388;27.493
3027155.715;9.052;143.237;121.295;-1.974;-149.496;-42.692;39.525;23.693
3027155.723;17.099;154.525;134.781;15.385;-133.477;-42.059;41.910;22.165
3027155.731;15.087;156.797;133.961;7.153;-130.981;-48.652;34.533;14.938
3027155.739;8.568;146.143;130.534;0.075;-146.292;-53.942;28.200;9.388
3027155.747;11.288;153.072;133.030;4.694;-147.633;-50.776;32.000;11.325
3027155.758;8.419;143.871;131.279;-4.433;-142.306;-48.913;32.447;13.635
3027155.766;6.035;138.767;136.793;-4.768;-137.612;-51.446;28.685;10.170
3027155.774;4.061;144.579;137.463;-8.196;-130.720;-48.317;30.585;12.368
3027155.782;-0.075;143.386;132.509;-18.738;-147.112;-44.294;33.416;16.503
3027155.790;-7.898;128.783;127.256;-25.295;-161.119;-49.919;25.928;12.964
3027155.798;-0.559;138.693;134.669;-14.752;-148.229;-47.311;27.306;15.348
3027155.806;1.043;139.698;138.246;-11.958;-146.069;-52.601;23.879;7.339
3027155.814;3.055;138.395;142.716;-10.952;-141.077;-57.295;21.793;2.757
3027155.822;2.980;135.563;140.928;-8.866;-145.994;-61.393;18.924;-0.112
3027155.830;4.210;147.298;147.261;-8.605;-144.690;-63.106;16.652;-3.166
3027155.838;10.356;158.623;155.978;1.863;-136.755;-61.132;18.440;-2.719
3027155.846;14.603;156.388;160.858;5.774;-130.385;-57.444;21.458;-0.261
3027155.854;18.813;163.168;168.048;1.043;-119.098;-47.982;31.479;7.488
3027155.862;17.658;158.437;169.985;-0.112;-122.637;-47.609;30.696;6.482
3027155.870;6.966;141.673;160.225;-10.505;-130.832;-52.117;24.550;1.490
3027155.878;8.009;151.880;165.999;-7.004;-129.603;-45.560;28.834;10.058
3027155.886;24.214;176.169;184.737;14.901;-111.498;-29.281;44.778;25.108
3027155.894;24.252;173.114;186.339;4.731;-109.747;-29.802;43.809;24.289
3027155.902;21.644;163.428;183.769;1.676;-118.315;-30.845;41.351;20.973
3027155.910;25.444;166.744;189.617;5.774;-118.352;-28.908;43.064;18.887
3027155.918;37.290;179.298;203.103;22.762;-103.265;-21.309;51.297;23.916
3027155.926;39.861;188.276;210.851;24.699;-92.536;-18.440;55.283;24.140
3027155.934;41.835;198.670;213.087;27.567;-89.481;-16.019;58.785;25.071
3027155.942;46.864;202.172;216.402;29.951;-98.124;-9.201;65.975;30.361
3027155.982;46.045;193.231;219.233;28.685;-103.451;-7.376;66.124;34.943
3027155.990;36.545;184.216;213.087;24.475;-109.337;-17.472;53.681;27.344
3027155.998;40.159;188.723;221.767;24.997;-93.915;-13.635;56.587;30.734
3027156.006;38.370;195.839;221.320;23.544;-86.129;-15.423;53.607;29.281
3027156.014;35.204;186.898;219.569;14.007;-93.430;-13.933;55.581;29.653
3027156.022;45.970;196.286;228.472;30.473;-89.370;-3.465;65.044;38.929
3027156.030;48.503;199.713;233.650;28.983;-96.858;-3.316;64.149;38.259
3027156.038;41.723;193.380;232.533;1.490;-96.187;-11.548;56.997;24.922
3027156.046;45.113;200.905;235.103;16.838;-90.078;-10.990;58.003;22.873
3027156.054;45.188;204.220;237.264;23.991;-84.601;-7.972;60.871;27.232
3027156.062;42.394;203.326;240.020;23.209;-85.309;-8.643;61.430;23.916
3027156.070;50.589;203.475;249.743;20.042;-77.523;1.490;71.488;31.479
3027156.078;51.446;200.085;252.649;8.643;-79.162;6.668;75.586;36.694
3027156.086;46.939;198.260;247.546;10.282;-84.788;3.837;71.600;36.061
3027156.094;42.133;206.642;243.224;15.236;-88.364;-0.224;66.757;32.708
3027156.102;51.297;214.390;256.933;28.536;-79.833;6.706;69.961;38.855
3027156.110;53.085;212.416;262.298;16.838;-70.892;12.368;72.457;45.225
3027156.118;49.882;208.914;259.392;9.462;-80.317;7.972;66.981;39.116
3027156.126;55.023;210.330;267.848;26.263;-80.205;7.749;66.571;37.625
3027156.134;54.389;215.061;267.774;27.269;-75.437;2.012;61.430;32.336
3027156.142;49.472;214.688;265.650;18.850;-72.606;2.496;64.149;30.138
3027156.150;48.466;207.610;267.625;8.270;-79.237;12.703;75.549;37.961
3027156.158;52.527;216.141;273.436;21.085;-73.947;23.283;87.544;45.858
3027156.166;51.260;216.924;274.405;30.845;-79.684;22.613;85.942;44.554
3027156.148;52.080;211.298;277.497;25.630;-68.061;26.114;86.054;48.466
3027156.156;49.025;201.091;274.405;4.284;-75.772;23.879;80.690;47.423
3027156.164;47.125;210.479;275.113;3.353;-76.965;20.601;75.400;46.231
3027156.172;53.234;224.039;284.463;29.281;-66.832;23.134;74.580;48.913
3027156.180;51.744;216.030;281.818;20.750;-75.586;30.212;80.839;54.911
3027156.188;38.520;206.046;269.637;4.023;-89.444;27.008;78.306;49.546
3027156.196;42.021;205.636;280.961;-5.737;-71.526;14.231;65.863;37.402
3027156.204;33.230;200.942;273.474;-15.013;-71.563;15.683;67.428;38.892
3027156.212;17.621;185.184;261.217;-27.679;-88.327;11.027;62.026;34.161
3027156.220;6.743;168.309;250.824;-40.121;-95.926;9.164;59.307;31.330
3027156.228;4.768;159.480;248.067;-53.048;-93.468;14.454;64.075;36.508
3027156.236;-12.852;134.446;228.286;-77.188;-120.066;7.115;56.848;27.865
3027156.244;-16.131;138.804;227.578;-79.386;-127.107;4.768;53.942;25.667
3027156.252;-10.654;158.288;240.691;-67.540;-101.775;2.608;50.813;23.283
3027156.260;-1.229;171.438;248.663;-46.417;-89.668;12.629;60.163;33.602
3027156.268;-7.413;157.170;242.516;-57.183;-99.540;11.586;56.066;32.224
3027156.276;-11.027;152.178;242.367;-69.179;-105.649;14.715;57.220;34.869
3027156.284;-5.960;151.545;249.445;-60.797;-105.537;24.699;68.434;42.431
3027156.292;-11.027;146.702;246.800;-69.477;-110.306;21.234;63.889;36.322
3027156.300;-7.749;169.128;250.041;-61.058;-100.769;24.103;66.198;37.700
3027156.308;-8.196;169.910;249.967;-52.266;-99.242;25.555;68.657;35.428
3027156.316;-4.098;165.924;258.759;-54.352;-93.393;29.430;74.878;36.359
3027156.324;-9.537;150.092;258.684;-61.616;-91.270;29.542;75.549;36.471
3027156.332;-15.683;149.608;250.712;-67.018;-109.151;28.573;75.288;35.986
3027156.328;-18.813;156.350;244.528;-72.382;-116.788;23.395;70.445;31.926
3027156.336;-13.150;167.079;252.686;-63.479;-105.575;22.575;67.726;33.341
3027156.344;-5.923;177.398;259.690;-43.064;-97.230;23.805;66.198;36.396
3027156.352;-5.923;166.632;262.223;-53.644;-99.689;22.762;62.324;37.178
3027156.360;-10.021;156.276;263.453;-64.373;-106.506;18.775;56.997;30.585
3027156.368;-2.496;166.297;274.368;-62.473;-94.883;24.289;62.175;33.975
3027156.376;1.155;174.753;276.566;-56.736;-94.175;27.642;66.645;35.539
3027156.384;2.198;170.507;276.193;-46.976;-88.550;29.281;68.992;36.545
3027156.392;-11.623;160.895;265.576;-66.571;-102.222;23.097;62.473;34.347
3027156.400;-9.611;165.813;271.313;-68.322;-99.279;12.852;52.378;27.008
3027156.408;16.876;189.096;297.390;-36.433;-82.329;11.399;51.931;26.003
3027156.416;29.728;200.644;308.678;-23.432;-75.288;12.293;54.762;28.536
3027156.424;50.068;216.551;330.955;-7.823;-67.651;15.311;59.232;32.410
3027156.432;63.144;231.490;344.589;12.368;-70.557;26.114;68.508;44.480
3027156.440;70.184;236.817;352.450;16.764;-62.026;32.485;74.320;49.174
3027156.448;69.812;238.270;351.407;20.973;-53.309;26.152;67.465;43.251
3027156.456;66.720;246.875;348.315;18.999;-65.938;28.498;69.663;43.996
3027156.464;62.399;239.499;349.171;6.929;-55.954;32.187;71.526;45.188
3027156.472;62.063;234.842;349.693;7.749;-52.117;37.178;77.486;47.907
3027156.480;56.364;218.861;347.458;1.043;-63.144;33.379;75.661;43.474
3027156.488;53.719;214.949;345.930;-1.229;-64.485;28.610;70.818;40.308
3027156.496;63.069;237.115;355.504;16.280;-52.191;35.502;76.741;47.125
3027156.504;64.597;235.662;356.734;16.354;-45.970;35.614;75.959;48.541
3027156.512;53.719;224.598;347.830;4.470;-59.307;28.573;66.198;44.852
3027156.526;51.297;223.443;344.776;-0.671;-65.751;29.728;63.367;48.690
3027156.534;52.117;227.243;345.670;14.603;-64.000;31.553;64.149;50.552
3027156.542;47.982;223.629;347.123;3.800;-71.228;32.000;67.018;50.031
3027156.550;49.807;224.710;349.917;5.178;-67.428;34.869;72.382;51.968
3027156.558;49.137;219.829;351.556;0.522;-56.475;33.639;73.574;49.472
3027156.566;55.581;228.398;358.447;7.488;-49.807;37.439;80.615;50.329
3027156.574;64.857;239.275;369.474;19.595;-37.290;45.821;90.860;56.662
3027156.582;61.914;233.166;365.749;15.050;-39.451;41.239;85.235;51.223
3027156.590;68.434;241.101;372.119;23.730;-40.978;45.151;87.060;54.426
3027156.598;72.680;244.416;378.899;25.108;-36.024;51.036;88.774;62.101
3027156.606;66.161;240.915;371.300;15.683;-42.059;48.913;83.372;60.201
3027156.614;64.671;242.144;370.033;24.922;-44.703;46.603;80.131;55.768
3027156.622;72.084;248.030;381.730;34.943;-28.461;50.515;84.043;58.152
3027156.630;65.975;235.811;378.191;17.248;-33.528;50.962;85.793;59.530
3027156.638;77.076;239.573;387.318;22.948;-30.473;47.497;81.882;59.828
3027156.646;72.718;243.969;383.481;21.681;-42.953;46.976;79.647;60.312
3027156.654;82.031;252.724;395.626;29.989;-27.865;49.807;82.888;63.106
3027156.662;86.986;257.678;404.157;38.669;-26.003;49.062;82.627;61.989
3027156.670;80.913;252.984;398.047;28.051;-34.049;43.884;79.125;55.209
3027156.678;81.770;244.379;401.810;22.575;-20.601;45.933;82.105;53.495
3027156.686;86.240;253.208;407.733;37.216;-8.717;44.480;82.292;49.099
3027156.694;93.095;268.333;413.619;48.988;-7.302;46.119;81.845;52.229
3027156.702;94.771;272.021;417.233;51.036;-6.966;54.091;85.458;60.759
3027156.710;79.982;248.440;403.449;28.759;-20.117;47.162;76.406;54.203
3027156.718;78.194;245.720;402.294;27.455;-24.438;51.185;79.237;59.344
3027156.726;91.121;265.688;414.290;47.088;-10.654;64.149;92.275;70.818
3027156.734;90.376;261.143;415.854;48.056;-9.313;63.293;92.834;67.167
3027156.742;86.278;260.025;411.198;41.835;-12.293;57.220;89.183;58.562
3027156.750;90.189;260.361;415.035;35.316;-13.299;53.681;88.476;54.725
3027156.758;95.814;265.129;425.689;47.646;1.267;55.246;91.828;55.619
3027156.766;93.244;268.295;424.199;53.123;-2.719;53.868;90.934;53.607
3027156.774;87.656;261.888;417.680;51.185;-11.884;46.603;82.627;48.205
3027156.782;91.642;269.748;420.176;50.738;-13.225;45.821;78.939;50.701
3027156.790;84.899;260.733;413.544;34.422;-15.199;40.643;71.563;45.486
3027156.798;91.195;262.447;420.474;43.437;-8.456;53.383;82.366;54.948
3027156.806;101.998;270.195;433.177;53.644;4.061;66.459;93.877;66.534
3027156.814;108.443;283.644;441.931;61.765;10.952;67.428;93.728;67.726
3027156.822;99.726;272.617;432.394;59.754;-0.671;58.971;84.043;60.424
3027156.830;95.852;271.387;427.291;55.507;-15.162;57.667;82.403;59.344
3027156.838;90.338;263.974;424.683;44.480;-10.133;53.868;77.412;55.358
3027156.846;87.619;258.535;425.689;40.382;-0.559;49.472;73.873;46.343
3027156.854;93.617;267.960;431.761;51.931;2.198;50.515;79.721;43.958
3027156.862;98.012;269.227;434.741;56.028;6.407;52.191;84.527;45.672
3027156.870;99.465;271.685;437.610;57.891;3.874;59.493;88.327;55.097
3027156.878;95.107;265.352;434.816;46.119;-4.917;57.034;82.105;55.991
3027156.886;89.891;257.827;431.575;33.453;-0.969;59.605;80.802;58.115
3027156.894;90.934;259.355;434.332;51.185;-4.731;67.018;86.017;62.510
3027156.902;102.036;274.517;444.017;59.940;16.019;73.351;94.436;66.534
3027156.914;102.185;282.936;446.662;65.565;13.784;70.259;91.381;61.207
3027156.922;90.972;268.370;435.114;50.850;3.129;59.791;79.609;51.707
3027156.930;88.513;263.825;432.655;40.680;3.055;54.017;72.122;47.386
3027156.938;92.164;262.819;436.567;45.039;3.912;54.203;69.104;48.578
3027156.946;94.064;266.358;438.131;54.501;1.974;55.879;70.110;46.678
3027156.954;93.691;268.742;439.584;54.650;-6.743;54.277;71.302;42.729
3027156.962;98.236;272.505;446.290;58.338;10.878;58.375;78.268;45.933
3027156.970;95.926;269.487;443.272;48.280;10.990;61.765;82.478;46.641
3027156.978;97.491;275.336;440.404;52.936;-2.235;70.594;90.003;55.097
3027156.986;97.901;272.319;442.155;57.109;2.496;70.669;88.699;57.109
3027156.994;91.754;261.366;442.266;41.313;5.774;63.330;79.870;50.142
3027157.002;94.883;265.613;446.253;48.429;1.453;62.548;77.039;49.211
3027157.010;99.167;279.881;448.078;59.642;7.041;62.883;76.480;46.492
3027157.018;100.695;281.110;447.445;54.799;2.421;62.436;77.598;45.635
3027157.026;96.224;270.046;442.900;52.191;-1.341;59.642;74.245;45.784
3027157.034;90.115;263.862;438.765;40.121;-3.055;51.558;65.528;39.898
3027157.042;94.958;262.856;446.588;42.468;10.915;56.736;69.067;46.939
3027157.050;93.207;261.962;445.731;39.600;16.093;55.879;66.832;48.056
3027157.058;96.522;274.926;447.147;42.915;7.302;59.232;71.414;52.452
3027157.066;97.789;268.929;451.803;46.752;11.772;60.685;72.867;53.309
3027157.074;95.293;271.723;450.164;46.492;14.603;61.691;72.420;53.607
3027157.082;93.617;263.937;448.450;42.617;12.666;62.399;73.053;55.842
3027157.090;89.295;258.200;444.949;31.516;10.245;59.269;69.663;52.713
3027157.098;91.568;263.005;446.513;34.012;15.013;59.307;69.253;53.830
3027157.109;97.081;268.519;453.256;41.686;6.147;66.087;76.853;57.779
3027157.117;100.061;274.405;454.858;49.807;5.737;67.838;79.237;58.562
3027157.125;98.906;271.648;457.540;44.368;21.905;66.534;78.455;58.077
3027157.133;93.617;262.260;452.884;31.441;19.893;65.155;76.890;58.040
3027157.141;87.023;256.933;447.035;23.767;18.403;68.247;78.939;64.671
3027157.149;85.533;253.469;443.347;26.822;3.427;76.592;88.364;72.606
3027157.157;87.544;259.392;447.258;32.187;11.623;78.380;90.785;73.388
3027157.165;96.448;263.490;457.205;40.978;20.862;82.441;96.411;77.151
3027157.173;97.901;270.791;459.924;46.603;25.369;77.412;92.275;71.228
3027157.181;93.393;267.699;454.038;40.084;14.715;68.694;82.441;61.840
3027157.189;100.806;276.007;461.563;47.982;25.444;66.794;80.243;59.232
3027157.197;99.316;273.697;460.334;52.601;21.979;62.548;76.704;54.576
3027157.205;100.099;271.462;461.042;44.443;20.713;64.485;78.194;56.922
3027157.213;100.993;272.766;463.873;43.474;30.026;68.322;80.578;61.281
3027157.221;97.938;271.797;460.446;42.319;24.885;76.778;88.625;70.184
3027157.229;85.570;258.386;448.525;33.714;13.784;74.878;87.060;68.806
3027157.237;81.845;247.136;444.725;23.730;6.743;76.666;88.066;69.886
3027157.245;90.972;256.412;450.462;37.104;22.985;81.062;90.599;74.767
3027157.253;98.124;265.539;444.949;39.004;27.493;77.747;85.831;72.010
3027157.261;101.589;274.591;447.817;44.852;22.799;68.024;74.990;63.293
3027157.269;106.543;282.302;455.976;56.699;42.468;63.591;72.196;57.742
3027157.277;103.563;278.167;452.288;53.383;38.818;57.518;69.551;49.956
3027157.285;100.136;273.697;450.090;49.807;33.900;62.957;75.288;54.240
3027157.293;100.136;273.697;450.760;51.819;31.553;71.190;79.647;60.573
3027157.289;110.418;282.489;462.942;59.418;36.173;79.088;84.862;69.179
3027157.297;122.376;292.733;479.259;67.167;49.286;82.180;87.656;73.127
3027157.305;135.154;304.095;493.079;72.233;63.330;79.609;85.942;72.382
3027157.313;150.651;316.426;508.614;87.880;79.311;79.274;87.582;74.022
3027157.321;174.642;348.352;533.089;118.986;96.709;78.157;88.178;71.637
3027157.329;191.294;369.065;547.916;136.085;102.371;77.300;87.395;69.179
3027157.337;212.789;385.009;569.522;157.617;118.800;85.346;96.112;74.990
3027157.345;228.286;405.982;585.467;180.528;146.851;91.530;100.099;80.019
3027157.353;225.976;407.435;582.300;173.375;148.378;93.728;100.099;80.355
3027157.361;217.631;397.414;575.110;165.552;137.575;91.791;97.230;75.325
3027157.369;213.310;390.261;568.628;163.652;125.952;94.250;97.640;77.896
3027157.377;202.172;379.793;557.937;154.637;117.756;90.227;91.121;74.916
3027157.385;188.872;360.459;543.073;137.500;100.099;90.040;87.768;76.443
3027157.393;175.983;351.258;527.389;121.035;93.319;93.132;89.407;80.504
3027157.401;166.893;343.807;522.062;107.363;99.018;90.934;90.003;77.710
3027157.409;167.340;336.133;525.787;112.094;101.291;85.682;86.986;74.022
3027157.417;162.981;328.459;520.907;109.859;90.487;81.770;84.117;70.855
3027157.425;147.074;308.864;503.883;89.183;71.451;77.151;80.802;65.155
3027157.433;140.220;297.762;496.507;73.314;65.379;80.653;82.441;68.098
3027157.441;134.595;290.535;492.334;64.112;69.402;88.550;88.476;72.345
3027157.449;128.672;294.931;486.299;67.838;62.957;89.966;87.656;71.526
3027157.457;117.868;286.996;476.725;63.181;50.180;85.644;80.764;65.938
3027157.465;102.744;265.837;461.303;46.082;41.910;80.168;73.090;61.207
3027157.473;94.138;252.761;453.480;34.124;34.310;80.615;72.904;63.516
3027157.484;96.262;254.214;457.987;37.253;36.731;88.736;81.323;71.079
3027157.492;96.448;252.165;457.130;39.525;46.268;85.048;76.890;68.173
3027157.500;95.367;252.724;452.511;40.866;31.888;82.925;76.666;62.808
3027157.508;103.973;268.631;458.248;55.432;33.900;90.636;85.942;64.820
3027157.516;102.893;259.057;458.732;43.139;34.943;91.232;87.880;63.851
3027157.524;100.620;258.498;458.583;36.508;47.237;88.885;85.309;60.946
3027157.532;100.024;259.057;457.689;47.274;50.813;89.295;83.894;62.175
3027157.540;95.144;253.916;453.070;41.500;44.629;97.044;89.407;69.737
3027157.548;85.384;243.932;446.066;32.373;33.341;100.322;92.052;72.382
3027157.556;84.676;241.213;444.204;28.871;30.436;106.916;98.087;77.747
3027157.564;85.123;235.736;443.459;24.959;32.857;107.437;96.411;76.704
3027157.572;84.862;239.238;440.851;35.241;24.661;99.428;89.072;67.763
3027157.580;90.599;245.124;450.686;35.912;39.861;100.248;89.332;68.657
3027157.588;89.183;244.267;451.878;31.330;49.770;93.058;79.609;62.622
3027157.596;88.885;241.585;450.499;31.069;40.792;92.089;76.666;63.181
3027157.604;92.760;246.949;451.915;36.322;40.680;92.313;75.251;63.777
3027157.612;96.709;249.557;454.038;35.912;43.139;87.395;69.663;59.456
3027157.620;103.153;257.902;456.870;44.405;45.225;92.126;73.649;65.789
3027157.628;95.740;248.291;449.605;39.004;39.935;89.481;70.222;63.404
3027157.636;87.954;241.511;442.788;23.767;30.547;87.880;69.551;57.928
3027157.644;86.240;235.364;441.410;25.705;34.310;90.450;75.735;57.295
3027157.652;89.258;243.150;442.304;35.018;41.388;89.146;78.566;55.917
3027157.660;95.107;248.067;448.525;46.417;43.176;94.473;85.980;60.610
3027157.668;91.381;238.419;445.433;33.453;38.110;90.748;82.254;58.301
3027157.692;93.840;241.362;451.468;21.346;50.552;91.419;81.882;63.106
3027157.700;93.021;242.256;449.046;33.826;55.842;88.960;79.833;63.628
3027157.708;89.705;238.791;443.421;32.149;36.061;78.827;69.626;55.209
3027157.716;85.346;229.776;441.968;27.195;37.812;70.930;60.350;48.690
3027157.724;83.856;234.358;440.329;19.409;42.282;70.632;59.418;48.727
3027157.732;92.238;243.261;445.470;31.479;44.443;80.913;69.924;57.779
3027157.740;92.722;240.020;443.608;37.402;48.019;86.613;77.076;60.461
3027157.748;88.364;234.991;439.957;28.238;34.757;82.329;74.394;54.836
3027157.756;91.903;238.568;444.613;30.883;50.627;83.931;75.847;55.358
3027157.764;100.508;249.781;450.835;44.256;50.589;87.060;79.572;57.854
3027157.772;106.059;249.408;455.379;52.862;56.922;86.986;80.019;59.158
3027157.780;98.646;247.285;450.201;46.194;53.421;81.025;74.804;53.793
3027157.788;101.551;250.861;452.809;38.408;61.207;86.538;80.131;59.158
3027157.796;96.932;240.766;447.370;31.330;52.713;86.986;77.598;60.126
3027157.804;88.960;233.576;440.441;29.579;45.635;81.286;70.632;53.197
3027157.812;89.556;237.115;437.722;35.129;42.729;83.670;72.494;54.911
3027157.820;90.264;232.533;437.610;37.923;38.035;83.521;73.351;54.315
3027157.828;84.639;234.805;435.822;27.530;42.208;75.847;66.794;46.045
3027157.836;87.097;238.046;439.174;28.275;42.729;84.527;77.114;53.011
3027157.844;85.123;234.097;436.418;29.244;42.208;84.341;77.598;51.185
3027157.852;92.089;236.332;442.527;31.777;56.960;86.576;78.492;53.905
3027157.860;93.021;231.750;444.166;23.507;54.650;93.542;83.521;61.132
3027157.868;88.029;232.197;435.673;25.146;43.772;90.152;78.529;59.046
3027157.876;94.324;237.897;439.361;34.384;54.985;91.158;77.486;60.685
3027157.873;94.883;241.809;442.080;32.671;53.272;93.654;78.529;62.250
3027157.881;98.050;243.746;445.247;37.290;54.352;96.411;81.062;64.559
3027157.889;93.468;231.974;439.584;32.075;53.644;87.805;74.245;55.321
3027157.897;92.164;235.960;436.828;34.310;48.690;85.384;74.022;51.931
3027157.905;89.630;228.658;434.034;36.508;49.509;85.756;75.363;50.664
3027157.913;89.109;234.693;435.151;33.043;52.229;87.246;76.965;51.372
3027157.921;86.986;236.630;434.741;31.143;56.028;87.470;75.176;54.687
3027157.929;76.853;222.586;423.528;25.965;43.251;87.805;71.600;54.240
3027157.937;72.084;209.846;414.476;11.623;31.292;89.742;71.637;55.246
3027157.945;78.641;217.818;420.734;26.599;41.910;92.983;75.176;57.407
3027157.953;85.346;227.839;428.557;28.722;51.670;101.328;83.148;64.485
3027157.961;84.564;227.801;428.669;30.622;46.119;97.863;79.758;60.908
3027157.969;81.174;221.655;427.142;25.332;44.703;87.358;70.222;48.988
3027157.977;80.280;221.245;427.067;19.036;46.305;81.100;65.118;44.256
3027157.985;84.527;223.927;429.787;27.344;48.876;82.701;66.347;47.088
3027157.993;88.215;221.431;430.420;33.900;53.756;87.395;69.365;51.521
3027158.001;87.097;226.721;429.638;33.230;54.426;89.034;69.663;53.234
3027158.009;83.931;229.329;429.042;36.322;51.074;88.252;67.912;49.956
3027158.017;81.733;218.488;425.540;21.867;51.334;88.215;67.167;50.850
3027158.025;80.615;219.531;420.958;20.526;47.572;85.421;63.479;47.982
3027158.033;78.157;213.385;421.479;21.458;37.886;77.710;55.842;40.419
3027158.041;79.833;218.675;422.224;23.171;45.635;78.231;58.301;41.611
3027158.049;79.907;218.414;420.324;24.214;49.174;81.249;61.691;45.002
3027158.057;81.398;219.494;422.820;22.836;54.613;82.403;62.920;47.013
3027158.069;85.682;221.990;428.483;30.473;59.232;83.596;60.908;47.684
3027158.077;82.366;220.537;422.187;23.209;52.229;76.517;51.260;41.500
3027158.085;77.523;214.279;414.662;24.699;43.437;78.082;50.664;42.319
3027158.093;74.692;207.871;412.874;19.670;42.059;79.460;51.707;41.686
3027158.101;75.698;212.900;414.886;20.340;46.976;79.349;51.372;41.500
3027158.109;77.896;218.004;414.439;22.836;50.664;84.266;58.152;47.311
3027158.117;84.862;222.139;421.070;36.210;59.754;85.421;60.610;47.646
3027158.125;89.966;221.469;426.658;34.273;67.800;87.842;64.969;47.944
3027158.133;87.470;223.815;424.124;29.132;60.461;82.776;58.860;41.686
3027158.141;86.576;222.251;421.889;35.316;55.917;82.403;55.023;41.872
3027158.149;91.903;222.996;424.720;37.029;65.789;91.270;61.132;51.372
3027158.157;86.278;214.502;420.660;24.773;60.759;89.183;58.375;47.013
3027158.165;88.774;223.853;422.113;30.361;54.762;91.791;61.207;48.317
3027158.173;89.370;222.847;422.336;32.783;61.058;92.499;61.095;47.572
3027158.181;84.825;211.336;412.650;25.295;48.913;87.246;56.997;43.735
3027158.189;84.117;209.026;414.886;26.487;58.450;86.874;56.960;43.698
3027158.197;86.576;213.124;418.276;29.914;63.293;94.809;63.255;50.291
3027158.205;88.550;219.531;417.270;28.238;57.779;102.185;68.881;57.854
3027158.213;77.337;202.805;404.231;20.340;43.549;92.536;58.860;47.684
3027158.221;75.288;197.627;404.380;15.199;42.208;87.805;55.619;41.127
3027158.229;81.025;204.556;410.713;16.429;54.128;89.332;59.269;42.021
3027158.237;84.341;207.424;412.017;17.472;62.063;85.346;58.636;38.072
3027158.245;86.948;211.745;414.513;26.561;59.120;88.327;60.908;43.660
3027158.253;83.558;208.691;407.994;21.979;52.489;87.842;58.413;43.884
3027158.249;81.696;203.587;406.764;17.695;46.454;91.791;59.977;49.770
3027158.257;86.389;206.605;413.842;22.501;59.195;97.230;64.336;56.103
3027158.265;86.688;201.538;412.986;16.876;56.885;94.399;62.846;53.272
3027158.273;93.281;204.742;418.127;25.928;61.058;93.281;66.087;51.372
3027158.281;101.067;226.349;421.517;39.600;64.485;92.834;69.477;48.019
3027158.289;105.165;234.060;424.646;47.572;67.241;86.874;64.187;42.953
3027158.297;109.784;232.905;431.575;47.237;78.194;85.570;62.063;42.915
3027158.305;118.650;235.923;439.696;53.197;84.564;90.785;66.459;47.609
3027158.313;129.938;249.110;449.717;62.622;89.332;95.665;70.184;54.538
3027158.321;138.320;257.678;458.732;70.781;100.918;94.324;68.359;54.762
3027158.329;155.158;266.992;475.161;83.223;118.464;96.336;70.855;57.183
3027158.337;186.116;306.517;503.920;118.054;143.498;101.365;76.331;61.542
3027158.345;204.258;330.992;518.747;151.321;149.049;99.912;75.325;59.046
3027158.353;213.310;343.136;525.080;161.454;148.527;102.147;78.566;62.883
3027158.361;211.596;338.815;524.372;151.992;157.282;100.024;75.027;61.728
3027158.369;210.591;332.706;522.621;145.435;172.220;95.032;69.626;55.693
3027158.377;211.820;339.262;523.366;151.396;170.916;100.657;74.953;59.381
3027158.385;205.822;334.233;516.325;151.433;156.984;98.497;74.022;56.103
3027158.393;199.080;326.261;508.837;149.421;149.943;96.597;74.431;51.968
3027158.401;186.339;310.540;494.644;129.268;135.563;94.883;74.431;48.578
3027158.409;169.836;287.890;477.731;104.569;123.307;93.430;71.451;49.584
3027158.417;160.150;273.809;466.779;89.779;109.449;96.485;72.084;56.401
3027158.425;154.525;267.886;462.234;86.091;105.016;100.881;75.437;62.771
3027158.433;150.353;264.570;460.334;85.607;104.830;106.506;79.498;69.924
3027158.444;134.744;242.032;444.017;69.737;95.479;98.571;68.992;62.883
3027158.452;121.482;228.882;429.451;51.074;83.745;85.048;56.252;48.876
3027158.460;117.309;221.580;424.907;43.698;84.452;83.670;55.879;45.374
3027158.468;117.682;225.045;423.305;45.560;80.429;88.103;61.207;46.603
3027158.476;118.278;225.417;418.276;47.199;70.035;93.244;67.651;50.589
3027158.484;111.759;216.663;411.160;39.935;62.883;91.009;66.496;49.286
3027158.492;110.902;218.898;412.762;43.288;71.190;94.697;70.706;52.489
3027158.500;114.813;223.331;414.178;52.713;73.127;103.898;79.647;58.673
3027158.508;111.163;218.153;408.404;47.199;73.314;104.830;79.088;58.003
3027158.516;105.537;211.373;402.220;46.007;65.863;102.818;75.623;56.550
3027158.524;101.291;208.355;397.861;45.002;55.805;102.483;73.202;54.576
3027158.532;101.216;205.562;395.961;38.184;52.080;104.643;77.263;57.071
3027158.540;103.153;210.963;397.377;45.821;58.077;104.271;78.827;55.321
3027158.548;98.273;206.009;392.385;40.308;62.250;97.044;71.563;48.392
3027158.556;100.993;205.450;393.763;39.451;64.038;98.683;73.165;52.042
3027158.564;98.459;202.097;392.720;44.294;57.407;99.577;74.618;52.378
3027158.572;100.955;203.885;392.683;45.598;60.387;102.557;77.523;55.768
3027158.580;98.571;198.185;388.101;38.929;55.581;97.081;72.233;54.091
3027158.588;95.591;191.666;386.201;31.888;53.048;91.046;65.565;49.807
3027158.596;97.044;203.401;389.218;50.031;54.874;88.885;62.212;47.795
3027158.604;98.757;205.897;389.479;42.617;68.061;90.189;60.424;48.019
3027158.612;98.944;204.220;384.785;49.360;63.553;90.711;60.275;48.652
3027158.620;97.342;192.709;381.097;42.468;55.619;92.573;61.840;50.254
3027158.628;99.652;195.354;385.717;33.975;57.705;98.497;66.645;54.277
3027158.667;99.167;195.019;385.605;39.339;62.212;95.554;63.404;52.303
3027158.675;102.632;200.272;387.840;51.633;71.786;97.528;66.422;54.091
3027158.683;99.689;202.321;383.742;48.988;69.253;97.789;67.726;53.234
3027158.691;99.018;199.638;380.278;44.666;62.548;98.497;71.563;51.968
3027158.699;92.201;190.809;372.045;39.935;56.289;91.083;64.261;43.139
3027158.707;92.909;189.617;372.082;40.010;57.444;91.195;63.702;43.809
3027158.715;102.781;200.309;383.034;51.223;60.126;100.359;72.196;52.489
3027158.723;108.220;214.279;384.971;59.977;72.084;103.936;74.655;54.762
3027158.731;105.239;207.052;380.315;62.175;67.987;106.134;75.139;56.177
3027158.739;93.132;189.319;371.449;47.125;53.309;99.353;67.092;49.397
3027158.747;96.224;192.225;372.343;48.280;59.530;100.210;68.508;51.707
3027158.755;94.771;187.233;370.108;44.964;52.713;94.883;63.628;47.907
3027158.763;90.487;185.668;364.184;37.551;56.960;93.095;62.510;43.288
3027158.771;94.734;193.939;366.457;42.208;55.730;96.373;65.826;44.182
3027158.779;93.281;190.698;368.580;45.970;58.822;95.181;64.261;42.692
3027158.787;93.207;183.806;367.090;50.068;57.220;98.273;67.018;44.778
3027158.795;94.771;191.219;367.910;45.225;61.318;97.863;64.112;42.543
3027158.803;88.215;185.184;360.571;35.241;51.782;96.485;60.908;41.835
3027158.811;84.192;173.859;355.914;30.771;43.884;98.981;64.000;43.549
3027158.819;84.713;172.816;353.344;33.714;40.345;102.110;68.285;43.921
3027158.827;87.097;183.843;352.263;36.210;43.884;101.365;68.322;44.145
3027158.835;84.676;180.714;351.258;37.625;44.033;104.345;70.855;48.876
3027158.843;79.721;170.209;346.787;29.132;43.139;90.078;56.215;39.004
3027158.851;67.912;155.829;336.394;10.170;33.826;73.016;39.265;28.424
3027158.833;48.280;129.081;317.730;-17.323;18.775;59.865;24.810;19.856
3027158.841;42.841;119.507;308.417;-26.599;11.846;60.573;24.997;22.464
3027158.849;38.333;115.111;302.196;-32.485;-1.416;67.428;31.479;27.344
3027158.857;31.069;108.033;295.863;-41.127;-7.041;66.273;31.702;25.257
3027158.865;32.261;109.859;296.049;-32.373;5.104;71.079;38.184;28.424
3027158.873;37.178;115.596;299.551;-15.125;7.376;82.180;50.031;34.831
3027158.881;50.887;126.250;311.993;-4.210;18.403;96.150;65.826;46.194
3027158.889;51.297;131.801;311.248;-8.196;21.942;95.628;65.491;45.449
3027158.897;46.231;121.035;304.803;-25.220;13.448;89.109;56.699;40.829
3027158.905;38.743;110.567;296.608;-34.720;6.072;79.386;45.672;33.416
3027158.913;35.502;111.796;294.782;-16.280;1.825;69.402;33.565;27.642
3027158.921;37.737;119.768;294.894;-10.841;12.815;66.645;28.834;29.355
3027158.929;32.969;107.810;290.386;-21.867;13.970;62.585;25.630;25.034
3027158.937;37.476;111.312;292.063;-20.452;19.670;69.626;37.141;30.510
3027158.945;38.631;111.461;294.112;-24.848;17.695;77.039;48.913;34.943
3027158.953;47.982;116.974;303.686;-10.468;26.226;86.278;59.940;41.686
3027158.961;49.174;118.501;303.797;-0.894;24.326;86.911;61.728;40.755
3027158.969;48.615;125.729;300.370;-3.800;16.876;85.048;59.679;36.471
3027158.977;42.059;117.607;293.069;-8.456;11.995;84.937;59.046;36.769
3027158.985;45.709;119.247;295.676;-4.470;15.460;83.186;55.954;37.849
3027158.993;61.691;138.097;310.652;14.938;41.537;80.019;51.484;35.539
3027159.001;77.933;149.049;328.720;22.613;50.962;83.782;54.948;39.935
3027159.009;97.081;163.093;347.570;32.596;60.983;90.078;59.642;46.715
3027159.017;107.773;178.069;355.542;42.021;69.141;86.986;53.644;47.274
3027159.028;106.543;175.536;357.106;36.694;71.190;85.831;52.378;48.578
3027159.036;93.840;163.130;344.999;30.734;58.040;83.409;51.893;44.182
3027159.044;90.413;167.638;335.835;37.849;47.497;87.693;58.189;45.970
3027159.052;89.705;163.466;334.792;34.422;54.948;90.599;61.616;46.268
3027159.060;87.507;164.770;333.823;26.487;58.636;89.481;60.052;41.723
3027159.068;88.066;161.491;333.935;31.106;60.648;94.846;66.087;46.045
3027159.076;89.183;162.981;333.078;41.388;61.803;98.795;71.563;50.589
3027159.084;91.158;169.240;333.674;37.737;60.387;99.838;69.290;53.346
3027159.092;90.376;169.836;331.625;40.531;58.934;98.459;63.367;52.452
3027159.100;81.882;158.139;323.057;34.906;54.315;95.181;57.444;50.403
3027159.108;76.145;152.886;316.277;25.518;47.833;89.630;51.558;47.088
3027159.116;69.104;141.710;307.225;21.271;36.098;81.137;45.635;40.680
3027159.124;65.006;137.128;300.631;14.268;33.826;78.082;46.901;38.035
3027159.132;62.920;134.781;297.800;7.935;36.806;78.566;49.844;35.502
3027159.140;68.620;143.647;301.488;19.893;47.237;85.831;58.226;40.904
3027159.148;70.296;145.994;302.680;23.767;41.313;88.848;60.834;42.953
3027159.156;70.073;143.908;301.972;28.573;36.098;87.246;58.822;40.829
3027159.164;74.506;152.811;304.729;31.106;39.339;92.015;63.665;44.852
3027159.172;78.753;154.525;309.125;26.859;48.913;95.405;65.155;48.243
3027159.180;78.715;145.175;311.285;25.444;58.077;87.880;54.426;43.660
3027159.188;76.629;148.974;307.672;33.118;52.601;81.621;46.454;37.849
3027159.196;71.153;143.051;298.768;20.303;40.382;78.566;43.735;35.986
3027159.204;66.459;139.736;293.329;11.101;41.090;76.406;42.357;35.800
3027159.212;71.973;141.934;301.711;12.480;44.964;81.584;48.764;40.121
3027159.208;78.082;150.241;308.082;33.937;55.283;84.825;51.856;42.133
3027159.216;70.930;144.839;300.147;28.834;56.326;83.596;50.664;38.929
3027159.224;65.565;133.216;292.063;18.887;52.378;83.782;52.154;36.769
3027159.232;68.955;142.418;292.584;20.936;44.778;85.272;53.681;34.980
3027159.240;62.175;135.899;285.991;14.044;37.514;84.527;52.415;31.814
3027159.248;58.487;129.752;282.004;7.600;26.524;86.054;54.091;34.049
3027159.256;60.946;129.268;283.681;6.258;34.310;90.301;57.518;42.655
3027159.264;53.756;116.676;277.236;6.072;34.943;83.894;47.274;37.588
3027159.272;55.507;118.203;275.671;6.668;29.840;81.882;44.852;35.018
3027159.280;56.885;127.479;276.342;9.686;30.920;76.182;40.680;29.169
3027159.288;53.681;130.236;272.058;13.709;37.067;72.382;35.800;28.834
3027159.296;49.397;117.756;272.170;5.625;31.479;74.096;36.322;30.436
3027159.304;44.219;110.678;264.794;-2.198;27.679;74.171;36.247;28.573
3027159.312;47.907;117.905;266.097;-0.261;29.020;73.910;36.433;27.977
3027159.320;54.277;122.190;272.766;7.637;36.582;77.449;41.239;27.679
3027159.328;56.773;125.691;274.777;11.213;39.004;78.939;44.256;25.593
3027159.336;56.550;123.531;275.485;8.643;41.686;77.523;43.549;23.134
3027159.344;57.071;117.831;272.281;2.831;32.410;78.641;43.623;25.295
3027159.352;60.573;121.891;272.244;8.792;31.032;80.653;45.188;29.318
3027159.360;59.716;126.734;274.070;8.754;41.574;76.257;42.617;24.848
3027159.368;62.920;131.540;276.305;12.629;43.474;79.051;45.300;26.971
3027159.376;62.138;124.723;273.697;11.139;38.557;77.225;43.325;25.555
3027159.384;59.865;121.668;270.419;6.594;30.063;75.847;41.984;25.630
3027159.392;63.516;122.190;278.018;8.158;35.949;73.500;41.164;26.450
3027159.404;67.502;124.350;279.844;11.697;56.624;68.881;38.296;24.103
3027159.412;77.486;135.191;288.039;22.762;60.685;74.320;44.703;32.149
3027159.420;82.925;142.232;292.063;29.169;67.987;74.096;45.113;33.528
3027159.428;71.190;135.079;277.683;16.317;51.484;64.671;34.757;21.905
3027159.436;63.218;123.680;269.674;10.543;40.792;63.106;31.590;20.824
3027159.444;66.049;118.129;274.405;10.058;48.801;62.846;32.969;18.552
3027159.452;71.935;124.276;278.167;19.930;52.080;64.969;37.402;17.956
3027159.460;77.970;144.765;280.999;26.934;57.630;68.806;40.717;22.613
3027159.468;70.632;132.099;273.287;16.280;47.982;65.714;35.800;23.358
3027159.476;61.393;115.298;262.111;1.006;37.663;62.622;30.696;23.991
3027159.484;67.689;126.995;269.823;14.938;48.093;65.006;32.932;25.444
3027159.492;74.655;132.211;276.454;20.452;59.120;67.689;36.024;27.232
3027159.500;71.675;123.158;272.579;7.190;47.013;67.800;35.316;27.977
3027159.508;63.702;114.553;263.639;4.396;41.388;63.255;29.616;23.209
3027159.516;66.943;124.685;263.490;5.774;46.566;64.708;32.410;25.444
3027159.524;73.090;124.946;269.897;14.678;49.137;67.316;34.720;26.301
3027159.532;78.045;130.273;273.250;19.222;57.966;71.377;39.078;28.536
3027159.540;80.615;136.495;275.373;20.117;62.399;74.320;41.500;30.324
3027159.548;78.939;136.234;274.815;26.487;57.891;69.924;35.092;26.748
3027159.556;79.721;137.128;273.585;24.587;57.146;67.800;32.373;25.965
3027159.564;71.451;123.829;265.576;14.082;49.546;61.393;26.152;20.340
3027159.572;69.216;123.046;261.776;1.676;52.005;59.418;23.171;18.813
3027159.580;71.265;127.889;259.802;15.870;52.899;60.722;24.475;20.973
3027159.588;70.222;126.101;257.231;13.933;44.368;61.505;24.885;22.501
3027159.598;75.251;127.405;266.097;17.062;51.893;67.987;31.479;30.175
3027159.606;81.472;130.162;270.531;21.271;62.324;73.574;37.774;32.634
3027159.614;82.627;136.830;268.072;25.257;59.605;74.394;40.978;31.367
3027159.622;80.504;142.232;265.352;30.622;60.834;68.508;36.359;25.369
3027159.630;80.168;134.595;265.054;26.375;61.579;65.006;32.224;20.750
3027159.638;79.460;127.330;263.676;22.128;55.544;66.496;32.783;23.693
3027159.646;77.337;126.138;263.192;19.558;53.458;67.428;32.187;26.487
3027159.654;71.228;124.164;257.865;15.981;52.564;61.020;24.475;21.346
3027159.662;68.136;123.829;250.079;13.858;47.348;54.836;19.595;16.168
3027159.670;71.675;126.436;253.730;14.380;55.283;49.844;16.168;12.107
3027159.678;76.555;127.479;256.151;22.575;57.556;56.513;21.756;19.856
3027159.686;70.594;119.209;252.984;17.062;55.134;59.344;23.320;21.607
3027159.694;70.296;123.531;251.569;13.486;53.830;64.597;27.455;25.295
3027159.702;75.959;131.838;252.724;31.516;48.503;71.749;34.533;30.063
3027159.710;71.339;131.130;247.993;24.363;46.082;66.124;27.530;25.965
3027159.718;71.749;124.015;246.502;18.850;53.309;61.542;21.942;22.799
3027159.726;75.363;123.233;252.165;17.919;59.232;59.903;22.091;19.185
3027159.734;74.245;123.531;252.426;14.342;55.768;50.291;13.225;12.331
3027159.742;71.228;121.035;245.906;17.062;47.684;47.497;10.729;10.133
3027159.750;75.288;125.840;249.110;24.512;59.269;58.077;23.060;17.136
3027159.758;71.526;127.144;241.883;20.973;47.125;66.608;32.187;22.203
3027159.766;57.518;110.790;229.068;0.969;38.743;58.524;24.699;15.311
3027159.774;55.656;103.489;228.547;6.445;36.955;56.587;19.744;15.460
3027159.782;58.189;100.844;230.595;5.551;39.488;61.207;20.340;20.824
3027159.794;55.879;105.612;227.801;-1.974;47.013;57.332;13.299;16.838
3027159.802;63.442;114.590;231.378;11.437;50.105;65.006;20.713;23.656
3027159.810;60.573;110.976;230.074;1.416;40.308;64.038;21.122;20.824
3027159.818;55.730;101.924;225.194;4.172;28.461;51.856;12.591;8.643
3027159.826;55.619;104.196;222.772;1.565;41.723;43.698;5.290;1.602
3027159.834;59.605;110.939;227.131;12.703;51.521;39.451;2.012;-1.900
3027159.842;56.475;104.085;222.996;7.525;42.096;40.308;1.267;-0.261
3027159.850;49.844;93.281;217.780;-8.047;32.857;40.680;0.559;-1.751
3027159.858;57.667;101.998;222.996;2.794;42.766;51.595;12.368;4.806
3027159.866;60.163;113.510;225.157;15.311;41.239;56.513;18.291;7.786
3027159.874;47.460;103.004;211.783;2.086;29.095;53.085;13.337;4.657
3027159.882;46.305;93.766;211.187;-1.192;30.845;59.567;18.105;10.394
3027159.890;49.733;93.579;215.210;-3.465;41.090;65.938;22.650;15.050
3027159.898;48.727;91.344;212.193;-5.960;37.551;65.379;22.091;14.640
3027159.906;51.782;102.036;213.124;7.004;34.310;65.826;23.954;15.311
3027159.914;45.300;96.858;206.120;1.490;27.083;59.418;18.664;8.494
3027159.922;44.070;91.381;206.046;-4.172;28.387;59.828;19.185;11.176
3027159.930;44.107;87.097;206.418;-8.978;30.920;55.246;13.709;9.425
3027159.938;48.913;97.118;211.559;5.253;33.714;55.805;13.188;9.574
3027159.946;57.407;111.461;216.365;15.683;39.935;63.255;17.807;16.615
3027159.954;50.925;96.001;209.734;-2.757;41.164;57.407;10.319;9.798
3027159.962;51.297;95.330;208.355;1.080;34.161;63.106;17.397;13.448
3027159.970;52.340;95.367;207.387;1.229;28.051;67.949;23.618;15.087
3027159.978;48.950;94.846;207.163;-4.172;28.387;66.236;23.916;13.337
3027160.004;48.652;90.823;205.897;-6.929;30.845;67.130;27.716;14.715
3027160.012;54.650;94.697;212.453;-1.751;47.535;65.230;28.796;14.342
3027160.020;57.146;101.253;210.889;9.611;43.213;55.768;19.595;10.356
3027160.028;61.430;107.475;214.204;6.929;36.471;51.670;13.039;10.133
3027160.036;55.619;93.021;211.634;-3.204;40.904;43.698;2.906;5.923
3027160.044;49.509;89.519;201.166;-5.774;36.210;41.164;-2.012;5.662
3027160.052;49.248;86.911;200.234;-9.350;29.430;43.586;-1.006;8.307
3027160.060;54.091;88.736;204.295;-3.800;23.954;50.701;5.215;13.299
3027160.068;57.817;104.681;203.066;0.112;32.485;56.326;13.597;14.305
3027160.076;54.277;100.918;200.607;3.427;36.359;58.115;18.515;15.013
3027160.084;51.856;87.731;201.650;-2.235;31.777;64.224;27.046;20.713
3027160.092;50.403;88.401;196.919;-8.382;29.616;65.453;30.100;21.309
3027160.100;55.432;94.920;199.899;3.017;34.161;60.424;26.226;17.807
3027160.108;61.095;103.042;208.095;8.382;41.947;62.548;28.536;21.495
3027160.116;57.667;94.324;202.060;6.109;36.806;59.418;24.065;19.595
3027160.124;53.309;87.172;197.180;-6.109;29.318;57.779;21.383;18.254
3027160.132;50.217;85.905;193.119;-7.749;33.304;57.779;21.271;17.509
3027160.140;48.950;86.837;190.549;-1.006;29.095;56.326;19.707;16.913
3027160.148;48.205;93.021;188.984;1.788;33.006;56.773;20.079;18.291
3027160.156;48.839;87.917;189.468;-4.806;31.330;59.307;23.134;21.793
3027160.164;43.549;77.970;189.133;-7.898;26.561;56.550;19.856;20.005
3027160.172;42.394;79.386;185.259;-5.066;38.147;57.481;20.824;20.377
3027160.180;46.603;92.499;184.216;1.229;30.324;61.542;24.326;24.661
3027160.188;45.933;91.791;186.935;-0.931;30.957;57.109;19.297;20.415
3027160.169;45.337;85.235;183.918;-2.161;26.822;54.799;17.732;19.781
3027160.177;45.821;79.758;182.763;-3.278;33.341;57.593;21.495;23.693
3027160.185;42.804;76.108;179.559;-13.113;31.665;54.166;20.899;19.036
3027160.193;45.858;90.972;182.316;-3.055;25.146;49.695;19.111;13.858
3027160.201;52.340;95.852;188.313;8.568;35.428;51.521;22.538;14.976
3027160.209;47.013;86.762;181.124;6.780;26.636;49.658;19.558;12.964
3027160.217;41.313;77.076;174.381;-15.423;27.083;48.317;17.583;12.927
3027160.225;43.586;84.564;176.914;-4.768;29.095;48.280;16.242;11.809
3027160.233;42.357;83.447;172.891;9.872;20.862;50.068;16.689;13.001
3027160.241;40.755;81.919;171.252;-1.229;26.226;49.137;16.764;10.133
3027160.249;43.288;80.839;175.983;-16.019;33.379;51.856;19.893;12.703
3027160.257;47.386;88.811;180.192;-4.545;30.994;48.503;15.609;10.915
3027160.265;48.205;91.232;179.633;11.511;27.195;43.027;10.058;9.649
3027160.273;51.782;89.929;182.949;10.654;26.673;45.970;14.193;13.486
3027160.281;45.262;83.372;174.083;-0.037;24.289;41.984;10.096;4.955
3027160.289;37.700;70.184;167.713;-9.798;30.622;37.886;6.594;-3.725
3027160.297;43.474;81.807;170.916;0.075;28.871;43.549;10.952;-0.037
3027160.305;47.795;87.917;175.424;5.998;26.971;49.882;16.168;4.508
3027160.313;45.635;83.186;174.455;2.868;24.661;52.229;17.807;7.004
3027160.321;42.059;80.653;171.140;-3.614;31.963;53.868;17.881;9.537
3027160.329;32.783;63.740;159.107;-13.225;18.217;50.366;12.890;7.525
3027160.337;33.751;68.955;156.760;-14.305;10.170;46.380;8.568;6.221
3027160.345;41.276;79.051;164.397;-6.296;19.185;46.529;10.133;5.290
3027160.353;46.082;79.460;166.968;6.147;22.613;48.205;12.629;4.508
3027160.363;44.778;72.569;167.079;4.470;21.979;48.280;11.921;4.508
3027160.371;50.403;85.086;172.779;6.482;23.283;53.868;16.838;11.586
3027160.379;49.323;91.158;169.612;9.015;32.149;50.403;12.070;7.674
3027160.387;38.855;72.457;159.442;-6.892;25.481;39.935;0.335;-2.198
3027160.395;34.943;61.393;156.946;-11.064;22.501;36.471;-4.098;-4.284
3027160.403;32.000;67.018;154.115;-13.709;13.933;32.187;-9.686;-9.313
3027160.411;32.336;69.402;150.762;-11.809;7.488;32.634;-7.823;-10.543
3027160.419;36.731;69.141;154.153;-7.488;20.638;37.663;-1.155;-7.749
3027160.427;36.135;67.428;154.823;-2.943;22.091;41.164;4.061;-6.184
3027160.435;34.273;68.359;154.339;-4.917;12.852;48.131;9.798;-0.969
3027160.443;33.714;68.955;152.998;-8.456;13.746;51.558;11.623;3.241
3027160.451;34.720;70.706;149.198;-10.990;18.850;43.474;2.384;-4.172
3027160.459;43.288;74.655;155.345;0.671;19.334;46.194;5.104;-0.335
3027160.467;40.755;67.949;156.425;-1.974;24.624;42.394;-0.894;-2.123
3027160.475;42.468;70.482;161.193;-7.115;30.361;37.774;-6.743;-3.092
3027160.483;36.173;66.273;156.350;-4.172;22.240;28.946;-14.864;-11.325
3027160.491;35.688;68.173;149.719;-10.245;20.415;30.734;-11.250;-11.250
3027160.499;40.121;73.314;150.278;2.831;18.999;41.835;0.894;-3.092
3027160.507;42.692;75.921;155.643;7.115;24.587;47.497;6.855;0.410
3027160.515;35.316;66.310;145.957;-9.201;15.311;44.964;4.843;-2.943
3027160.523;33.751;62.659;143.163;-9.947;10.841;46.119;5.104;-2.608
3027160.531;38.557;65.081;149.757;-2.608;24.326;48.280;4.843;1.118
3027160.539;35.614;71.339;146.590;-2.533;11.213;44.219;-1.602;-0.112
3027160.547;32.708;68.061;143.573;-7.972;11.586;39.153;-5.104;-7.376
3027160.572;37.253;67.428;144.280;-4.470;19.595;43.847;1.304;-2.570
3027160.580;38.370;69.663;142.604;6.668;17.993;46.082;5.327;-0.969
3027160.588;41.723;73.165;146.180;4.843;13.970;45.374;7.041;-1.788
3027160.596;38.669;71.190;144.318;-5.811;13.113;38.184;0.857;-10.729
3027160.604;39.563;74.729;145.733;-0.522;19.521;34.273;-2.906;-14.901
3027160.612;40.606;79.088;146.031;9.276;14.603;32.485;-5.178;-14.827
3027160.620;34.757;65.379;138.134;-0.075;11.586;32.708;-5.513;-15.795
3027160.628;28.946;55.656;133.216;-20.228;10.431;32.000;-7.711;-17.248
3027160.636;30.622;64.149;134.706;-11.325;13.858;38.594;-3.800;-10.766
3027160.644;30.361;69.067;133.403;-5.625;6.706;44.741;1.267;-5.178
3027160.652;32.857;68.434;134.408;-1.304;13.970;46.305;5.476;-3.651
3027160.660;36.806;67.540;138.134;-1.937;16.317;46.976;8.158;-2.868
3027160.668;29.020;60.052;130.087;-15.125;13.784;35.278;-2.384;-12.927
3027160.676;28.461;56.811;132.732;-23.469;9.015;30.212;-6.147;-16.056
3027160.684;37.290;66.049;143.275;-5.364;16.019;27.418;-8.307;-16.876
3027160.692;43.064;75.139;144.057;2.310;26.971;26.450;-8.717;-15.236
3027160.700;35.428;62.473;135.340;-12.666;19.819;21.644;-12.442;-18.477
3027160.708;38.147;64.336;138.991;-13.709;20.675;23.246;-11.288;-14.566
3027160.716;48.950;75.996;147.372;-4.023;28.163;36.657;1.751;-2.123
3027160.724;47.684;71.526;146.963;3.465;23.432;39.861;5.066;-0.708
3027160.732;39.488;62.771;138.432;-7.637;21.569;40.196;5.625;-1.192
3027160.740;29.095;51.074;128.299;-26.226;7.339;36.433;2.868;-4.880
3027160.748;29.244;53.197;131.428;-30.063;15.981;32.261;0.671;-6.296
3027160.756;34.533;61.020;131.764;-7.600;23.022;27.679;-2.235;-10.654
3027160.754;40.308;65.528;133.999;-2.906;17.807;26.338;-2.645;-10.505
3027160.762;41.723;68.657;137.277;-6.445;18.664;26.301;-2.421;-7.600
3027160.770;44.815;62.957;141.300;-9.574;21.979;34.086;3.316;-0.484
3027160.778;50.627;70.147;142.753;-0.931;23.320;39.898;9.127;4.619
3027160.786;46.901;71.526;138.655;4.023;23.954;38.408;9.425;2.906
3027160.794;36.806;61.914;131.764;-4.023;18.887;36.135;8.605;-0.037
3027160.802;31.218;50.515;123.717;-13.858;8.531;36.843;10.282;0.708
3027160.810;25.332;51.185;112.876;-16.689;-1.937;33.826;5.886;-0.745
3027160.818;22.054;49.248;109.859;-20.526;-11.586;31.106;1.565;-0.969
3027160.826;25.518;45.151;117.049;-19.893;1.974;33.826;4.470;2.794
3027160.834;28.089;49.546;122.264;-16.876;13.597;32.634;5.104;2.086
3027160.842;28.424;51.185;120.699;-9.425;9.015;21.011;-3.539;-10.021
3027160.850;36.098;60.052;124.685;-1.602;14.342;20.079;-2.757;-13.113
3027160.858;42.617;66.087;129.044;1.341;24.736;22.352;1.155;-11.772
3027160.866;50.254;78.417;137.836;6.407;32.708;25.965;5.886;-8.382
3027160.874;44.443;68.210;134.334;7.376;28.536;24.512;4.321;-10.207
3027160.882;34.235;52.564;122.972;-4.210;10.952;26.748;4.396;-7.823
3027160.890;20.005;43.921;107.735;-19.707;-0.857;27.381;2.459;-5.662
3027160.898;12.144;37.774;97.714;-32.373;-14.007;33.975;7.078;2.347
3027160.906;7.078;31.516;92.201;-35.092;-18.589;33.379;6.668;2.123
3027160.914;3.651;22.016;87.656;-34.831;-16.913;23.916;-3.763;-7.227
3027160.922;18.701;46.827;103.191;-14.156;-0.559;27.753;-0.745;-2.906
3027160.930;30.622;56.885;118.054;-6.258;7.004;31.814;5.327;1.155
3027160.938;33.565;55.395;118.054;-8.009;7.115;28.275;5.700;-3.874
3027160.949;36.545;60.126;117.347;-0.559;11.288;24.363;2.757;-9.872
3027160.957;45.113;63.330;125.431;5.290;18.515;28.610;8.307;-8.568
3027160.965;54.538;79.758;132.062;16.093;30.510;34.198;16.317;-5.066
3027160.973;59.232;89.407;136.718;29.132;31.255;42.282;24.736;0.522
3027160.981;44.368;60.834;125.617;1.006;13.672;43.251;22.687;2.421
3027160.989;35.837;52.750;116.155;-8.978;7.302;43.213;20.117;5.402
3027160.997;32.224;62.473;111.088;5.253;3.465;36.806;12.517;2.533
3027161.005;26.226;53.607;105.649;-0.373;13.448;29.542;3.465;-1.341
3027161.013;16.391;38.706;96.150;-17.770;0.894;20.303;-6.780;-7.637
3027161.021;16.205;33.714;93.691;-29.355;-5.960;13.709;-11.548;-13.188
3027161.029;22.911;37.253;97.752;-24.028;-5.364;12.778;-11.399;-17.434
3027161.037;40.270;59.083;113.994;11.548;6.109;19.558;-3.204;-13.039
3027161.045;49.956;70.781;124.648;20.787;18.813;29.504;7.264;-3.166
3027161.053;45.113;59.903;118.986;3.763;19.297;34.794;11.697;-0.671
3027161.061;46.417;68.657;117.049;4.172;17.770;44.368;21.122;7.115
3027161.069;40.680;64.261;108.853;14.417;11.846;48.056;23.134;8.531
3027161.077;28.536;48.392;98.646;2.980;3.539;44.443;18.701;4.284
3027161.085;25.779;38.743;96.895;-11.250;2.533;43.623;18.217;5.588
3027161.093;25.555;44.517;98.236;-12.405;6.258;39.190;13.746;2.384
3027161.101;13.225;36.061;85.123;-20.042;-14.789;22.762;-3.688;-12.591
3027161.109;23.842;48.168;96.187;-2.198;-1.155;26.673;-1.565;-8.754
3027161.117;31.888;47.684;99.614;3.204;2.123;31.069;3.688;-2.161
3027161.125;26.859;40.494;94.995;-10.729;1.490;25.928;-0.745;-5.774
3027161.133;26.003;47.386;93.207;-8.605;2.757;27.604;1.490;-7.413
3027161.129;30.883;54.725;99.428;3.316;10.692;35.577;9.462;-3.278
3027161.137;26.189;40.941;95.256;2.533;7.488;36.359;10.468;-6.482
3027161.145;28.946;44.368;94.958;-0.969;3.427;41.798;14.342;-0.782
3027161.153;29.877;48.950;93.505;-2.831;-2.161;43.176;12.815;4.433
3027161.161;21.607;43.437;88.103;-8.605;-4.508;34.198;1.602;-1.378
3027161.169;13.113;26.599;81.845;-20.154;-3.055;21.383;-11.846;-9.798
3027161.177;18.626;29.914;88.923;-17.397;2.384;18.291;-14.976;-10.096
3027161.185;16.354;30.398;84.825;-17.732;-5.104;11.325;-20.824;-17.881
3027161.193;14.640;30.771;81.137;-21.011;-8.680;9.872;-21.011;-20.005
3027161.201;18.664;41.015;83.148;-9.276;4.359;18.664;-13.039;-15.199
3027161.209;19.521;32.783;89.258;-11.101;4.917;28.051;-2.906;-9.052
3027161.217;11.586;28.424;77.374;-17.732;-5.662;31.926;2.049;-8.345
3027161.225;6.184;24.177;69.924;-21.346;-15.274;32.187;2.868;-8.494
3027161.233;10.617;29.430;77.635;-21.271;-12.405;36.582;5.625;-1.825
3027161.241;3.986;24.326;69.998;-27.232;-13.411;30.100;-0.745;-5.178
3027161.249;-0.261;17.397;65.044;-26.412;-18.217;24.699;-6.668;-8.829
3027161.257;3.502;19.968;68.769;-11.921;-17.546;26.710;-4.843;-7.451
3027161.265;2.682;18.552;71.302;-24.624;-8.270;28.275;-3.316;-5.737
3027161.273;-1.937;15.311;70.184;-27.046;-14.380;27.791;-3.092;-6.109
3027161.281;-1.155;22.464;68.434;-20.228;-17.174;29.542;-0.782;-5.774
3027161.289;0.857;18.179;69.067;-21.532;-18.291;34.906;4.917;-1.900
3027161.297;-2.533;6.780;66.422;-29.802;-20.042;35.912;7.115;-1.714
3027161.305;1.490;22.054;71.488;-18.775;-17.695;39.414;12.740;1.267
3027161.313;-4.731;16.764;65.900;-25.928;-20.824;33.937;8.866;-3.576
3027161.336;-10.356;1.006;59.232;-34.012;-14.603;23.767;0.484;-13.262
3027161.344;-7.972;9.499;58.226;-25.183;-14.342;19.185;-5.290;-15.013
3027161.352;-6.557;10.021;61.095;-27.642;-15.311;19.558;-5.849;-10.692
3027161.360;-0.782;17.285;69.514;-13.374;-8.941;21.197;-5.439;-7.004
3027161.368;0.894;21.383;73.239;-12.256;-15.385;27.977;-0.112;0.559
3027161.376;-1.416;15.832;75.325;-27.940;0.633;30.212;1.714;2.570
3027161.384;-0.969;25.891;69.290;-14.119;0.373;31.330;4.098;1.825
3027161.392;1.490;21.532;72.718;-11.288;-0.447;38.147;13.001;7.227
3027161.400;4.955;22.538;74.469;-8.792;7.153;39.414;13.523;9.499
3027161.408;8.158;27.977;76.331;-15.050;-3.688;31.143;4.955;2.533
3027161.416;-0.522;19.185;70.408;-30.212;-0.969;21.718;-2.943;-7.302
3027161.424;-1.676;22.165;70.632;-19.632;1.416;25.593;0.969;-4.023
3027161.432;1.006;18.887;71.302;-17.211;-3.837;31.441;5.849;1.378
3027161.440;8.047;26.971;77.412;-3.912;9.015;36.471;10.170;5.625
3027161.448;6.817;25.295;72.345;-11.995;6.333;45.225;18.738;13.299
3027161.456;8.158;27.530;75.400;-17.695;11.772;45.300;19.819;12.219
3027161.464;4.098;26.301;71.898;-18.738;3.874;39.898;16.168;4.023
3027161.472;-4.992;20.601;58.152;-23.730;-15.609;26.599;-0.149;-6.855
3027161.480;-5.774;26.450;57.779;-20.005;-23.060;17.248;-10.394;-16.056
3027161.488;-3.614;15.944;66.124;-19.297;2.198;22.538;-5.774;-11.139
3027161.496;-3.427;13.858;63.218;-31.032;11.958;29.430;2.161;-6.892
3027161.504;7.264;35.129;67.130;-13.560;8.717;39.972;15.758;0.894
3027161.512;9.164;36.396;69.886;-7.190;4.694;39.898;17.099;1.118
3027161.520;2.645;28.573;62.697;-16.391;-6.706;40.792;19.148;-0.335
3027161.518;5.998;28.685;61.728;-10.170;-6.370;49.770;28.312;5.141
3027161.526;-6.296;12.964;50.478;-31.702;-7.600;42.021;17.062;-2.608
3027161.534;-12.591;13.374;49.584;-45.151;-17.323;24.810;-6.557;-15.274
3027161.542;-22.016;17.211;36.694;-30.175;-21.495;16.280;-17.248;-23.730
3027161.550;-33.379;-4.731;26.114;-45.113;-29.467;13.858;-18.664;-26.636
3027161.558;-55.097;-30.920;0.559;-77.114;-57.146;9.984;-21.085;-29.020
3027161.566;-73.276;-51.670;-19.968;-97.789;-73.761;1.416;-20.824;-33.006
3027161.574;-80.056;-54.315;-30.100;-96.262;-81.696;-24.140;-13.970;-31.590
3027161.582;-81.696;-62.697;-33.118;-98.906;-86.538;-25.928;2.719;-18.254
3027161.590;-95.032;-77.151;-45.411;-120.811;-96.187;-36.992;-7.413;-27.120
3027161.598;-86.278;-61.952;-38.184;-106.618;-86.129;-38.333;-9.611;-27.195
3027161.606;-81.919;-56.513;-27.195;-93.468;-70.632;-33.788;-6.892;-26.338
3027161.614;-86.278;-58.934;-34.049;-94.809;-70.296;-53.532;-32.596;-48.727
3027161.622;-82.143;-49.248;-32.932;-93.952;-69.700;-56.736;-41.500;-54.166
3027161.630;-88.401;-67.018;-38.296;-104.979;-83.372;-49.882;-33.751;-51.148
3027161.638;-95.963;-66.608;-50.142;-110.380;-85.123;-52.862;-31.330;-52.713
3027161.646;-102.557;-68.732;-61.058;-109.375;-95.926;-55.246;-29.020;-52.303
3027161.654;-98.757;-65.900;-59.418;-97.640;-93.393;-43.884;-14.342;-40.308
3027161.662;-96.150;-73.649;-53.719;-105.724;-91.344;-28.275;5.513;-26.375
3027161.670;-107.698;-88.476;-66.683;-127.405;-114.292;-40.680;-3.651;-41.164
3027161.678;-98.906;-80.541;-57.220;-118.874;-95.442;-32.783;1.714;-32.671
3027161.686;-85.346;-54.203;-43.847;-80.764;-65.304;-35.167;-1.751;-36.582
3027161.694;-94.697;-59.158;-59.903;-83.894;-92.126;-69.402;-38.296;-68.247
3027161.702;-114.553;-88.364;-81.100;-121.444;-116.937;-85.235;-55.097;-83.074
3027161.713;-124.946;-105.947;-85.384;-136.085;-116.378;-91.717;-57.407;-91.344
3027161.721;-130.609;-104.383;-96.001;-128.150;-123.195;-88.699;-51.856;-89.854
3027161.729;-148.155;-120.290;-115.298;-148.267;-140.481;-92.760;-54.948;-95.181
3027161.737;-154.637;-128.672;-116.415;-159.740;-133.403;-93.654;-52.787;-96.448
3027161.745;-137.053;-111.163;-101.030;-135.005;-129.491;-83.670;-38.370;-86.315
3027161.753;-139.140;-110.418;-104.159;-133.067;-144.467;-86.240;-42.208;-87.880
3027161.761;-148.341;-123.158;-115.149;-150.949;-153.892;-101.700;-57.295;-103.079
3027161.769;-154.525;-135.154;-122.115;-165.552;-156.388;-110.306;-67.763;-112.578
3027161.777;-153.743;-131.056;-118.203;-157.803;-143.349;-108.294;-66.236;-113.286
3027161.785;-187.196;-163.838;-151.396;-191.294;-168.644;-134.744;-94.213;-137.910
3027161.793;-190.586;-166.781;-152.364;-189.878;-180.118;-133.328;-91.046;-137.538
3027161.801;-200.793;-177.734;-165.589;-201.426;-204.593;-134.110;-90.897;-135.787
3027161.809;-206.344;-184.402;-171.810;-213.869;-206.679;-139.475;-97.491;-138.991
3027161.817;-204.071;-172.183;-174.418;-201.389;-202.730;-133.961;-88.997;-136.159
3027161.825;-212.826;-181.757;-181.049;-205.040;-204.556;-144.430;-101.365;-146.851
3027161.833;-232.160;-209.287;-196.472;-230.223;-215.992;-166.036;-121.705;-171.028
3027161.841;-241.436;-216.477;-208.206;-243.038;-238.419;-174.046;-127.256;-180.043
3027161.849;-235.289;-201.687;-202.581;-230.558;-227.690;-178.404;-130.832;-182.800
3027161.857;-246.242;-222.437;-217.035;-253.208;-242.405;-182.465;-131.652;-185.370
3027161.865;-265.911;-238.642;-238.754;-265.166;-277.162;-194.274;-142.306;-197.589
3027161.873;-267.364;-235.699;-234.880;-261.031;-261.702;-198.558;-143.796;-204.332
3027161.881;-273.660;-245.348;-240.169;-264.570;-261.441;-207.834;-152.588;-213.906
3027161.889;-264.309;-223.033;-234.619;-263.005;-250.116;-191.778;-137.351;-201.911
3027161.897;-272.989;-245.124;-243.001;-269.637;-266.470;-199.750;-144.616;-215.583
3027161.909;-271.462;-236.891;-242.554;-262.968;-272.207;-205.301;-155.903;-219.643
3027161.917;-260.361;-228.249;-231.005;-247.359;-263.117;-208.057;-161.342;-221.469
3027161.925;-246.353;-216.402;-215.843;-248.030;-244.826;-193.194;-146.441;-207.946
3027161.933;-260.584;-224.188;-231.117;-254.437;-258.945;-199.378;-150.912;-217.818
3027161.941;-307.150;-271.797;-278.279;-305.660;-311.360;-233.240;-179.932;-254.512
3027161.949;-318.326;-277.720;-289.418;-310.168;-314.899;-239.350;-183.359;-261.851
3027161.957;-318.624;-288.412;-291.057;-314.266;-311.062;-222.661;-168.271;-246.726
3027161.965;-339.150;-310.056;-320.338;-340.417;-345.036;-250.749;-201.128;-267.476
3027161.973;-356.920;-331.178;-330.731;-361.167;-352.673;-275.560;-223.592;-300.817
3027161.981;-341.423;-317.842;-311.024;-354.163;-335.686;-257.194;-209.771;-287.108
3027161.989;-316.501;-288.449;-293.404;-330.918;-321.344;-236.258;-187.941;-269.413
3027161.997;-360.645;-336.953;-341.684;-372.119;-368.766;-288.971;-238.195;-321.604
3027162.005;-395.849;-367.910;-380.091;-406.317;-409.894;-321.977;-269.227;-353.828
3027162.013;-431.724;-405.908;-415.705;-444.613;-447.258;-345.632;-290.535;-382.476
3027162.021;-444.427;-427.365;-425.950;-478.774;-450.686;-351.034;-291.914;-404.157
3027162.029;-464.730;-448.823;-449.419;-504.330;-466.406;-386.313;-325.739;-448.972
3027162.037;-478.551;-463.352;-463.352;-515.431;-487.901;-400.580;-336.543;-469.014
3027162.045;-499.524;-491.515;-481.270;-546.016;-509.843;-416.934;-354.834;-488.237
3027162.053;-521.950;-506.341;-505.261;-561.997;-527.501;-442.602;-380.129;-518.747
3027162.061;-534.467;-520.311;-519.492;-575.073;-545.159;-469.163;-404.045;-548.586
3027162.069;-558.048;-550.263;-543.408;-604.130;-553.764;-488.423;-421.628;-570.454
3027162.077;-591.241;-582.710;-580.885;-637.397;-597.164;-511.557;-444.464;-592.880
3027162.085;-629.388;-618.473;-624.135;-665.896;-640.750;-538.267;-468.530;-617.728
3027162.093;-656.322;-651.143;-653.639;-700.317;-670.739;-562.109;-487.901;-643.246
3027162.089;-663.921;-661.351;-656.545;-709.444;-681.542;-572.056;-495.352;-651.218
3027162.097;-725.500;-721.663;-719.875;-759.177;-722.893;-634.380;-556.782;-715.516
3027162.105;-770.427;-766.628;-769.310;-800.192;-773.966;-676.699;-600.070;-759.289
3027162.113;-769.719;-760.742;-763.312;-794.753;-769.459;-667.870;-589.825;-749.342
3027162.121;-785.887;-782.087;-777.729;-820.048;-782.646;-689.328;-609.495;-777.915
3027162.129;-817.776;-820.160;-809.766;-855.513;-815.801;-727.698;-645.369;-830.367
3027162.137;-807.568;-813.492;-803.247;-839.196;-819.601;-715.666;-626.184;-830.255
3027162.145;-810.884;-807.792;-806.749;-841.245;-804.253;-728.667;-630.803;-849.366
3027162.153;-831.559;-837.408;-829.212;-863.112;-825.711;-746.772;-649.430;-868.328
3027162.161;-861.436;-874.549;-856.780;-894.368;-856.742;-776.723;-674.315;-905.283
3027162.169;-872.277;-866.540;-869.334;-888.556;-868.775;-792.481;-688.545;-926.405
3027162.177;-872.761;-877.827;-874.810;-885.762;-874.735;-779.443;-670.813;-920.482
3027162.185;-882.260;-894.591;-880.547;-909.641;-883.117;-785.813;-678.748;-926.852
3027162.193;-861.250;-869.185;-868.216;-875.369;-861.436;-760.593;-648.759;-894.219
3027162.201;-901.893;-908.114;-919.513;-927.113;-914.782;-782.348;-653.826;-899.732
3027162.209;-932.142;-935.346;-943.691;-959.486;-948.571;-810.139;-676.103;-941.046
3027162.217;-931.025;-943.281;-938.252;-951.961;-935.607;-820.458;-696.816;-967.309
3027162.225;-930.913;-951.327;-930.205;-951.998;-934.079;-833.422;-712.648;-987.016
3027162.233;-957.027;-981.353;-955.164;-985.973;-946.820;-858.121;-734.292;-1011.305
3027162.241;-948.831;-970.699;-949.576;-981.838;-937.022;-849.701;-725.351;-1001.619
3027162.249;-957.698;-981.502;-962.876;-985.861;-953.041;-853.650;-729.151;-1004.972
3027162.257;-951.476;-970.028;-955.239;-965.931;-940.822;-847.131;-723.228;-999.458
3027162.265;-941.940;-965.968;-943.616;-964.217;-935.793;-832.044;-707.209;-986.122
3027162.273;-935.234;-968.538;-938.512;-965.446;-928.305;-818.185;-692.084;-971.630
3027162.298;-978.224;-1012.757;-984.035;-1005.158;-973.009;-855.811;-728.071;-1011.193
3027162.306;-966.266;-1002.662;-973.865;-994.354;-963.844;-844.859;-715.293;-1000.315
3027162.314;-944.473;-979.528;-952.259;-964.403;-935.197;-821.464;-692.792;-973.605
3027162.322;-953.786;-991.188;-958.890;-977.069;-940.450;-820.570;-690.818;-973.269
3027162.330;-932.328;-970.177;-940.859;-960.231;-928.491;-795.238;-662.543;-944.994
3027162.338;-913.516;-941.232;-923.984;-943.094;-916.868;-775.792;-644.550;-924.021
3027162.346;-902.079;-930.205;-914.112;-918.135;-906.214;-763.498;-630.207;-913.739
3027162.354;-901.185;-936.352;-912.771;-918.508;-906.698;-756.867;-623.129;-906.214
3027162.362;-869.408;-900.328;-902.712;-895.821;-891.984;-712.499;-563.115;-821.203
3027162.370;-826.530;-817.962;-885.241;-848.249;-884.794;-635.609;-455.268;-695.661
3027162.378;-867.955;-877.604;-895.076;-880.249;-890.717;-690.743;-530.258;-810.474
3027162.386;-879.765;-906.475;-896.789;-901.446;-886.992;-713.468;-569.709;-854.880
3027162.394;-853.129;-883.862;-872.165;-873.804;-858.605;-679.418;-541.434;-818.782
3027162.402;-855.178;-890.121;-871.345;-877.529;-861.920;-672.005;-535.995;-812.858
3027162.410;-884.123;-916.086;-899.844;-900.924;-892.691;-695.288;-562.444;-837.035
3027162.418;-883.937;-920.333;-902.377;-906.028;-887.215;-685.379;-550.635;-827.201
3027162.426;-889.562;-928.678;-909.530;-912.361;-892.319;-694.208;-556.447;-839.978
3027162.434;-873.767;-915.565;-893.287;-889.823;-881.068;-682.026;-546.277;-830.181
3027162.442;-853.501;-889.935;-874.251;-876.598;-855.736;-655.465;-522.360;-802.688
3027162.450;-847.131;-882.596;-870.004;-877.008;-854.805;-645.369;-514.388;-788.234
3027162.458;-862.703;-903.718;-887.178;-887.513;-877.492;-662.692;-531.003;-806.302
3027162.466;-864.938;-903.569;-889.711;-882.708;-866.614;-655.800;-521.764;-799.522
3027162.474;-862.926;-901.185;-890.456;-886.843;-866.130;-652.485;-520.311;-791.848
3027162.482;-858.456;-900.328;-883.117;-886.135;-868.589;-644.177;-513.755;-781.789
3027162.478;-851.192;-889.674;-877.082;-879.057;-850.856;-636.019;-507.645;-771.582
3027162.486;-837.967;-873.469;-865.348;-855.550;-843.368;-626.184;-497.848;-763.573
3027162.494;-823.103;-860.058;-852.868;-848.323;-834.316;-611.246;-483.617;-747.517
3027162.502;-826.567;-864.789;-857.972;-855.252;-839.084;-606.924;-479.147;-740.997
3027162.510;-850.633;-890.754;-883.602;-880.621;-872.388;-625.849;-498.295;-760.332
3027162.518;-829.324;-870.936;-860.691;-862.256;-841.990;-602.528;-473.149;-733.435
3027162.526;-810.400;-849.925;-839.308;-835.471;-813.156;-583.269;-452.772;-715.852
3027162.534;-820.495;-855.103;-853.427;-841.580;-836.290;-588.410;-459.142;-720.471
3027162.542;-805.296;-840.612;-835.396;-831.336;-821.464;-568.852;-441.149;-701.696
3027162.550;-789.836;-831.820;-815.503;-823.736;-801.831;-548.065;-421.703;-682.883
3027162.558;-773.147;-812.225;-803.247;-812.821;-784.323;-525.080;-398.494;-656.396
3027162.566;-777.431;-817.701;-806.414;-813.752;-790.916;-517.629;-392.050;-650.473
3027162.574;-744.574;-785.664;-771.731;-782.534;-762.083;-497.513;-373.311;-630.654
3027162.582;-713.579;-758.246;-738.986;-756.793;-727.959;-478.439;-356.063;-608.787
3027162.590;-706.315;-754.520;-732.318;-757.836;-725.538;-470.765;-351.630;-600.889
3027162.598;-702.143;-748.523;-729.673;-752.807;-721.142;-459.626;-343.099;-590.347
3027162.606;-675.805;-716.075;-703.000;-725.240;-684.448;-430.979;-314.601;-566.356
3027162.614;-648.573;-684.075;-676.326;-690.483;-659.414;-407.323;-290.461;-543.632
3027162.622;-655.502;-692.233;-681.467;-698.268;-671.707;-409.484;-294.000;-543.296
3027162.630;-637.472;-679.977;-662.990;-690.520;-655.428;-385.344;-272.170;-520.758
3027162.638;-628.680;-671.186;-653.863;-677.630;-646.152;-369.251;-257.790;-503.324
3027162.646;-620.298;-658.557;-644.177;-669.360;-637.956;-354.685;-247.248;-489.987
3027162.654;-602.826;-648.275;-624.657;-662.990;-619.367;-334.345;-229.254;-469.051
3027162.662;-571.050;-610.352;-589.080;-626.966;-589.676;-303.835;-197.142;-439.137
3027162.689;-547.208;-575.185;-561.438;-596.605;-563.078;-281.706;-175.573;-417.195
3027162.697;-534.132;-562.705;-546.612;-596.940;-549.443;-265.054;-159.219;-397.861
3027162.705;-520.349;-551.604;-530.146;-582.598;-535.361;-257.529;-151.470;-387.840
3027162.713;-501.014;-529.215;-509.508;-558.645;-518.560;-240.840;-136.495;-368.953
3027162.721;-494.570;-521.876;-499.263;-559.315;-506.714;-227.056;-125.542;-351.630
3027162.729;-484.847;-512.488;-487.082;-552.684;-494.570;-212.714;-113.472;-336.803
3027162.737;-468.902;-490.285;-469.871;-534.393;-488.237;-189.506;-90.301;-313.148
3027162.745;-457.130;-478.886;-455.119;-525.825;-470.430;-173.114;-73.798;-297.204
3027162.753;-441.410;-455.044;-438.057;-515.133;-453.517;-160.076;-60.834;-282.563
3027162.761;-435.673;-453.033;-434.592;-512.488;-450.611;-158.437;-59.903;-278.205
3027162.769;-439.100;-458.732;-435.635;-520.274;-451.989;-168.458;-72.680;-286.959
3027162.777;-414.513;-420.026;-411.570;-483.543;-426.695;-157.878;-63.106;-275.671
3027162.785;-381.321;-396.408;-381.097;-464.134;-408.031;-146.702;-54.091;-264.943
3027162.793;-354.983;-374.429;-363.551;-459.328;-395.104;-137.910;-46.492;-254.326
3027162.801;-308.417;-326.931;-310.428;-415.817;-337.400;-117.384;-25.742;-232.011
3027162.809;-268.556;-272.952;-264.645;-372.604;-288.598;-110.306;-17.658;-225.566
3027162.817;-246.279;-243.448;-245.124;-348.426;-281.557;-107.028;-13.635;-218.302
3027162.825;-235.513;-234.582;-233.762;-338.294;-268.966;-99.763;-7.600;-211.783
3027162.833;-217.557;-219.904;-212.975;-324.436;-244.603;-81.770;7.227;-194.684
3027162.841;-224.784;-229.478;-215.545;-343.174;-245.310;-74.878;9.984;-185.445
3027162.849;-244.267;-243.150;-232.123;-358.820;-271.611;-88.885;-5.998;-200.942
3027162.857;-233.389;-239.499;-221.170;-344.329;-255.257;-68.210;13.597;-180.639
3027162.865;-205.562;-209.846;-189.878;-328.608;-237.301;-32.820;46.194;-145.733
3027162.873;-194.609;-186.935;-178.777;-307.411;-218.973;-27.753;48.168;-137.538
3027162.870;-209.771;-201.724;-193.901;-320.040;-231.937;-39.116;34.943;-147.857
3027162.878;-189.878;-182.986;-171.922;-306.256;-210.144;-17.583;53.123;-128.224
3027162.886;-167.638;-162.460;-151.470;-278.726;-192.225;7.227;76.778;-101.253
3027162.894;-172.183;-165.105;-155.680;-290.126;-205.822;8.792;76.890;-99.204
3027162.902;-143.498;-142.232;-127.070;-254.996;-177.063;44.517;110.194;-58.487
3027162.910;-121.668;-122.264;-104.904;-229.739;-143.945;71.414;132.881;-25.667
3027162.918;-139.996;-124.164;-120.439;-246.018;-156.574;49.397;107.624;-44.405
3027162.926;-128.523;-110.716;-108.145;-223.219;-151.508;51.334;108.518;-38.110
3027162.934;-108.220;-92.126;-87.544;-212.677;-127.889;62.697;116.900;-22.911
3027162.942;-81.919;-64.075;-58.748;-191.331;-94.138;81.658;132.769;-0.969
3027162.950;-60.089;-42.990;-38.669;-161.789;-81.882;100.806;150.315;23.805
3027162.958;-57.518;-42.580;-35.390;-148.267;-80.653;101.440;148.490;29.244
3027162.966;-57.332;-36.545;-38.259;-141.859;-75.735;103.340;147.149;37.812
3027162.974;-57.369;-31.106;-38.221;-143.014;-86.427;107.326;149.794;43.772
3027162.982;-31.367;-8.158;-10.431;-116.713;-52.713;135.452;178.367;74.804
3027162.990;-22.016;0.112;-1.192;-110.157;-46.343;147.335;188.798;91.419
3027162.998;-38.184;-18.813;-14.007;-121.929;-56.997;130.720;167.340;80.317
3027163.006;-29.914;-9.052;-5.737;-102.967;-40.643;130.758;166.371;86.762
3027163.014;-19.446;4.694;6.631;-98.348;-31.404;134.595;168.979;95.554
3027163.022;6.519;34.533;29.542;-70.781;-10.580;152.960;184.923;120.103
3027163.030;10.394;42.729;31.143;-59.903;-16.019;153.482;184.104;127.330
3027163.038;12.517;37.551;34.533;-61.393;-6.668;150.688;180.006;130.124
3027163.046;45.672;67.353;67.577;-30.771;31.777;182.725;211.112;166.409
3027163.054;40.419;63.330;66.236;-29.467;27.195;170.358;196.807;155.903
3027163.047;24.512;48.690;48.764;-45.486;8.531;146.218;171.997;137.128
3027163.055;47.311;77.300;68.098;-20.117;37.327;163.950;190.064;160.858
3027163.063;54.576;89.109;76.778;-12.852;44.964;167.675;194.125;169.128
3027163.071;65.081;100.397;86.688;4.023;48.541;171.475;198.446;179.783
3027163.079;55.879;87.619;80.056;-2.198;41.574;161.901;187.233;173.450
3027163.087;55.730;82.776;78.715;-12.591;38.520;165.962;190.139;180.192
3027163.095;57.928;95.703;79.572;2.421;36.620;168.048;192.672;189.617
3027163.103;82.888;120.699;109.039;36.135;67.949;170.581;193.976;199.564
3027163.111;97.193;129.417;122.637;39.488;83.409;177.473;200.160;212.304
3027163.119;80.876;111.721;107.177;18.068;67.353;158.027;179.298;197.031
3027163.127;79.125;109.486;104.755;18.217;63.442;151.061;174.902;195.354
3027163.135;99.130;133.701;127.852;35.390;86.166;164.434;190.213;215.247
3027163.143;106.990;141.524;133.924;47.125;103.638;163.130;189.096;218.451
3027163.151;100.359;141.114;122.599;61.095;92.015;150.017;176.206;210.144
3027163.159;99.801;137.389;123.233;53.085;90.003;151.247;175.722;213.645
3027163.167;114.627;149.235;140.518;72.978;98.310;165.924;191.107;232.011
3027163.175;106.469;145.994;131.764;60.722;91.903;165.105;188.835;234.060
3027163.183;102.781;141.710;125.840;53.793;93.952;163.428;184.998;232.942
3027163.191;119.619;156.239;143.237;74.469;109.449;169.836;190.064;244.938
3027163.199;113.435;155.866;138.953;68.769;100.024;164.472;183.731;241.399
3027163.207;120.960;160.746;145.175;82.552;107.847;170.134;187.904;249.706
3027163.215;128.299;162.087;154.153;84.415;117.794;174.902;191.517;260.659
3027163.223;124.909;158.437;152.588;77.970;119.358;164.993;179.149;255.592
3027163.231;143.908;181.571;169.724;96.262;141.114;175.424;189.021;269.227
3027163.243;142.828;173.226;167.675;87.358;136.271;170.395;183.471;266.246
3027163.251;139.363;172.518;162.162;85.980;129.901;157.356;168.495;256.859
3027163.259;151.917;189.729;176.504;104.569;138.022;161.976;172.146;265.986
3027163.267;150.204;183.284;175.014;102.222;140.630;150.912;160.001;262.186
3027163.275;144.243;174.679;166.222;98.944;138.879;142.045;151.731;260.957
3027163.283;141.859;169.799;165.030;94.883;133.440;138.916;148.378;262.074
3027163.291;153.892;185.631;178.404;109.300;154.376;137.947;148.416;265.762
3027163.299;157.692;196.621;180.565;111.349;151.321;138.432;150.017;269.376
3027163.307;166.334;205.077;191.964;125.691;164.136;142.343;153.296;274.144
3027163.315;165.626;200.123;189.543;129.379;170.544;134.297;144.355;271.164
3027163.323;147.559;185.110;169.761;111.610;146.367;111.908;123.233;253.133
3027163.331;159.107;194.684;181.422;121.035;159.778;117.756;131.279;261.441
3027163.339;174.269;210.181;196.584;133.552;167.452;128.821;139.810;278.391
3027163.347;175.647;209.846;198.223;132.807;164.434;135.675;146.255;289.828
3027163.355;157.058;192.039;182.502;107.773;156.537;113.659;123.344;276.901
3027163.363;158.250;196.025;177.473;125.617;161.231;110.082;118.986;278.093
3027163.371;152.700;196.882;175.424;125.132;152.402;94.362;104.047;265.166
3027163.379;159.368;198.446;185.110;122.674;163.764;91.381;102.557;262.819
3027163.387;154.600;191.890;175.163;125.207;152.625;88.476;99.614;259.392
3027163.395;164.136;201.389;181.012;133.626;147.708;85.346;98.012;260.770
3027163.403;157.766;195.913;175.312;128.411;143.647;90.823;104.755;267.699
3027163.411;141.636;178.441;156.686;111.051;132.173;90.040;101.067;271.648
3027163.419;113.584;148.043;129.640;81.137;109.822;76.480;82.888;261.813
3027163.427;96.820;130.795;112.802;65.714;98.720;75.772;80.094;262.521
3027163.439;84.154;117.943;100.844;51.782;90.301;70.296;72.978;264.123
3027163.447;78.157;110.157;93.505;47.125;85.905;65.565;68.061;262.521
3027163.455;88.923;120.588;105.128;57.891;97.565;70.333;70.557;267.550
3027163.463;93.542;117.831;108.667;72.829;104.681;72.494;70.594;269.152
3027163.471;92.573;119.396;108.443;72.718;99.316;77.076;75.027;270.717
3027163.479;94.660;130.199;108.480;67.167;101.924;79.349;76.517;275.970
3027163.487;104.047;140.518;118.501;77.970;121.668;87.284;85.533;282.712
3027163.495;102.483;142.530;116.751;83.521;131.428;81.360;75.884;279.583
3027163.503;113.621;152.439;129.044;101.291;135.414;92.722;85.309;294.633
3027163.511;122.972;153.854;138.283;112.094;138.208;102.185;93.505;304.207
3027163.519;98.944;127.479;112.504;84.639;118.166;76.406;68.732;282.265
3027163.527;77.784;104.718;95.479;55.730;106.581;54.017;47.907;257.529
3027163.535;99.353;131.950;115.745;84.154;121.407;67.130;60.089;270.419
3027163.543;118.464;152.178;130.199;105.128;132.136;81.547;72.233;289.530
3027163.551;99.055;129.230;112.616;84.788;112.094;62.175;51.670;270.493
3027163.559;114.292;144.914;125.803;102.557;131.913;69.402;58.562;279.732
3027163.567;121.370;144.914;128.821;107.177;133.924;74.916;66.496;285.171
3027163.575;117.309;140.741;124.872;105.090;131.615;66.198;58.785;274.889
3027163.583;136.048;167.154;143.312;131.279;155.270;80.802;70.520;292.920
3027163.591;125.244;159.256;131.987;131.503;143.349;64.299;54.501;278.130
3027163.599;137.202;172.071;140.518;143.237;150.762;76.182;68.285;291.727
3027163.607;133.663;164.285;135.452;133.030;140.555;79.535;71.153;293.851
3027163.615;134.818;165.515;135.414;127.852;131.354;72.420;63.106;288.859
3027163.623;149.496;180.714;151.582;149.943;164.323;74.878;65.155;294.335
3027163.632;151.023;180.788;153.482;153.333;163.876;77.672;67.912;296.198
3027163.640;152.253;179.596;152.551;150.949;158.548;85.942;74.133;304.282
3027163.648;163.838;193.976;161.342;172.071;165.440;83.223;69.551;299.588
3027163.656;182.353;216.514;175.983;186.525;170.581;79.796;66.869;291.653
3027163.664;219.755;249.036;210.144;214.502;201.985;97.789;82.850;307.262
3027163.672;252.463;280.589;244.267;251.532;227.615;113.174;94.250;319.965
3027163.680;270.829;303.090;261.031;274.554;239.983;113.472;95.107;320.226
3027163.688;295.117;329.874;285.581;301.823;274.628;121.482;103.228;325.851
3027163.696;311.732;339.411;301.041;314.005;296.608;140.816;117.496;345.409
3027163.704;308.976;334.643;298.470;308.193;295.416;150.129;125.170;356.771
3027163.712;303.425;330.396;291.094;305.399;285.320;147.112;124.797;351.928
3027163.720;318.736;353.605;304.356;322.498;293.069;164.434;144.802;371.896
3027163.728;301.003;337.437;286.102;310.205;268.482;154.413;135.489;361.241
3027163.736;288.859;314.675;272.430;289.604;257.827;147.894;129.454;352.450
3027163.744;290.722;317.283;275.783;290.386;262.819;153.817;133.105;355.504
3027163.752;297.166;329.949;283.383;304.617;269.562;161.901;135.899;357.218
3027163.760;299.551;330.359;284.836;299.811;268.444;167.824;139.475;360.087
3027163.768;297.800;320.859;286.326;296.272;275.932;175.349;144.653;362.396
3027163.776;295.639;324.659;285.916;301.786;270.717;181.235;148.378;365.749
3027163.784;300.817;337.660;287.406;304.468;269.897;180.639;149.459;363.998
3027163.792;308.305;339.039;299.253;308.752;288.002;182.539;152.029;362.210
3027163.800;317.879;346.676;307.485;316.165;305.176;188.202;156.797;370.145
3027163.808;306.740;330.061;299.364;291.057;294.074;179.820;145.584;362.694
3027163.816;297.241;320.300;288.859;284.724;279.732;167.415;130.013;350.289
3027163.829;311.248;333.115;301.860;304.021;287.779;177.547;139.959;359.863
3027163.837;319.965;345.111;313.371;308.938;296.943;183.210;143.535;362.545
3027163.845;327.006;352.934;318.214;310.801;299.253;192.299;153.556;372.678
3027163.853;319.071;346.974;311.173;298.470;298.582;191.070;151.731;370.257
3027163.861;325.926;349.060;319.816;294.968;306.927;203.662;164.881;382.885
3027163.869;331.514;352.301;325.963;298.843;312.254;207.275;172.593;385.195
3027163.877;306.852;326.037;300.892;279.546;292.175;172.332;139.289;347.495
3027163.885;309.758;332.557;300.966;285.208;291.504;175.573;139.512;355.653
3027163.893;316.687;345.372;307.970;292.771;297.390;182.390;145.063;362.173
3027163.901;318.177;337.586;308.827;287.220;302.978;180.863;142.045;360.385
3027163.909;322.945;351.630;313.111;284.910;302.494;182.390;142.716;364.520
3027163.917;318.848;342.317;309.348;292.063;304.468;177.957;138.618;358.298
3027163.925;319.555;341.572;308.976;287.481;305.586;177.436;140.704;356.212
3027163.933;318.959;341.162;307.783;285.991;300.817;178.367;140.555;355.057
3027163.941;311.919;332.147;297.800;280.365;285.693;177.994;138.581;355.691
3027163.949;318.363;340.678;301.599;287.220;298.060;187.196;147.037;365.674
3027163.957;328.086;346.713;312.701;295.229;315.271;197.999;155.419;372.119
3027163.965;340.976;356.473;322.200;305.101;317.842;210.293;169.128;386.424
3027163.973;314.489;334.308;300.072;280.552;294.372;188.462;147.782;363.253
3027163.981;326.633;352.338;309.721;301.190;306.182;194.758;154.339;370.182
3027163.989;350.513;378.303;331.886;324.287;325.628;201.911;162.758;378.452
3027163.997;353.344;375.062;336.543;323.206;322.349;200.942;162.758;374.280
3027164.005;364.967;381.880;346.564;332.557;323.281;218.228;180.639;390.969
3027164.013;377.372;395.849;360.869;347.681;334.382;234.619;195.205;402.555
3027164.009;371.598;395.104;352.822;342.987;319.444;235.774;191.294;403.561
3027164.017;370.927;394.583;353.567;343.695;322.536;234.507;188.053;404.343
3027164.025;372.119;389.367;358.000;342.391;335.202;230.968;183.880;399.351
3027164.033;369.437;393.763;351.146;351.630;324.138;227.801;182.725;398.159
3027164.041;369.623;395.142;352.524;349.693;322.945;227.764;183.955;394.508
3027164.049;368.245;387.654;353.083;336.580;330.172;228.435;182.949;395.849
3027164.057;364.780;391.230;348.054;340.790;327.826;225.529;176.877;395.924
3027164.065;369.176;392.459;353.418;348.948;336.394;227.429;176.728;393.204
3027164.073;372.566;393.651;354.983;350.326;329.576;235.625;185.929;400.133
3027164.081;362.247;383.109;345.334;337.884;319.816;231.527;181.086;392.497
3027164.089;372.380;392.944;356.473;351.593;337.511;243.075;193.603;404.865
3027164.097;378.937;404.529;363.179;356.585;345.893;249.483;202.879;414.029
3027164.105;372.566;392.012;354.983;345.595;332.706;238.977;194.311;401.475
3027164.113;385.717;403.300;369.586;360.198;347.979;246.130;203.885;409.521
3027164.121;387.393;411.607;373.945;367.053;356.175;235.401;193.082;398.867
3027164.129;396.892;421.144;383.370;376.888;361.949;243.038;198.148;406.578
3027164.137;380.762;404.380;366.941;356.920;347.756;235.178;189.021;399.314
3027164.145;356.957;374.168;344.813;325.218;327.416;216.067;166.781;376.254
3027164.153;372.343;391.044;357.181;343.882;341.088;230.297;181.757;389.293
3027164.161;365.861;387.765;350.699;349.730;334.866;238.977;189.133;391.975
3027164.169;377.782;394.061;365.376;350.140;355.281;236.854;185.966;391.640
3027164.177;379.905;397.675;366.233;342.987;359.789;233.352;182.614;392.534
3027164.185;375.174;390.634;365.041;332.296;363.886;220.798;167.079;380.054
3027164.193;383.519;398.532;372.380;332.408;369.586;228.547;172.630;391.491
3027164.218;375.547;390.410;365.078;324.734;357.218;224.151;167.564;385.568
3027164.226;366.271;377.558;357.144;309.944;357.851;220.314;161.976;381.656
3027164.234;366.457;373.535;356.361;309.423;365.078;223.070;165.142;383.817
3027164.242;379.272;391.714;369.996;341.795;384.934;231.303;172.965;386.536
3027164.250;377.595;391.826;366.345;340.417;378.229;232.458;173.263;387.579
3027164.258;359.640;376.962;347.085;321.865;353.642;217.259;153.668;370.294
3027164.266;347.719;364.445;330.694;307.932;344.217;209.957;142.753;361.130
3027164.274;354.275;365.973;336.692;310.652;357.777;221.282;153.668;371.933
3027164.282;365.004;375.956;348.948;330.843;377.484;233.166;163.130;379.384
3027164.290;365.749;381.172;347.123;336.953;367.202;241.622;171.959;386.387
3027164.298;356.324;369.512;338.331;329.614;359.267;235.364;165.887;378.080
3027164.306;351.891;356.659;335.090;317.544;360.198;236.332;166.446;377.595
3027164.314;348.799;353.269;330.731;309.907;351.742;238.605;170.730;381.768
3027164.322;364.110;367.947;346.601;323.467;369.437;251.830;182.986;395.179
3027164.330;354.573;365.786;332.557;328.720;352.189;246.465;175.945;393.242
3027164.338;335.500;342.727;314.862;313.744;337.921;225.529;153.892;369.251
3027164.346;343.844;352.934;323.355;313.260;350.773;229.627;153.184;375.919
3027164.354;348.166;355.095;325.702;319.816;350.699;238.456;160.746;388.548
3027164.362;328.198;333.302;305.623;311.472;339.635;218.265;140.741;367.165
3027164.370;333.041;337.958;308.491;314.377;345.260;225.268;149.645;379.793
3027164.378;323.057;330.470;296.906;304.207;326.857;213.198;140.481;368.655
3027164.386;322.610;331.365;292.994;301.227;323.541;214.577;145.100;370.257
3027164.394;334.345;332.445;302.307;311.844;335.798;227.392;159.182;386.536
3027164.402;343.136;345.446;314.079;325.032;336.729;228.770;161.007;388.920
3027164.398;340.082;344.813;309.348;330.620;335.127;222.586;158.995;387.803
3027164.406;342.689;340.939;314.191;335.947;340.343;222.623;161.901;389.405
3027164.414;346.564;351.481;318.922;333.078;344.217;222.735;164.434;389.889
3027164.422;340.827;348.054;309.460;328.422;326.298;220.798;163.838;388.846
3027164.430;331.663;330.657;300.594;309.795;322.834;203.066;144.951;365.637
3027164.438;334.270;330.210;301.972;324.696;331.663;203.364;145.026;365.935
3027164.446;329.576;325.516;299.290;315.234;323.094;196.472;136.159;358.187
3027164.454;329.576;327.229;298.433;314.675;323.355;191.890;130.050;354.312
3027164.462;330.023;328.161;298.545;320.971;317.246;191.145;130.348;354.536
3027164.470;340.678;339.225;312.030;322.387;333.339;182.241;119.694;343.993
3027164.478;346.601;346.601;314.377;325.553;335.500;191.443;126.399;355.951
3027164.486;345.558;341.758;312.664;319.593;331.551;193.454;126.958;355.542
3027164.494;339.858;336.878;309.758;308.864;331.849;186.451;117.309;348.166
3027164.502;341.348;345.334;310.615;325.330;327.155;194.423;126.138;355.393
3027164.510;337.735;339.076;310.838;324.063;328.384;194.572;123.903;351.965
3027164.518;331.067;336.803;302.307;314.266;316.277;191.778;118.278;351.295
3027164.526;309.944;312.403;283.606;293.553;298.284;170.320;95.852;326.335
3027164.534;325.106;322.461;301.525;297.129;318.624;180.453;104.979;339.597
3027164.542;330.135;334.308;308.156;305.101;321.642;182.018;105.835;346.042
3027164.550;320.226;328.198;301.413;302.121;321.791;162.609;83.856;327.528
3027164.558;311.024;319.034;290.424;295.863;308.715;158.995;81.360;326.224
3027164.566;299.737;307.150;277.460;284.538;292.026;153.482;78.529;317.022
3027164.574;299.364;303.797;278.316;276.379;287.704;156.574;82.962;318.587
3027164.582;304.990;305.213;286.996;277.758;300.109;161.156;91.158;324.771
3027164.594;320.077;325.255;303.015;308.268;313.371;160.970;91.009;322.834
3027164.602;324.510;335.425;306.815;309.385;318.326;165.813;94.585;332.706
3027164.610;306.815;313.260;289.120;285.953;304.170;145.920;75.027;311.807
3027164.618;309.348;314.973;289.790;288.635;304.058;149.645;78.566;315.160
3027164.626;312.291;325.553;292.473;298.433;302.121;156.127;88.066;323.616
3027164.634;313.967;327.528;295.192;308.082;302.419;149.198;83.856;314.414
3027164.642;319.965;333.376;299.290;313.669;308.082;154.525;91.195;321.828
3027164.650;317.320;327.304;298.806;306.480;308.119;150.986;86.129;315.420
3027164.658;309.125;316.426;294.000;290.945;300.631;142.604;76.890;306.405
3027164.666;311.173;322.461;297.651;290.461;308.342;149.943;84.862;315.011
3027164.674;292.137;303.872;279.546;272.132;293.404;132.546;63.553;295.751
3027164.682;289.306;303.201;276.193;270.456;284.649;132.360;65.081;293.627
3027164.690;293.069;302.866;279.173;286.698;280.589;133.663;64.522;291.094
3027164.698;294.596;302.829;280.291;278.614;278.614;131.652;60.685;287.890
3027164.706;312.775;324.249;299.700;292.808;303.537;153.072;83.335;308.305
3027164.714;308.789;319.332;296.310;286.475;298.433;151.247;80.578;306.256
3027164.722;292.659;306.219;278.987;278.130;279.732;139.326;71.414;293.665
3027164.730;275.336;285.581;261.962;265.874;275.299;116.490;47.237;267.364
3027164.738;279.620;289.492;266.172;267.588;272.840;123.046;51.148;273.325
3027164.746;298.657;309.199;284.016;293.776;280.812;149.049;78.715;296.421
3027164.754;304.170;310.056;291.467;289.902;293.627;154.674;83.111;299.066
3027164.762;282.712;299.402;270.568;267.588;284.389;126.660;56.252;271.723
3027164.770;269.823;289.306;257.678;265.948;266.507;115.484;45.262;257.269
3027164.778;278.875;293.776;266.135;274.368;269.637;119.135;48.578;259.541
3027164.788;281.110;290.051;268.891;265.539;270.195;118.688;48.466;259.653
3027164.796;269.078;273.995;257.716;253.282;255.518;109.263;37.402;248.179
3027164.804;274.293;281.110;260.286;263.974;259.764;114.962;43.847;256.263
3027164.812;265.017;268.072;252.947;246.465;256.002;105.873;35.912;244.863
3027164.820;270.084;280.440;256.673;256.337;261.404;111.796;41.164;250.340
3027164.828;263.490;282.638;249.259;256.300;250.079;109.300;39.116;246.130
3027164.836;260.025;275.597;247.806;248.998;256.673;101.402;29.989;235.736
3027164.844;278.018;290.349;265.986;261.106;276.752;122.115;50.403;257.790
3027164.852;274.889;289.194;263.229;266.731;267.141;119.582;47.423;256.076
3027164.860;260.063;277.199;248.104;259.466;255.890;101.179;27.865;236.295
3027164.868;269.376;282.787;254.437;261.553;259.764;113.100;40.680;247.955
3027164.876;248.700;257.790;232.793;239.424;229.701;96.858;23.730;229.254
3027164.884;245.571;259.057;233.278;229.217;236.407;103.749;32.485;236.183
3027164.892;247.993;265.129;235.029;240.728;245.571;103.824;30.696;232.719
3027164.900;241.064;249.967;226.498;239.797;231.750;96.448;22.165;221.692
3027164.908;243.783;255.145;233.427;242.963;236.370;109.449;36.880;232.942
3027164.916;243.857;257.306;233.166;234.544;239.611;108.518;34.682;233.091
3027164.924;239.573;250.265;225.864;234.097;237.003;102.483;29.020;230.111
3027164.932;240.915;252.612;229.180;241.548;240.728;96.485;23.954;221.506
3027164.940;240.169;256.300;228.472;246.465;238.195;89.779;15.907;216.290
3027164.948;253.655;269.525;238.381;258.535;255.369;103.898;30.622;231.639
3027164.956;235.327;247.844;220.351;241.473;231.452;88.103;14.231;212.751
3027164.964;216.849;224.486;200.793;219.420;214.055;80.205;7.115;207.014
3027164.972;226.274;232.793;209.473;220.276;228.696;89.146;15.758;216.588
3027164.968;230.037;238.568;213.496;228.472;232.533;88.252;18.962;214.800
3027164.976;236.854;244.677;221.841;240.132;244.156;99.204;32.298;225.864
3027164.984;240.318;248.328;225.008;256.076;247.844;89.258;25.257;212.789
3027164.992;232.980;239.126;215.806;242.554;236.854;85.235;23.395;210.218
3027165.000;228.360;238.530;207.834;237.711;225.008;78.976;17.285;205.040
3027165.008;236.221;249.632;215.657;253.208;231.415;91.307;28.014;219.606
3027165.016;229.366;244.677;209.920;245.869;234.023;93.244;29.206;224.933
3027165.024;220.239;229.366;201.985;229.478;230.297;80.690;16.727;211.820
3027165.032;224.113;231.899;205.338;232.533;234.433;76.219;13.113;208.654
3027165.040;218.675;224.113;202.060;228.174;233.762;66.683;6.184;197.403
3027165.048;205.934;206.083;187.010;208.691;216.924;55.395;-0.820;185.035
3027165.056;203.624;208.132;182.725;212.044;215.024;59.791;5.998;191.480
3027165.064;217.892;231.415;196.882;227.951;225.194;67.167;15.497;200.011
3027165.072;227.690;240.542;205.077;233.650;232.607;79.535;32.298;214.539
3027165.080;220.910;224.337;196.882;217.259;220.686;85.384;37.886;217.929
3027165.088;229.441;240.132;205.748;219.792;222.437;94.697;44.703;224.896
3027165.096;229.031;242.814;207.014;223.666;239.611;84.825;34.124;208.579
3027165.104;218.637;221.878;198.260;206.567;234.284;72.494;17.211;190.958
3027165.112;213.161;216.849;196.323;193.231;223.294;69.588;10.282;184.588
3027165.120;193.566;195.056;178.218;170.320;205.114;59.530;-3.725;166.781
3027165.128;180.453;185.147;163.540;147.000;186.637;55.879;-7.376;156.313
3027165.136;177.510;187.680;158.586;147.969;187.568;58.301;-0.969;154.078
3027165.144;177.100;178.628;157.207;148.937;187.568;60.126;0.522;151.470
3027165.152;179.932;183.694;158.772;150.166;184.551;63.144;3.614;151.619
3027165.164;177.771;174.530;157.580;133.701;197.031;59.754;-1.341;143.535
3027165.172;197.962;195.056;177.473;149.347;214.167;76.927;15.162;159.815
3027165.180;189.729;191.443;168.197;151.843;194.833;72.122;11.474;152.066
3027165.188;180.714;183.247;161.380;141.412;184.365;60.052;-2.496;136.346
3027165.196;193.156;185.072;173.859;148.825;198.223;73.761;8.456;148.490
3027165.204;189.021;180.490;171.736;138.842;195.242;82.031;12.442;152.439
3027165.212;188.053;183.396;170.991;135.340;187.010;86.799;17.174;152.662
3027165.220;201.762;198.930;183.508;157.990;201.799;85.458;15.721;146.106
3027165.228;209.697;216.812;188.872;176.802;206.381;99.652;28.349;151.768
3027165.236;211.857;216.030;190.064;178.330;196.248;118.166;45.598;164.062
3027165.244;219.643;218.488;196.025;181.645;195.354;126.362;52.564;168.122
3027165.252;215.061;214.502;191.145;185.482;181.831;125.468;51.744;167.079
3027165.260;209.399;209.101;187.270;178.888;171.624;123.009;48.801;164.323
3027165.268;218.563;223.890;196.621;197.142;176.989;126.027;50.105;165.217
3027165.276;211.485;214.763;186.525;195.317;161.305;121.407;43.474;162.236
3027165.284;214.428;213.310;190.847;195.242;171.065;133.514;55.842;172.667
3027165.292;232.868;237.338;209.212;220.276;190.847;153.147;74.133;190.698
3027165.300;226.721;241.511;203.401;219.345;190.102;148.863;67.875;185.147
3027165.308;206.493;215.732;184.439;198.372;166.520;135.601;52.676;167.973
3027165.316;205.077;208.355;183.769;186.302;160.448;141.375;60.461;171.103
3027165.324;218.488;219.084;200.383;191.554;183.955;160.560;77.859;188.611
3027165.332;213.869;221.021;192.970;200.309;182.800;153.556;69.700;179.820
3027165.340;208.430;220.090;183.135;201.128;170.283;148.229;65.006;172.108
3027165.348;202.060;209.734;180.304;190.176;168.234;140.518;57.332;163.727
3027165.359;208.579;215.471;186.823;195.280;174.567;146.329;63.851;170.097
3027165.367;197.180;207.089;176.504;181.682;158.586;138.804;55.730;162.013
3027165.375;185.892;193.194;163.428;162.497;148.900;134.818;53.197;155.568
3027165.383;190.288;203.140;168.644;162.534;142.381;150.055;69.961;170.693
3027165.391;201.836;215.694;180.565;187.047;165.477;153.854;75.400;173.561
3027165.399;206.493;218.675;184.700;197.105;180.565;158.325;82.329;177.957
3027165.407;204.220;205.673;182.912;181.608;171.848;161.305;88.103;177.585
3027165.415;201.054;206.195;179.261;176.579;168.867;160.299;89.146;177.883
3027165.423;204.369;208.952;185.817;185.259;176.504;162.944;93.691;182.502
3027165.431;194.795;207.424;176.281;172.108;164.285;144.877;76.182;165.030
3027165.439;190.698;205.450;169.873;173.859;155.643;137.202;67.912;161.156
3027165.447;200.123;212.155;180.677;176.579;174.753;141.859;70.408;167.415
3027165.455;213.683;224.970;197.068;191.964;185.482;150.762;81.286;176.802
3027165.463;188.425;193.603;172.742;165.962;162.907;137.761;71.302;166.297
3027165.471;172.481;178.032;156.611;147.149;142.865;122.562;56.848;151.657
3027165.479;192.486;211.410;173.524;182.092;161.082;121.854;59.716;151.172
3027165.487;179.783;193.752;159.927;167.936;140.630;116.862;55.581;145.920
3027165.495;163.838;171.326;144.579;147.857;118.054;109.002;51.036;136.569
3027165.503;157.058;166.409;135.787;138.208;106.469;109.114;54.650;134.744
3027165.511;148.192;160.597;126.474;134.930;94.846;108.853;55.023;133.440
3027165.519;138.544;151.247;114.627;130.273;81.509;105.165;53.942;132.285
3027165.527;146.478;157.692;121.966;142.790;84.788;104.606;55.730;130.869
3027165.535;129.826;140.220;104.494;121.072;66.049;94.101;44.703;121.221
3027165.543;125.393;134.036;100.136;113.286;72.271;90.525;40.010;118.241
3027165.555;125.878;129.268;105.724;113.882;83.223;85.458;31.590;114.925
3027165.563;119.172;138.581;94.771;116.415;77.747;75.921;20.973;107.214
3027165.571;127.144;141.598;100.248;121.109;86.688;83.856;28.871;111.908
3027165.579;122.637;133.589;96.448;110.306;79.125;84.788;28.163;112.168
3027165.587;88.848;95.852;62.436;82.254;47.088;61.356;3.614;87.321
3027165.595;82.515;87.582;57.034;74.096;44.219;55.656;-1.937;79.200
3027165.603;92.499;99.912;62.548;82.478;48.168;67.502;9.611;91.009
3027165.611;78.902;88.103;51.633;76.406;41.761;49.435;-7.749;72.345
3027165.619;62.734;64.149;40.978;53.458;37.774;31.963;-24.773;56.736
3027165.627;61.914;62.324;37.923;46.976;32.857;33.416;-22.948;58.673
3027165.635;62.808;70.147;36.582;50.925;25.332;36.024;-19.744;58.524
3027165.643;57.593;65.304;32.224;54.464;21.793;39.823;-17.323;60.648
3027165.651;50.478;59.605;26.040;52.489;19.409;32.410;-26.114;52.266
3027165.659;42.878;48.466;18.664;38.818;16.391;25.220;-34.906;46.082
3027165.667;40.866;44.554;17.956;37.998;20.303;27.083;-34.682;46.231
3027165.675;27.902;28.647;3.949;34.757;10.058;14.715;-49.286;34.198
3027165.683;9.276;0.782;-14.268;4.917;-1.527;0.112;-64.895;22.650
3027165.691;7.525;6.407;-16.540;5.960;-5.253;-0.335;-63.553;24.177
3027165.699;21.011;27.791;-5.402;41.127;5.215;-4.135;-63.479;22.948
3027165.707;30.436;35.092;2.347;49.733;10.654;-18.552;-73.090;10.915
3027165.715;26.599;23.544;-4.396;38.333;-5.774;-32.634;-87.433;-1.676
3027165.723;44.480;35.353;9.909;44.033;-8.643;-22.128;-74.059;8.158
3027165.731;53.011;50.031;16.987;63.740;-4.582;-23.842;-73.463;5.625
3027165.739;75.959;80.466;43.847;95.889;24.363;-15.795;-63.665;11.884
3027165.748;92.685;96.560;60.797;113.249;46.678;-5.662;-50.701;21.234
3027165.756;95.181;96.150;60.610;117.384;43.660;-3.912;-49.658;24.252
3027165.764;94.883;97.901;61.542;124.872;39.190;-4.098;-49.174;26.338
3027165.772;80.243;86.948;46.939;110.827;24.512;-7.302;-52.713;25.146
3027165.780;69.104;65.118;30.994;89.183;9.350;-6.855;-46.939;26.375
3027165.788;69.551;74.990;34.757;91.754;7.413;-3.763;-39.451;28.946
3027165.796;66.347;71.935;33.565;90.972;14.976;-13.635;-48.466;17.174
3027165.804;69.290;74.767;36.210;87.507;20.079;-14.938;-50.701;15.870
3027165.812;87.544;92.760;55.879;113.361;45.635;-3.316;-42.096;30.287
3027165.820;75.363;69.700;44.964;96.634;33.453;-18.589;-56.028;15.087
3027165.828;63.591;61.318;35.129;77.337;19.334;-34.124;-68.806;-3.055
3027165.836;59.642;62.063;30.994;90.860;15.907;-38.147;-69.737;-9.201
3027165.844;54.426;58.971;26.450;84.043;9.649;-41.388;-71.228;-11.884
3027165.852;58.860;62.883;33.006;77.076;13.635;-36.247;-64.671;-6.966
3027165.860;54.426;58.338;28.536;77.412;14.044;-39.339;-66.608;-7.749
3027165.868;48.392;50.589;23.656;64.746;3.055;-40.382;-66.161;-7.898
3027165.876;34.459;36.918;9.499;54.799;-15.013;-49.658;-74.953;-18.254
3027165.884;34.980;40.829;13.076;66.981;3.874;-47.088;-72.159;-16.354
3027165.892;38.594;41.313;19.297;64.857;9.127;-42.506;-68.471;-13.374
3027165.900;37.551;44.405;18.440;56.811;2.980;-45.933;-73.761;-15.274
3027165.908;46.641;51.558;27.008;56.252;8.307;-42.357;-66.869;-13.933
3027165.916;53.421;59.903;33.230;66.422;10.505;-51.334;-75.623;-22.985
3027165.924;63.740;68.769;44.778;85.756;21.905;-34.869;-58.077;-8.531
3027165.932;63.591;65.602;46.156;75.586;24.475;-27.344;-50.776;-2.421
3027165.957;49.174;58.599;31.181;62.287;14.901;-39.190;-64.448;-15.683
3027165.965;49.397;63.814;31.181;62.585;10.431;-29.691;-57.071;-7.451
3027165.973;55.917;61.765;38.110;60.387;9.649;-19.260;-46.156;2.496
3027165.981;59.307;63.628;40.606;71.377;12.740;-17.732;-44.368;6.482
3027165.989;46.864;55.172;30.473;59.418;11.064;-28.834;-57.518;-1.267
3027165.997;42.431;44.927;27.083;46.566;13.933;-31.181;-62.212;0.075
3027166.005;33.528;33.379;19.856;29.281;0.857;-39.674;-72.308;-4.545
3027166.013;27.642;30.398;11.176;31.330;-1.788;-51.185;-83.372;-16.429
3027166.021;34.347;41.947;21.234;51.893;7.898;-50.478;-79.833;-16.615
3027166.029;33.788;37.700;22.538;52.005;8.643;-45.933;-74.208;-11.325
3027166.037;20.713;26.934;6.407;26.636;-13.150;-52.825;-79.535;-18.105
3027166.045;28.647;37.886;15.534;34.496;-8.903;-48.466;-74.543;-13.113
3027166.053;28.610;28.238;18.328;33.826;3.092;-52.005;-75.214;-18.105
3027166.061;26.934;26.338;16.689;31.479;2.272;-51.521;-72.345;-17.136
3027166.069;22.165;30.957;10.356;35.278;-6.780;-58.077;-79.498;-23.730
3027166.077;16.205;20.191;6.631;26.859;-4.843;-60.908;-84.154;-26.971
3027166.085;17.360;19.111;7.749;24.140;-6.109;-51.856;-78.082;-16.503
3027166.093;10.170;15.013;3.614;15.832;-7.190;-63.255;-87.656;-29.169
3027166.101;8.121;10.356;3.166;7.190;0.633;-71.675;-95.144;-37.327
3027166.109;8.866;6.445;6.258;6.892;-1.490;-71.600;-95.740;-36.657
3027166.117;-1.080;3.874;-5.886;9.090;-11.846;-78.455;-102.483;-44.852
3027166.125;-0.261;8.084;-5.141;12.964;-7.898;-70.482;-90.748;-39.563
3027166.133;-6.072;1.788;-11.921;9.201;-26.003;-71.153;-89.407;-44.294
3027166.141;-10.431;-5.178;-17.360;-5.253;-20.228;-72.084;-90.264;-46.268
3027166.124;-7.711;4.768;-15.534;10.654;-20.936;-75.027;-94.734;-49.919
3027166.132;-13.523;-5.923;-18.738;8.941;-14.417;-84.378;-106.357;-60.797
3027166.140;-21.756;-21.085;-26.226;-10.990;-24.252;-83.297;-106.655;-60.014
3027166.148;-22.501;-23.842;-23.618;-19.707;-26.822;-78.939;-100.322;-58.226
3027166.156;-28.759;-22.613;-24.997;-26.040;-17.099;-90.785;-109.822;-69.104
3027166.164;-35.688;-20.824;-34.533;-14.268;-29.244;-102.632;-120.364;-81.845
3027166.172;-33.192;-23.916;-33.826;-9.350;-30.212;-104.345;-119.470;-83.633
