Timestamp,AFz,AF3,AF4,AF7,AF8,Pz,P3,P4,2024-05-16 12:15:21.066,fs=125
5446940.371;-28.908;-27.008;-43.400;-27.120;-7.562;17.434;18.403;17.583
5446940.379;-30.175;-28.089;-41.947;-27.902;-8.419;18.105;14.491;19.483
5446940.387;-28.461;-25.705;-40.196;-25.667;-8.084;15.348;10.058;14.380
5446940.395;-25.742;-20.787;-34.906;-18.142;-5.811;7.898;5.737;6.668
5446940.403;-27.493;-23.358;-34.608;-22.277;-5.811;6.258;7.190;5.402
5446940.411;-26.934;-24.699;-31.739;-25.146;-7.823;7.264;7.190;5.215
5446940.419;-28.946;-27.120;-34.384;-29.393;-11.772;9.015;15.274;2.235
5446940.427;-29.020;-26.971;-34.459;-27.679;-10.207;0.708;4.284;-3.651
5446940.435;-32.075;-28.796;-35.278;-28.349;-10.394;-9.090;-5.662;-12.107
5446940.443;-28.163;-25.369;-27.232;-24.959;-6.370;-8.345;-6.519;-10.766
5446940.451;-25.816;-23.171;-24.997;-20.824;-7.153;-3.763;0.857;-9.425
5446940.459;-21.793;-18.328;-20.713;-18.477;-2.012;5.364;11.586;1.788
5446940.467;-24.401;-19.558;-25.742;-21.681;-4.955;0.261;5.290;-3.800
5446940.475;-29.169;-24.289;-29.653;-26.673;-10.841;-6.109;-1.006;-8.345
5446940.483;-28.722;-23.060;-21.346;-23.134;-7.637;-1.341;4.657;3.092
5446940.491;-29.430;-23.469;-24.512;-20.750;-10.207;-7.600;-6.333;-5.327
5446940.499;-28.647;-23.171;-30.249;-22.687;-12.890;-7.115;-2.906;-11.623
5446940.507;-19.744;-13.299;-13.560;-12.182;-2.496;-1.229;2.570;-2.645
5446940.515;-18.068;-12.442;-10.282;-9.499;-3.316;4.619;7.823;2.310
5446940.523;-27.232;-21.011;-15.944;-20.675;-8.196;0.112;2.384;-3.986
5446940.531;-30.249;-24.773;-15.721;-21.607;-8.158;-0.782;-2.272;4.955
5446940.539;-29.802;-26.338;-17.807;-22.724;-10.654;-1.229;-2.682;11.437
5446940.547;-31.330;-29.355;-20.973;-26.003;-12.927;-4.694;-0.075;-1.006
5446940.555;-29.057;-27.344;-18.962;-23.097;-12.964;-1.639;4.284;-0.857
5446940.641;-27.977;-25.816;-15.274;-22.240;-10.058;-2.310;-1.751;1.229
5446940.649;-27.902;-25.369;-12.405;-26.561;-7.227;1.229;1.229;0.745
5446940.657;-28.610;-24.363;-16.950;-23.656;-8.717;4.396;6.631;1.937
5446940.665;-26.934;-23.134;-13.858;-20.824;-10.021;3.725;3.390;2.049
5446940.673;-23.730;-21.979;-9.909;-21.718;-13.858;4.545;8.233;2.123
5446940.681;-20.489;-18.105;-9.723;-19.297;-14.417;-1.192;3.390;-5.104
5446940.689;-22.352;-16.540;-11.846;-15.609;-14.529;-4.582;0.447;-8.605
5446940.697;-20.377;-14.566;-7.898;-12.591;-11.064;-5.737;-1.974;-9.611
5446940.705;-20.750;-16.838;-8.345;-13.411;-11.809;-4.843;-1.602;-7.190
5446940.713;-22.240;-16.615;-7.190;-13.225;-11.735;-3.614;-1.527;-4.433
5446940.721;-15.646;-7.711;-1.527;-4.917;-9.723;6.258;5.476;9.313
5446940.729;-13.039;-6.296;-1.341;-4.433;-6.706;9.798;13.039;9.201
5446940.737;-17.211;-12.070;-8.196;-12.591;-7.041;6.296;13.337;2.198
5446940.745;-19.372;-16.838;-1.080;-15.311;-5.849;-0.112;0.112;0.522
5446940.753;-20.713;-19.670;2.198;-16.950;-5.178;3.576;8.233;4.247
5446940.761;-18.887;-15.795;-0.037;-12.964;-2.943;7.488;10.915;8.754
5446940.769;-19.632;-14.752;-3.092;-12.703;-6.817;4.694;12.070;2.496
5446940.777;-17.174;-13.746;-3.129;-13.188;-5.625;0.484;7.153;2.347
5446940.785;-16.093;-10.282;-4.321;-7.078;-3.129;-1.825;1.825;1.863
5446940.793;-15.832;-11.288;-1.118;-8.605;-0.112;-4.210;0.633;3.353
5446940.801;-15.199;-12.629;-0.484;-10.096;0.112;-7.935;-1.788;3.017
5446940.809;-16.242;-12.554;-3.837;-10.096;-1.416;-7.488;-0.447;-3.912
5446940.817;-15.125;-9.201;-5.215;-1.863;-4.396;3.874;12.442;2.719
5446940.825;-9.015;-5.290;-0.112;4.135;0.633;12.182;21.793;10.654
5446940.820;-8.456;-2.831;-1.378;2.757;4.061;0.820;4.806;-1.192
5446940.828;-10.990;-5.551;0.969;0.633;8.866;-1.676;6.035;1.416
5446940.836;-3.614;3.092;8.419;8.866;13.858;-2.980;5.178;-0.931
5446940.844;-3.763;3.986;8.494;9.947;11.660;-6.258;2.347;-4.023
5446940.852;15.981;26.859;27.567;34.682;24.475;0.633;7.488;6.631
5446940.860;46.678;63.702;55.954;70.333;44.778;9.947;14.827;14.901
5446940.868;70.408;93.244;78.976;93.505;59.195;0.708;3.241;0.335
5446940.876;114.180;141.077;120.923;133.514;90.078;6.519;9.909;5.700
5446940.884;143.424;175.200;149.719;161.789;110.194;5.104;11.027;5.476
5446940.892;161.119;199.303;166.632;184.029;119.247;0.969;9.090;6.296
5446940.900;173.263;213.645;179.708;196.509;127.256;-9.835;-0.894;-2.384
5446940.908;190.474;229.590;195.615;209.697;139.624;-1.602;7.637;7.451
5446940.916;202.507;239.909;206.493;219.382;148.900;16.242;25.146;23.320
5446940.924;197.664;234.284;199.862;210.144;143.759;16.205;23.507;18.813
5446940.932;183.694;221.692;181.422;200.868;131.913;12.815;16.764;13.486
5446940.940;164.546;202.172;157.356;180.863;112.504;11.548;15.907;14.678
5446940.948;144.280;180.155;139.177;165.068;96.858;-4.098;4.396;-5.178
5446940.956;130.199;165.552;124.760;152.178;90.227;-5.439;4.508;-1.267
5446940.964;116.788;150.241;109.002;137.575;84.043;-8.382;-1.341;-5.215
5446940.972;97.677;129.566;89.966;120.550;71.600;-6.184;0.782;-4.284
5446940.980;84.117;114.329;77.039;107.363;64.448;-1.788;5.215;-3.241
5446940.988;71.526;100.881;63.218;96.485;58.375;4.247;9.574;2.198
5446940.996;59.530;88.960;48.503;84.899;51.297;12.368;16.876;18.515
5446941.004;35.651;62.622;23.060;58.301;31.479;-0.447;2.235;3.427
5446941.015;15.832;41.425;3.912;42.468;17.919;-8.829;-7.637;-7.823
5446941.023;8.568;32.447;1.304;32.149;14.156;-2.682;1.788;0.559
5446941.031;9.760;33.081;2.906;33.528;21.942;4.061;10.729;5.774
5446941.039;6.407;30.622;-1.863;35.390;23.991;-0.559;2.123;0.559
5446941.047;0.820;25.891;-10.505;31.181;20.340;4.396;8.717;6.109
5446941.055;-6.631;17.285;-21.122;23.730;15.385;6.817;4.433;10.952
5446941.063;-18.217;3.241;-31.888;9.164;9.798;5.402;1.565;3.278
5446941.071;-22.352;-2.980;-31.479;4.210;7.674;5.029;4.135;-1.080
5446941.079;-27.530;-7.972;-36.843;0.373;4.992;5.811;7.823;-0.745
5446941.087;-32.559;-12.293;-43.288;-3.874;1.751;11.064;10.170;3.241
5446941.095;-37.141;-17.248;-52.564;-8.494;-3.949;11.511;13.448;4.768
5446941.103;-37.998;-17.323;-54.762;-8.680;-6.333;11.995;17.546;12.629
5446941.111;-40.717;-19.670;-55.060;-10.990;-5.625;2.272;7.115;3.576
5446941.119;-44.964;-23.805;-57.854;-15.274;-5.923;-7.525;5.029;-12.964
5446941.127;-44.331;-23.916;-58.711;-16.652;-6.743;-4.321;5.551;-5.551
5446941.135;-43.698;-24.550;-55.693;-19.558;-8.307;4.210;13.448;4.098
5446941.143;-40.233;-21.756;-48.578;-19.930;-3.055;11.399;25.816;6.668
5446941.151;-31.963;-12.890;-39.153;-8.233;4.917;10.505;17.658;7.004
5446941.159;-36.135;-16.689;-42.580;-8.382;-0.447;10.170;14.417;6.035
5446941.167;-43.549;-25.295;-44.405;-19.036;-5.402;8.792;9.425;5.215
5446941.175;-44.145;-27.902;-41.425;-22.873;-3.651;10.543;8.270;10.394
5446941.183;-46.939;-30.212;-42.543;-23.767;-6.668;7.749;5.849;4.545
5446941.191;-48.243;-29.765;-43.474;-24.587;-10.245;9.909;9.872;8.345
5446941.199;-48.392;-30.957;-41.798;-27.567;-12.740;5.215;4.321;7.227
5446941.255;-51.111;-35.614;-39.078;-33.416;-10.990;-2.570;2.496;-4.619
5446941.263;-53.160;-38.333;-38.929;-35.949;-12.703;-3.874;-1.490;-4.619
5446941.271;-53.644;-38.706;-39.786;-35.837;-16.317;-2.719;-1.080;5.700
5446941.279;-54.725;-41.313;-38.780;-39.190;-15.311;-6.594;-4.210;-3.949
5446941.287;-47.684;-35.316;-28.983;-32.820;-7.004;-2.757;-4.731;1.192
5446941.295;-41.611;-29.281;-21.942;-27.530;-4.023;2.757;5.439;1.155
5446941.303;-39.339;-26.748;-19.893;-23.469;-3.502;8.978;15.721;2.794
5446941.311;-34.086;-23.022;-9.984;-19.670;1.453;8.233;16.503;4.545
5446941.319;-30.100;-18.813;-8.680;-16.019;4.098;4.806;13.597;8.456
5446941.327;-32.149;-19.893;-11.213;-17.099;3.017;4.508;15.758;11.027
5446941.335;-32.485;-18.030;-4.545;-15.609;2.123;-2.161;1.527;6.109
5446941.343;-34.422;-21.756;-8.158;-20.601;-0.820;1.267;6.258;9.127
5446941.351;-32.969;-20.787;-3.912;-19.632;1.602;2.012;8.419;8.494
5446941.359;-29.653;-17.472;-0.224;-15.497;3.353;-1.304;-0.894;8.866
5446941.367;-31.404;-19.595;-3.092;-14.678;-1.118;-2.682;0.671;4.619
5446941.375;-32.373;-20.564;-4.172;-12.778;-4.880;1.118;6.706;13.374
5446941.383;-35.353;-22.985;-7.451;-17.583;-6.855;0.857;13.337;4.992
5446941.391;-39.153;-27.232;-10.766;-24.550;-7.413;-4.619;2.906;-4.172
5446941.399;-38.780;-26.636;-7.562;-25.667;-1.937;-0.596;6.929;-1.639
5446941.407;-34.794;-21.383;-1.825;-16.727;2.719;9.090;15.423;11.399
5446941.415;-36.024;-22.836;-6.519;-15.572;-2.608;8.941;13.150;18.179
5446941.423;-32.559;-20.787;-7.935;-15.646;-5.551;10.878;13.895;19.595
5446941.431;-27.679;-16.764;-3.539;-11.437;-0.894;17.621;22.985;26.561
5446941.439;-39.972;-29.951;-9.649;-25.518;-8.643;5.476;11.474;10.468
5446941.508;-44.554;-34.682;-14.454;-26.487;-15.832;-4.061;-1.267;4.619
5446941.516;-43.474;-33.900;-20.303;-27.046;-19.260;-8.456;-1.341;0.186
5446941.524;-44.033;-35.428;-18.552;-30.398;-13.895;-9.462;-2.570;-5.849
5446941.532;-46.715;-38.221;-16.503;-34.682;-16.280;-4.694;1.341;-3.092
5446941.540;-46.529;-38.072;-17.881;-37.514;-15.311;0.782;4.135;8.866
5446941.548;-49.844;-42.953;-19.483;-42.357;-13.262;-1.565;1.602;6.407
5446941.556;-51.334;-46.529;-18.701;-43.660;-14.827;-3.614;0.559;0.745
5446941.564;-49.695;-44.815;-19.148;-40.978;-16.727;-6.072;0.373;-4.917
5446941.572;-45.747;-39.414;-20.601;-34.869;-17.062;-5.625;2.272;-1.602
5446941.580;-44.927;-37.774;-20.787;-34.086;-19.073;-10.170;-4.694;-6.221
5446941.588;-44.443;-38.296;-18.142;-34.869;-18.366;-11.399;-5.178;-8.866
5446941.596;-40.196;-33.043;-11.772;-30.212;-13.113;-4.247;1.714;1.341
5446941.604;-32.932;-26.040;-8.047;-22.389;-9.127;1.825;5.029;9.947
5446941.612;-34.757;-27.642;-9.052;-24.475;-14.491;1.937;7.674;7.413
5446941.620;-34.198;-25.705;-9.313;-18.328;-12.368;-6.855;1.676;-5.066
5446941.628;-23.507;-14.827;0.820;-7.041;-1.267;-3.427;4.396;3.651
5446941.636;-23.060;-14.156;-0.261;-5.886;-3.576;-12.740;-8.680;0.782
5446941.644;-20.266;-11.921;4.619;-4.433;-3.465;-13.672;-9.872;0.373
5446941.652;-22.016;-13.970;2.384;-7.041;-4.061;-19.632;-12.927;-12.107
5446941.660;-32.298;-23.581;-9.462;-15.050;-12.554;-26.003;-17.099;-18.813
5446941.668;-28.908;-20.228;-10.319;-10.729;-12.778;-18.477;-7.078;-10.990
5446941.676;-27.753;-17.807;-8.568;-8.792;-10.096;-15.199;-4.545;-5.998
5446941.684;-22.799;-12.480;-1.155;-2.868;-0.484;-12.219;-6.445;-6.817
5446941.692;-23.022;-14.305;-5.253;-4.955;-0.633;-9.201;-8.270;-3.725
5446941.646;-28.946;-19.856;-9.984;-11.474;-6.147;-4.396;-1.043;4.768
5446941.654;-33.863;-24.289;-11.325;-18.701;-9.574;-0.894;4.508;9.350
5446941.662;-37.439;-26.040;-18.291;-14.529;-12.815;-3.166;-2.012;8.903
5446941.670;-33.416;-20.415;-16.615;-7.674;-9.686;-2.272;3.278;6.258
5446941.678;-27.008;-14.901;-11.548;-6.407;-4.135;0.447;10.617;1.751
5446941.686;-28.200;-17.658;-14.454;-6.147;-3.725;-9.201;1.565;-10.096
5446941.694;-26.748;-15.832;-12.666;-2.980;-1.863;-8.643;1.043;-7.227
5446941.702;-26.636;-15.162;-9.947;-7.562;-2.980;-11.846;-5.625;-8.270
5446941.710;-27.493;-16.466;-13.411;-9.537;-2.459;-4.880;-0.112;1.155
5446941.718;-30.398;-22.277;-19.260;-13.635;-5.737;1.080;5.104;8.829
5446941.726;-37.178;-30.547;-22.575;-18.962;-8.568;-9.313;-9.984;-4.210
5446941.734;-41.500;-33.006;-25.071;-21.048;-10.543;-10.245;-8.494;-1.080
5446941.742;-41.351;-30.957;-30.100;-19.781;-11.325;-9.760;-1.006;-2.757
5446941.750;-32.559;-21.756;-19.930;-12.852;-2.794;-14.156;-7.860;-9.239
5446941.758;-31.255;-19.595;-18.850;-7.004;-5.513;-6.482;-4.433;-2.086
5446941.766;-33.379;-22.799;-24.512;-11.660;-10.133;-1.565;-4.172;4.061
5446941.774;-22.762;-13.486;-15.274;-5.960;1.900;4.880;2.496;14.417
5446941.782;-31.367;-22.501;-21.085;-15.087;-0.633;-8.009;-7.823;-2.496
5446941.790;-34.608;-28.498;-20.824;-20.526;1.900;-13.188;-7.898;-5.774
5446941.798;-40.419;-33.937;-27.306;-25.183;-6.706;-13.746;-6.072;-4.135
5446941.806;-40.829;-32.149;-29.616;-23.507;-9.276;-10.096;3.278;-3.800
5446941.814;-42.133;-33.602;-32.261;-24.773;-9.276;-13.262;-6.221;-5.998
5446941.822;-40.196;-33.416;-31.069;-25.220;-5.774;-9.649;-8.456;-2.161
5446941.830;-39.227;-32.745;-31.590;-24.326;-7.860;-3.316;-2.421;2.645
5446941.825;-36.582;-28.647;-28.573;-21.830;-3.502;0.894;4.284;1.788
5446941.833;-35.129;-25.816;-24.624;-18.030;-0.820;-5.662;-2.608;-5.811
5446941.841;-35.986;-27.940;-25.444;-20.005;0.484;-8.531;-6.258;-3.800
5446941.849;-43.288;-33.490;-35.539;-25.108;-6.109;-16.205;-12.852;-6.445
5446941.857;-49.435;-37.551;-44.517;-27.716;-11.437;-27.120;-23.469;-17.174
5446941.865;-45.337;-33.006;-37.514;-26.040;-9.015;-20.377;-13.821;-16.615
5446941.873;-41.015;-27.977;-31.441;-21.495;-5.476;-3.129;3.092;0.149
5446941.881;-40.121;-27.791;-34.869;-20.564;-6.966;-0.633;-1.304;2.310
5446941.889;-39.563;-28.685;-32.857;-24.252;-4.880;3.055;3.614;3.390
5446941.897;-38.147;-26.263;-30.324;-22.613;-5.476;10.133;12.256;10.617
5446941.905;-37.886;-26.077;-30.026;-21.011;-4.880;13.374;11.697;16.205
5446941.913;-43.698;-31.069;-32.447;-28.014;-5.588;7.041;8.568;6.147
5446941.921;-39.674;-29.057;-26.114;-25.108;-0.596;4.955;8.345;3.986
5446941.929;-34.943;-25.295;-20.452;-19.893;2.980;3.427;3.539;6.296
5446941.937;-37.365;-26.301;-21.309;-22.314;0.186;-0.969;0.335;5.178
5446941.945;-39.823;-29.020;-23.805;-26.450;-2.496;-8.754;-5.141;-4.992
5446941.953;-35.018;-23.991;-18.328;-19.260;2.608;-10.692;-11.511;-1.565
5446941.961;-36.657;-27.306;-18.701;-23.432;0.410;-13.821;-15.087;-0.186
5446941.969;-39.786;-29.914;-19.073;-24.736;-2.496;-21.271;-21.011;-13.560
5446941.977;-37.737;-27.865;-16.391;-22.128;-3.166;-13.225;-8.717;-3.837
5446941.985;-42.059;-32.447;-20.228;-29.579;-8.196;-10.915;-7.972;-1.043
5446941.993;-48.913;-39.451;-25.034;-39.525;-14.678;-19.930;-17.770;-12.554
5446942.001;-47.982;-40.159;-22.724;-41.574;-14.864;-19.111;-16.913;-7.041
5446942.009;-42.096;-36.135;-16.913;-36.173;-8.605;-20.936;-16.131;-12.703
5446941.990;-35.278;-30.510;-9.947;-31.814;-2.161;-13.821;-5.327;-5.998
5446941.998;-31.963;-26.375;-2.943;-28.275;-1.043;-13.076;-10.543;-6.594
5446942.006;-30.100;-27.642;1.788;-28.424;1.155;-15.534;-13.895;-10.170
5446942.014;-21.458;-19.185;9.835;-16.131;6.892;-11.250;-13.448;-0.522
5446942.022;-19.185;-14.119;11.548;-12.591;6.966;-10.692;-9.313;-1.304
5446942.030;-19.222;-15.758;10.245;-15.460;8.158;-10.990;-5.141;-9.835
5446942.038;-16.466;-14.976;8.792;-15.423;8.047;-0.596;3.316;0.596
5446942.046;-21.197;-20.079;13.635;-21.681;3.614;-4.433;-3.390;0.261
5446942.054;-30.771;-30.212;8.084;-31.106;-4.880;-10.245;-6.929;-10.058
5446942.062;-34.459;-33.006;2.384;-31.814;-9.723;-17.695;-13.597;-16.950
5446942.070;-30.771;-30.063;6.706;-27.642;-6.333;-11.437;-5.364;-10.654
5446942.078;-27.083;-23.842;10.878;-20.862;-4.694;-7.078;-1.155;-6.221
5446942.086;-31.106;-26.189;6.221;-20.303;-11.362;-7.898;-2.868;-5.066
5446942.094;-36.918;-31.553;-1.751;-25.667;-18.254;-9.537;-3.725;-4.992
5446942.102;-32.410;-27.642;4.880;-24.177;-11.325;-5.960;-3.241;1.192
5446942.110;-31.441;-25.220;11.139;-20.936;-7.190;-2.868;1.267;1.006
5446942.118;-34.124;-27.269;8.121;-23.358;-7.339;-2.421;1.751;0.857
5446942.126;-34.422;-27.306;5.104;-22.687;-8.456;-2.533;-1.304;-0.186
5446942.134;-31.367;-24.922;6.929;-20.042;-5.253;0.559;4.023;2.421
5446942.142;-34.235;-27.716;3.204;-23.469;-9.239;1.527;5.476;7.935
5446942.150;-37.253;-27.493;1.565;-25.034;-12.964;2.570;2.868;8.494
5446942.158;-38.408;-29.802;-0.037;-26.673;-13.933;8.866;10.394;11.101
5446942.166;-36.433;-29.020;2.421;-29.914;-11.399;9.984;12.815;13.113
5446942.174;-36.359;-29.318;0.671;-29.169;-11.697;3.129;1.863;9.201
5446942.200;-25.593;-19.297;10.356;-17.434;-0.522;7.749;13.933;12.852
5446942.208;-17.025;-6.631;14.156;1.043;-1.714;0.633;4.768;5.551
5446942.216;-28.424;-15.758;-1.080;-4.061;-18.701;-6.929;-6.147;-0.596
5446942.224;-34.198;-20.824;-8.121;-8.494;-21.495;-9.984;-5.774;-3.241
5446942.232;-39.972;-26.785;-14.827;-15.870;-26.450;-15.758;-6.221;-13.113
5446942.240;-37.290;-28.387;-14.640;-16.727;-25.220;-12.331;-0.857;-7.860
5446942.248;-37.998;-26.822;-14.566;-14.529;-24.512;-16.317;-6.855;-10.282
5446942.256;-33.900;-20.489;-9.350;-7.115;-20.973;-13.672;0.596;-6.296
5446942.264;-35.278;-22.873;-10.319;-7.749;-21.383;-19.521;-11.139;-13.597
5446942.272;-39.563;-29.355;-13.858;-14.529;-25.891;-12.293;-6.855;-7.227
5446942.280;-42.245;-32.224;-19.558;-20.936;-32.037;-7.078;1.527;-5.700
5446942.288;-42.059;-31.181;-19.781;-19.558;-30.026;-12.070;-5.886;-10.878
5446942.296;-42.766;-30.324;-20.154;-19.893;-35.167;-24.922;-23.544;-21.867
5446942.304;-44.592;-32.671;-24.624;-23.730;-39.190;-25.518;-19.521;-17.807
5446942.312;-48.913;-35.539;-29.653;-23.395;-41.276;-23.991;-18.403;-20.154
5446942.320;-52.527;-39.190;-30.547;-26.263;-41.164;-16.950;-14.491;-13.411
5446942.328;-53.868;-40.494;-34.608;-25.444;-45.039;-7.115;-7.525;-1.378
5446942.336;-48.056;-37.253;-29.206;-22.724;-34.161;2.943;2.570;6.817
5446942.344;-41.202;-33.565;-23.320;-22.762;-27.120;6.817;10.878;7.562
5446942.352;-41.910;-35.241;-25.481;-23.730;-29.467;1.825;6.370;1.639
5446942.360;-40.531;-29.877;-24.512;-19.334;-29.244;3.874;9.574;0.708
5446942.368;-40.717;-28.424;-26.971;-18.366;-33.230;0.335;2.570;2.384
5446942.376;-42.170;-29.206;-27.865;-18.030;-35.353;-8.978;-6.855;-6.780
5446942.384;-51.446;-41.462;-37.849;-27.940;-41.649;-15.497;-8.307;-13.262
5446942.350;-55.619;-46.715;-41.649;-35.278;-43.921;-16.987;-9.537;-9.090
5446942.358;-55.656;-47.348;-43.623;-37.514;-43.325;-15.348;-10.207;-10.915
5446942.366;-50.962;-41.984;-37.886;-30.920;-38.743;-6.743;-3.055;-3.092
5446942.374;-49.435;-38.072;-36.620;-26.487;-36.359;-2.123;1.751;4.061
5446942.382;-48.354;-35.092;-37.067;-25.183;-35.577;3.725;12.666;7.190
5446942.390;-45.672;-31.963;-35.353;-22.314;-34.869;4.247;11.511;10.729
5446942.398;-38.557;-23.581;-28.387;-12.927;-26.226;5.700;11.846;11.027
5446942.406;-30.324;-15.907;-18.440;-5.141;-19.744;5.662;6.966;13.337
5446942.414;-16.391;0.037;-5.029;11.846;-9.984;1.043;3.166;7.115
5446942.422;3.763;21.420;14.715;29.095;2.682;-3.502;2.757;-0.112
5446942.430;25.779;44.890;36.769;52.713;19.148;-4.917;0.782;-0.373
5446942.438;56.960;82.701;66.794;90.115;40.717;-3.204;7.339;4.172
5446942.446;82.925;114.255;91.605;117.049;55.730;-5.551;1.974;3.874
5446942.454;103.228;136.346;110.045;131.428;69.849;-6.184;0.708;3.651
5446942.462;124.350;159.703;129.007;150.241;82.031;-1.602;5.774;5.066
5446942.470;143.424;179.522;145.994;167.824;94.324;-1.192;3.204;3.129
5446942.478;149.533;185.557;151.135;171.959;98.459;0.335;3.092;7.972
5446942.486;149.533;184.998;146.180;171.512;93.132;2.384;1.192;13.560
5446942.494;138.357;178.888;129.193;169.091;83.596;6.147;10.021;12.852
5446942.502;123.940;166.297;110.976;163.428;76.741;6.445;13.113;6.557
5446942.510;108.443;150.949;94.548;151.210;63.442;9.313;12.778;9.313
5446942.518;82.031;121.444;69.737;120.699;47.944;7.413;13.076;7.190
5446942.526;59.642;94.622;48.913;93.393;33.975;-2.906;-1.453;3.874
5446942.534;45.076;78.008;34.310;81.100;23.060;-5.625;-4.433;3.800
5446942.530;28.163;59.269;19.968;63.404;11.139;-3.576;4.210;4.917
5446942.538;15.013;42.804;5.364;47.274;-1.900;-3.539;2.757;5.104
5446942.546;4.321;30.845;-4.396;36.508;-5.104;-3.316;1.676;9.425
5446942.554;-6.668;19.148;-8.680;27.865;-8.345;-10.803;-4.955;1.527
5446942.562;-11.399;12.517;-12.256;21.681;-8.680;-11.474;-9.723;0.671
5446942.570;-23.544;-2.496;-24.736;4.433;-17.807;-5.476;-2.384;2.198
5446942.578;-29.542;-11.250;-26.561;-6.482;-26.524;-8.084;-4.843;-5.811
5446942.586;-27.083;-6.296;-25.034;-0.633;-26.934;-7.115;-9.611;-3.166
5446942.594;-29.281;-7.637;-26.822;-1.416;-25.928;5.364;12.591;2.533
5446942.602;-38.631;-17.732;-34.235;-9.686;-33.006;8.270;12.629;1.900
5446942.610;-40.308;-20.266;-32.708;-9.313;-36.694;14.119;11.623;14.938
5446942.618;-43.064;-24.363;-33.639;-12.517;-35.837;12.442;13.635;13.933
5446942.626;-45.411;-28.722;-32.112;-16.578;-33.490;7.413;13.672;10.766
5446942.634;-49.844;-36.098;-33.788;-26.412;-36.657;-5.476;1.900;-8.307
5446942.642;-51.372;-37.104;-37.253;-25.481;-37.253;-8.717;-8.903;-3.129
5446942.650;-55.619;-41.947;-40.792;-34.235;-42.282;-10.468;-6.407;-4.992
5446942.658;-57.630;-43.437;-42.208;-38.072;-50.180;-7.115;-1.937;-0.410
5446942.666;-57.742;-44.927;-41.761;-38.631;-54.650;-10.245;-7.004;-4.731
5446942.674;-60.797;-47.907;-41.500;-41.649;-54.985;-8.792;-1.676;-3.688
5446942.682;-62.399;-49.025;-39.898;-39.451;-51.334;-9.276;-3.055;-3.949
5446942.690;-61.169;-47.646;-40.531;-39.116;-49.695;-6.035;0.857;5.513
5446942.698;-63.404;-49.099;-40.755;-38.221;-53.905;-17.844;-12.256;-8.419
5446942.706;-59.865;-46.268;-37.849;-36.694;-53.346;-14.417;-6.035;-3.390
5446942.714;-61.095;-50.291;-38.482;-42.170;-55.432;-15.385;-4.284;-6.482
5446942.695;-58.338;-47.572;-33.714;-37.737;-52.452;-21.793;-19.222;-10.096
5446942.703;-51.260;-38.259;-25.257;-28.647;-46.082;-12.666;-5.588;-1.639
5446942.711;-50.552;-35.614;-25.593;-26.226;-49.174;-6.855;-1.229;4.731
5446942.719;-51.484;-38.147;-25.481;-28.275;-45.188;-10.990;-5.141;-7.376
5446942.727;-54.203;-41.761;-27.418;-33.006;-46.529;-12.890;-6.557;-8.084
5446942.735;-50.440;-36.694;-22.724;-28.908;-45.784;-14.715;-8.158;-9.388
5446942.743;-26.375;-9.462;2.012;-0.782;-27.902;-10.245;-8.643;-0.261
5446942.751;1.043;21.085;29.840;28.796;-8.792;-8.009;-4.955;0.559
5446942.759;31.926;54.985;60.610;58.599;13.858;-9.537;-5.513;-3.539
5446942.767;65.267;94.399;93.207;92.611;35.614;-9.350;-4.023;0.820
5446942.775;109.226;140.779;136.867;131.950;69.104;-8.158;0.633;0.149
5446942.783;142.865;176.728;170.283;162.311;92.760;-6.221;-2.421;5.290
5446942.791;167.452;201.501;194.497;184.476;107.735;4.731;13.933;11.362
5446942.799;172.518;205.040;199.713;185.221;111.349;0.522;9.835;2.161
5446942.807;167.415;198.819;195.466;177.175;108.629;-5.849;2.161;-1.676
5446942.815;150.613;182.837;175.387;159.666;95.144;-6.072;1.863;1.937
5446942.823;130.907;159.070;147.298;140.406;75.363;-4.545;3.427;2.496
5446942.831;109.822;134.110;130.646;122.264;63.367;-5.662;4.210;-0.410
5446942.839;88.103;116.564;109.822;108.406;46.156;-18.775;-12.293;-6.817
5446942.847;70.669;98.534;91.344;91.903;34.124;-27.344;-25.257;-10.654
5446942.855;59.009;84.117;79.349;78.380;29.542;-20.042;-9.984;-11.101
5446942.863;43.325;64.671;61.952;63.144;18.850;-19.856;-10.617;-11.250
5446942.871;31.851;52.974;47.795;52.489;10.803;-14.305;-7.637;-7.786
5446942.879;15.050;34.124;29.244;32.485;-1.229;-15.609;-10.878;-9.127
5446942.877;-0.447;15.572;14.454;14.603;-13.746;-14.640;-9.835;-4.508
5446942.885;-9.499;6.221;5.215;5.774;-21.271;-15.870;-12.480;-8.568
5446942.893;-9.760;4.992;2.682;5.402;-19.334;-4.657;4.023;-1.118
5446942.901;-8.307;6.296;4.023;9.686;-16.242;0.782;2.980;4.061
5446942.909;-16.242;-1.527;-4.284;3.353;-22.464;-9.798;-12.703;-7.562
5446942.917;-19.334;-6.668;-10.766;-2.533;-26.971;-6.855;-8.568;-7.525
5446942.925;-20.936;-7.562;-13.895;-4.731;-25.518;4.284;6.780;0.671
5446942.933;-30.212;-15.795;-21.234;-11.027;-29.542;1.490;2.831;-2.123
5446942.941;-35.688;-19.781;-27.940;-13.560;-34.384;2.831;7.153;0.484
5446942.949;-41.239;-27.567;-34.906;-22.277;-36.769;-3.092;2.421;-8.121
5446942.957;-43.102;-27.791;-37.998;-18.924;-39.898;-6.706;-5.774;-1.490
5446942.965;-51.334;-36.322;-46.752;-26.524;-45.002;-14.119;-10.617;-9.611
5446942.973;-55.172;-40.978;-49.695;-31.218;-47.162;-12.144;-8.345;-5.402
5446942.981;-56.438;-43.102;-54.240;-35.986;-50.031;-7.041;-6.482;2.496
5446942.989;-68.285;-56.475;-67.763;-49.993;-58.897;-10.021;-6.780;-1.155
5446942.997;-69.179;-56.773;-66.981;-49.509;-57.556;-9.127;-9.611;2.906
5446943.005;-72.420;-61.244;-70.147;-54.277;-57.891;-11.623;-12.256;-0.596
5446943.013;-75.661;-64.820;-75.065;-58.301;-61.467;-16.615;-17.136;-11.437
5446943.021;-72.904;-60.573;-74.506;-53.383;-60.201;-10.692;-6.817;-9.798
5446943.029;-70.781;-59.269;-73.910;-52.713;-59.493;-12.591;-9.164;-9.835
5446943.037;-66.236;-55.060;-72.010;-46.566;-53.681;-18.813;-17.099;-9.760
5446943.045;-67.689;-56.438;-74.804;-45.784;-52.340;-21.718;-16.242;-13.635
5446943.053;-63.851;-52.117;-68.769;-40.829;-47.646;-23.507;-17.211;-14.268
5446943.061;-62.548;-50.887;-67.577;-38.929;-45.002;-20.675;-11.250;-10.096
5446943.043;-64.485;-53.681;-71.153;-41.537;-46.194;-19.036;-14.007;-7.227
5446943.051;-57.034;-46.641;-62.473;-33.900;-40.382;-14.082;-8.792;-5.178
5446943.059;-52.527;-42.394;-61.579;-28.722;-41.537;-13.523;-13.411;-4.694
5446943.067;-51.521;-42.729;-61.989;-31.441;-41.202;-14.529;-10.170;-6.780
5446943.075;-48.317;-40.531;-58.822;-29.169;-35.651;-20.191;-14.603;-5.029
5446943.083;-46.641;-39.116;-55.321;-26.748;-33.490;-27.157;-19.558;-11.995
5446943.091;-49.174;-41.611;-57.109;-26.599;-35.241;-32.634;-23.581;-17.099
5446943.099;-51.297;-41.798;-61.318;-24.252;-38.333;-31.851;-26.859;-14.007
5446943.107;-53.868;-42.990;-66.385;-24.959;-42.729;-27.530;-23.246;-15.534
5446943.115;-57.705;-47.646;-70.259;-27.791;-46.454;-27.865;-24.363;-22.426
5446943.123;-58.860;-49.435;-72.271;-32.336;-45.970;-21.569;-15.944;-16.578
5446943.131;-53.272;-45.933;-69.290;-30.249;-37.774;-10.803;-7.972;-2.533
5446943.139;-53.942;-45.672;-69.886;-29.355;-34.757;-16.131;-14.938;-6.445
5446943.147;-53.160;-45.598;-68.396;-29.206;-33.528;-17.695;-12.815;-3.651
5446943.155;-51.185;-42.878;-64.075;-23.916;-29.542;-20.042;-13.486;-8.084
5446943.163;-50.850;-38.855;-64.895;-19.558;-30.622;-20.675;-16.876;-4.433
5446943.171;-55.172;-42.208;-67.018;-25.034;-33.192;-20.154;-13.337;-5.551
5446943.179;-55.358;-44.107;-67.875;-28.275;-34.757;-22.277;-17.956;-9.798
5446943.187;-52.862;-41.723;-67.130;-25.705;-34.198;-21.830;-19.781;-5.029
5446943.195;-47.646;-36.769;-61.058;-23.954;-26.226;-21.420;-14.491;-7.749
5446943.203;-47.870;-38.035;-59.977;-28.871;-28.424;-23.618;-17.956;-13.039
5446943.211;-43.362;-35.018;-55.097;-23.469;-24.848;-18.552;-18.068;-3.502
5446943.219;-44.443;-38.184;-53.644;-26.524;-23.805;-12.852;-8.866;-0.857
5446943.227;-50.515;-44.778;-56.252;-32.373;-26.375;-17.025;-12.144;-3.986
5446943.342;-49.695;-42.357;-54.166;-30.026;-26.710;-27.418;-26.487;-10.505
5446943.350;-53.905;-46.827;-58.636;-37.588;-33.341;-34.012;-27.828;-18.850
5446943.358;-53.570;-47.944;-55.395;-36.657;-33.006;-32.261;-28.536;-14.491
5446943.366;-41.835;-35.688;-43.176;-21.867;-25.630;-24.214;-20.303;-5.476
5446943.374;-45.672;-40.121;-43.586;-29.244;-26.263;-32.857;-28.051;-15.870
5446943.382;-44.778;-39.712;-41.425;-28.461;-24.885;-35.800;-30.436;-19.111
5446943.390;-43.064;-36.545;-35.688;-22.762;-22.650;-33.565;-24.959;-20.228
5446943.398;-35.800;-30.324;-28.349;-17.062;-19.073;-31.888;-26.897;-15.087
5446943.406;-35.465;-32.224;-30.957;-21.532;-21.122;-30.063;-25.481;-13.486
5446943.414;-32.708;-27.865;-29.802;-19.558;-18.962;-19.372;-9.798;-4.657
5446943.422;-32.336;-28.685;-22.687;-19.632;-17.658;-11.735;-4.172;-0.671
5446943.430;-30.398;-27.008;-22.128;-15.087;-17.323;-13.262;-9.015;-6.370
5446943.438;-24.401;-22.426;-14.417;-11.958;-12.070;-7.339;-0.596;-1.527
5446943.446;-21.607;-19.558;-10.282;-11.139;-10.319;-9.909;-6.966;0.671
5446943.454;-21.942;-20.787;-11.213;-12.517;-10.654;-16.913;-15.199;-5.700
5446943.462;-16.838;-15.348;-7.041;-7.041;-5.700;-8.494;-1.974;6.631
5446943.470;-20.303;-19.632;-6.147;-10.394;-5.811;-13.337;-4.992;5.700
5446943.478;-30.249;-30.361;-15.162;-19.222;-16.503;-25.183;-18.515;-6.780
5446943.486;-29.206;-28.834;-13.933;-17.658;-16.689;-20.973;-14.752;-0.894
5446943.494;-26.189;-27.902;-8.643;-16.168;-11.884;-19.111;-8.307;-6.743
5446943.502;-19.148;-22.687;-4.657;-8.978;-8.494;-12.815;-3.427;-1.118
5446943.510;-20.266;-25.295;-8.084;-13.709;-6.407;-13.150;-6.557;3.465
5446943.518;-21.718;-25.108;-5.737;-15.199;-8.009;-11.213;-0.782;0.373
5446943.526;-27.493;-31.479;-13.001;-22.128;-15.907;-19.036;-13.895;-6.557
5446943.507;-27.083;-33.751;-9.276;-25.369;-10.766;-30.957;-25.220;-16.503
5446943.515;-22.091;-28.238;-5.588;-21.718;-8.531;-24.401;-14.119;-6.109
5446943.523;-23.618;-29.057;-9.090;-21.085;-13.374;-21.011;-14.156;-5.476
5446943.531;-27.642;-32.522;-14.380;-21.271;-18.813;-20.675;-18.217;-6.631
5446943.539;-28.424;-29.318;-17.658;-18.179;-19.297;-15.981;-8.531;-3.278
5446943.547;-29.951;-30.212;-23.134;-22.687;-24.848;-15.199;-2.682;-4.508
5446943.555;-27.604;-29.169;-19.111;-19.856;-24.736;-20.005;-13.597;-2.310
5446943.563;-26.748;-29.281;-16.540;-20.675;-26.263;-20.191;-13.001;-7.451
5446943.571;-22.650;-27.791;-15.944;-17.174;-27.083;-19.893;-16.354;-11.213
5446943.579;-3.874;-9.239;3.576;-1.639;-10.207;-5.625;-3.614;8.717
5446943.587;-6.221;-7.227;2.421;-1.714;-12.256;-10.431;-4.061;4.284
5446943.595;-13.486;-12.703;-8.121;-4.880;-20.191;-20.936;-11.623;-9.052
5446943.603;-13.188;-14.715;-6.855;-7.115;-20.713;-20.750;-9.313;-6.296
5446943.611;-11.511;-15.944;-3.316;-8.456;-15.609;-18.366;-3.763;-0.112
5446943.619;-3.129;-5.849;6.072;1.974;-6.557;-12.182;-1.863;6.258
5446943.627;-5.178;-6.668;2.161;-0.075;-11.213;-14.938;-4.768;1.490
5446943.635;-10.729;-11.958;-4.284;-4.880;-16.578;-16.689;-7.339;-5.178
5446943.643;-15.236;-17.695;-7.376;-4.545;-18.589;-15.497;-7.078;-4.172
5446943.651;-11.399;-14.305;-3.166;-3.316;-15.460;-7.339;2.235;0.633
5446943.659;-10.617;-15.497;-4.321;-6.519;-16.503;-10.282;0.820;-5.402
5446943.667;-14.938;-23.246;-9.388;-11.958;-17.397;-19.111;-8.382;-8.047
5446943.675;-20.452;-26.599;-12.778;-15.274;-19.222;-21.420;-10.245;-6.631
5446943.683;-21.309;-26.450;-14.827;-16.727;-18.962;-19.856;-14.268;1.341
5446943.691;-26.152;-30.212;-24.922;-18.962;-25.295;-20.638;-12.517;-5.476
5446943.655;-24.028;-26.673;-23.991;-14.901;-29.504;-14.976;-3.949;-5.253
5446943.663;-20.824;-23.618;-17.397;-11.064;-28.424;-15.460;-3.651;-2.794
5446943.671;-15.870;-19.483;-14.342;-10.878;-23.916;-18.477;-8.605;-4.657
5446943.679;-12.144;-15.274;-11.548;-11.176;-20.266;-12.070;0.335;3.055
5446943.687;-13.039;-16.354;-17.025;-11.660;-24.438;-17.434;-11.548;1.006
5446943.695;-20.824;-22.985;-22.538;-15.572;-29.951;-23.507;-17.136;-11.511
5446943.703;-22.575;-21.271;-24.699;-11.176;-35.241;-22.203;-18.179;-11.250
5446943.711;-23.469;-21.160;-28.647;-9.649;-37.700;-13.635;-6.817;1.490
5446943.719;-25.555;-24.140;-29.206;-12.629;-34.608;-21.532;-15.013;-2.906
5446943.727;-36.173;-37.290;-38.482;-24.363;-38.706;-32.969;-24.289;-15.274
5446943.735;-44.294;-47.795;-43.213;-34.906;-39.861;-41.090;-26.114;-22.613
5446943.743;-48.429;-51.372;-46.045;-35.726;-41.649;-46.119;-34.310;-25.854
5446943.751;-50.217;-52.862;-51.707;-34.943;-44.629;-50.850;-40.121;-34.943
5446943.759;-51.148;-53.234;-53.048;-36.173;-44.294;-45.784;-31.404;-27.791
5446943.767;-46.045;-48.988;-49.584;-31.590;-41.723;-42.617;-30.026;-21.011
5446943.775;-44.592;-47.721;-49.509;-28.536;-39.600;-41.127;-28.759;-21.718
5446943.783;-43.586;-44.480;-49.658;-24.922;-39.004;-39.600;-28.536;-21.569
5446943.791;-42.319;-42.804;-47.386;-24.624;-36.806;-34.645;-23.469;-18.775
5446943.799;-39.525;-40.457;-45.747;-21.644;-33.788;-23.395;-13.933;-5.737
5446943.807;-35.539;-36.135;-45.374;-16.987;-32.187;-23.358;-19.707;-6.929
5446943.815;-40.010;-39.935;-48.429;-20.750;-35.055;-23.432;-17.472;-12.890
5446943.823;-47.535;-47.646;-57.928;-25.667;-42.766;-25.593;-19.558;-12.964
5446943.831;-54.352;-51.595;-68.024;-28.461;-50.142;-29.057;-25.369;-14.305
5446943.839;-57.332;-54.166;-66.124;-34.571;-50.813;-27.008;-22.389;-13.746
5446943.805;-49.099;-43.735;-58.115;-22.240;-40.419;-11.399;-5.774;-7.078
5446943.813;-47.870;-40.308;-56.811;-16.689;-41.015;-11.735;-10.021;-6.445
5446943.821;-49.919;-43.735;-60.536;-22.389;-38.967;-14.044;-6.445;-11.586
5446943.829;-44.964;-38.408;-58.785;-19.036;-35.539;-8.978;1.937;-7.041
5446943.837;-42.096;-35.353;-58.934;-17.360;-33.453;-7.190;0.782;-0.745
5446943.845;-44.033;-39.116;-60.052;-22.948;-35.577;-0.931;7.041;7.190
5446943.853;-44.368;-40.084;-60.871;-25.555;-36.955;0.857;4.955;6.072
5446943.861;-45.188;-41.537;-65.565;-24.587;-39.227;-3.800;-0.261;-0.894
5446943.869;-41.053;-38.929;-61.356;-20.750;-35.614;-7.004;-4.135;-2.198
5446943.877;-42.394;-40.233;-59.754;-22.538;-33.081;-15.795;-13.188;-8.792
5446943.885;-46.715;-45.039;-63.032;-31.069;-34.869;-18.552;-9.276;-12.107
5446943.893;-41.388;-40.680;-60.536;-28.312;-36.471;-9.462;0.559;-0.671
5446943.901;-40.755;-37.476;-58.301;-24.699;-35.018;-15.162;-7.600;-7.451
5446943.909;-40.159;-37.551;-56.401;-23.767;-33.155;-17.434;-14.380;-11.176
5446943.917;-39.563;-37.551;-50.254;-22.873;-32.000;-12.629;-4.247;-10.468
5446943.925;-35.167;-32.075;-44.554;-16.578;-24.512;-1.416;9.686;0.186
5446943.933;-28.163;-26.785;-39.376;-13.933;-23.022;5.327;9.723;9.835
5446943.941;-26.897;-24.810;-35.837;-14.752;-24.848;-1.714;0.522;-0.671
5446943.949;-27.269;-24.326;-32.224;-13.225;-25.108;-5.476;-3.241;-0.112
5446943.957;-33.565;-30.287;-35.726;-19.260;-31.628;-6.929;-2.347;-3.874
5446943.965;-31.665;-29.430;-33.304;-18.924;-28.200;-2.235;6.296;-2.533
5446943.973;-33.863;-32.410;-33.677;-22.352;-30.771;-6.780;-1.974;-1.788
5446943.981;-36.620;-36.582;-36.173;-26.189;-37.849;-6.184;-1.229;4.955
5446943.989;-29.542;-29.393;-26.375;-13.039;-26.636;-3.427;0.186;4.359
5446943.985;-22.054;-20.452;-14.193;-4.880;-15.236;-1.602;4.321;2.496
5446943.993;-5.774;-2.272;3.129;12.442;-3.912;-1.453;0.596;4.321
5446944.001;12.964;16.168;24.661;29.206;8.754;-0.410;5.849;2.347
5446944.009;33.192;39.972;49.062;53.756;25.295;-3.912;4.359;-3.353
5446944.017;84.080;94.660;98.422;102.408;56.475;4.470;14.752;11.437
5446944.025;119.023;132.062;134.893;132.024;79.982;-3.017;5.849;-0.373
5446944.033;150.427;165.217;167.564;159.554;98.459;-6.370;-2.272;5.439
5446944.041;176.542;191.219;191.890;181.012;114.404;-2.682;1.639;11.511
5446944.049;195.205;214.577;210.255;198.856;129.119;2.272;7.078;14.529
5446944.057;206.791;227.951;218.526;212.155;133.961;7.674;14.119;18.105
5446944.065;202.805;221.394;206.940;205.673;126.474;14.044;22.762;20.824
5446944.073;197.925;218.265;206.940;202.619;123.009;14.789;18.887;15.348
5446944.081;184.141;202.619;194.125;190.362;113.398;17.583;25.667;22.128
5446944.089;160.821;175.759;168.830;161.827;98.832;10.058;18.440;19.148
5446944.097;131.242;145.026;138.581;130.758;78.678;1.118;13.337;-1.006
5446944.105;114.217;125.319;122.041;113.249;68.657;2.794;11.399;9.649
5446944.113;98.646;106.394;104.196;94.399;56.960;0.633;7.525;12.852
5446944.121;84.937;89.854;89.146;77.523;47.162;0.335;10.245;8.531
5446944.129;68.471;72.047;73.649;61.579;34.720;0.373;9.947;6.929
5446944.137;54.091;55.917;59.940;44.964;24.326;1.788;15.758;4.508
5446944.145;48.243;47.311;52.378;37.253;20.117;1.714;16.131;4.992
5446944.153;39.451;37.476;43.474;31.702;11.884;-6.780;-6.221;-0.037
5446944.161;33.528;33.863;40.270;26.301;9.127;0.447;-1.676;3.949
5446944.169;25.928;24.103;32.857;16.801;7.525;4.023;4.545;3.912
5446944.240;17.397;13.784;20.750;11.362;-0.745;6.109;7.413;1.192
5446944.248;11.213;8.978;15.125;5.811;-7.711;10.878;14.827;7.153
5446944.256;5.886;2.198;14.082;-1.453;-10.841;7.898;11.809;1.341
5446944.264;2.831;-1.788;13.784;-4.433;-10.096;6.370;7.376;0.186
5446944.272;-1.676;-6.743;7.227;-6.929;-15.534;6.631;6.855;2.906
5446944.280;-5.886;-12.368;3.166;-9.425;-20.228;10.394;14.938;8.792
5446944.288;-5.774;-10.990;1.304;-13.523;-20.452;16.615;24.363;20.154
5446944.296;-9.723;-15.721;-3.912;-17.546;-25.146;-0.782;4.508;0.224
5446944.304;-11.921;-18.850;-5.774;-18.589;-24.997;-5.066;2.123;-4.247
5446944.312;-11.623;-18.962;-3.837;-19.260;-20.899;-8.531;1.229;-5.923
5446944.320;-9.201;-19.595;-0.075;-18.366;-19.073;-6.482;4.545;-1.155
5446944.328;-5.849;-17.062;1.192;-18.403;-18.366;-4.359;1.565;7.898
5446944.336;-4.619;-16.354;0.410;-19.185;-19.521;-7.525;-2.012;6.780
5446944.344;-6.184;-19.819;0.820;-22.314;-18.999;-9.872;-1.267;-2.943
5446944.352;-12.852;-25.369;-8.196;-25.518;-19.446;-13.784;-6.817;-5.364
5446944.360;-12.368;-25.705;-6.519;-23.283;-22.203;-9.201;4.396;-1.118
5446944.368;-4.917;-17.807;2.347;-14.901;-17.583;-13.486;-5.253;-2.645
5446944.376;-3.800;-18.962;0.112;-15.497;-16.801;-15.162;-7.339;-4.694
5446944.384;-1.006;-18.626;0.298;-13.895;-20.452;-7.153;6.184;1.565
5446944.392;-8.531;-22.911;-9.313;-19.558;-24.922;-12.629;-2.943;-6.184
5446944.400;-12.070;-28.834;-13.895;-22.836;-30.696;-14.417;-7.376;-9.835
5446944.408;-8.121;-27.157;-7.413;-24.103;-26.599;-10.543;-1.453;-7.227
5446944.416;-2.459;-21.644;2.459;-19.185;-19.968;-9.984;-4.210;-3.092
5446944.424;-2.235;-26.450;-0.931;-25.108;-20.377;-8.829;-0.447;-1.155
5446944.391;1.974;-26.412;-4.023;-23.767;-18.738;-17.211;-10.021;-7.711
5446944.399;10.245;-16.801;3.725;-12.703;-11.139;-15.870;-14.342;-1.825
5446944.407;15.162;-11.288;12.927;-10.319;-9.015;-13.597;-9.350;-0.782
5446944.415;15.423;-12.666;14.231;-12.890;-9.984;-12.480;-4.321;-4.508
5446944.423;15.050;-14.640;8.270;-15.274;-11.921;-5.141;-1.937;4.582
5446944.431;15.907;-15.534;15.087;-13.337;-12.144;-2.794;-2.123;3.688
5446944.439;18.403;-15.311;15.311;-13.374;-12.405;8.121;9.462;17.434
5446944.447;17.695;-13.560;13.225;-13.597;-10.207;1.676;5.588;5.849
5446944.455;14.454;-20.191;9.798;-17.770;-12.591;-5.476;-0.261;-8.531
5446944.463;14.491;-23.805;7.823;-15.013;-13.374;-3.912;-1.229;-3.465
5446944.471;18.664;-26.971;7.339;-15.199;-12.778;-4.545;0.820;-4.619
5446944.479;30.361;-8.494;26.524;-4.843;4.098;0.671;11.735;2.794
5446944.487;31.851;-6.966;33.900;-3.986;3.465;-11.399;-4.061;-6.892
5446944.495;29.318;-13.895;29.355;-10.133;-8.158;-9.611;-5.737;-2.533
5446944.503;32.037;-12.666;25.146;-6.519;-3.688;-3.912;0.186;1.900
5446944.511;37.551;-2.943;29.244;3.725;-2.943;-2.868;2.570;0.708
5446944.519;40.755;-1.229;33.714;6.557;-0.857;-8.456;0.931;-5.551
5446944.527;44.145;4.657;37.290;5.700;10.468;-4.135;8.382;0.410
5446944.535;50.850;8.270;32.112;4.917;13.858;-1.900;8.568;7.860
5446944.543;46.752;4.098;44.368;6.743;10.692;-16.540;-11.660;-12.070
5446944.551;47.125;3.017;51.446;8.754;14.491;-12.740;-4.694;-8.382
5446944.559;52.378;12.852;40.121;11.437;8.047;-20.117;-12.107;-16.205
5446944.567;49.546;15.497;39.525;10.617;5.253;-13.299;-1.937;-9.052
5446944.575;55.619;18.999;48.354;14.268;1.639;0.820;7.711;10.654
5446944.631;47.646;11.921;44.405;3.912;5.327;4.098;13.895;12.852
5446944.639;52.340;7.674;54.576;-0.596;14.491;-15.609;-5.700;-8.866
5446944.647;63.144;19.744;64.000;10.207;22.277;-17.099;-6.333;-15.311
5446944.655;56.364;16.578;57.705;5.923;15.236;-18.440;-5.439;-24.214
5446944.663;56.401;16.391;57.630;5.327;13.225;-15.907;-7.972;-19.856
5446944.671;56.028;15.646;54.725;-0.186;8.158;-13.262;-2.682;-17.583
5446944.679;55.134;10.617;61.840;-1.490;7.972;-7.562;4.247;-15.013
5446944.687;59.940;25.555;68.359;9.164;15.311;-2.645;3.576;-12.182
5446944.695;69.626;35.055;76.555;13.448;20.564;4.135;8.680;-3.874
5446944.703;85.123;46.007;89.519;25.257;29.802;2.719;8.084;-2.682
5446944.711;88.178;49.770;96.075;28.498;31.702;0.298;7.749;-3.278
5446944.719;89.444;52.899;101.589;26.673;35.912;10.170;16.354;11.697
5446944.727;79.758;46.380;90.562;27.046;22.873;-1.490;-2.831;-0.671
5446944.735;74.916;40.345;82.813;14.268;17.472;-11.027;-12.927;-10.133
5446944.743;87.619;52.080;103.228;21.271;29.504;-5.439;-4.061;-8.307
5446944.751;100.322;66.273;113.286;36.471;38.929;3.763;1.974;2.570
5446944.759;106.841;73.090;119.209;38.221;48.988;9.649;7.488;7.413
5446944.767;103.749;68.285;123.456;29.318;46.603;5.811;3.390;2.421
5446944.775;106.357;75.027;126.697;38.743;50.403;5.290;5.290;-1.155
5446944.783;105.463;71.041;120.997;38.594;44.256;10.878;17.099;6.594
5446944.791;90.227;61.244;101.216;35.763;26.077;-2.682;-2.719;-7.749
5446944.799;76.406;51.595;83.707;33.304;13.560;-8.084;-10.841;-9.760
5446944.807;73.127;48.764;80.653;33.267;16.615;3.576;3.912;1.155
5446944.815;66.906;41.611;73.910;27.604;12.368;2.421;3.912;1.267
5446944.825;63.032;38.035;69.849;22.873;6.817;3.316;5.327;-0.633
5446944.833;65.714;41.239;71.600;24.065;10.878;15.981;18.105;7.972
5446944.841;69.328;42.357;72.606;25.705;15.013;25.891;23.432;22.762
5446944.849;74.655;52.489;71.488;37.365;16.131;27.791;20.787;25.108
5446944.857;71.600;53.048;63.330;35.353;16.764;20.973;19.334;9.388
5446944.865;68.806;44.666;81.509;30.696;18.179;23.469;19.744;11.809
5446944.873;59.754;31.218;69.737;19.446;9.090;17.323;4.806;7.600
5446944.881;58.226;36.694;56.364;15.534;12.703;11.176;0.335;1.267
5446944.889;64.187;38.855;66.422;19.446;22.165;23.730;14.305;15.274
5446944.897;58.003;32.187;60.946;14.454;13.448;17.956;7.302;1.788
5446944.905;56.028;29.095;55.991;12.890;9.313;28.014;14.864;8.903
5446944.913;73.612;48.615;71.637;32.857;27.232;63.814;49.956;45.113
5446944.921;69.700;48.839;70.706;28.163;27.381;66.236;52.825;43.698
5446944.929;63.740;41.425;63.293;19.930;21.011;45.784;38.259;17.807
5446944.937;65.491;42.021;59.158;20.415;16.727;25.518;14.901;0.931
5446944.945;54.948;29.318;57.146;10.766;12.256;29.281;13.784;7.376
5446944.953;54.613;25.406;57.667;7.302;11.846;40.121;21.234;13.188
5446944.961;82.068;50.403;80.056;28.834;30.883;76.965;53.607;49.844
5446944.969;76.145;53.011;76.033;35.986;30.808;93.468;66.347;68.583
5446944.977;66.459;49.174;63.889;27.865;28.498;64.597;35.763;42.766
5446944.985;67.540;40.457;66.310;21.458;28.275;38.631;9.835;10.692
5446944.993;65.081;33.714;60.536;17.211;25.332;46.715;13.784;16.466
5446945.001;48.876;24.550;45.896;6.855;15.832;53.942;20.899;24.177
5446945.009;13.411;-2.347;10.319;-18.999;-15.721;31.106;-4.955;-4.470
5446945.050;7.860;-15.460;5.923;-30.585;-26.301;28.759;-5.700;-15.534
5446945.058;38.072;12.405;35.912;-1.490;0.671;72.382;36.918;34.310
5446945.066;47.423;23.171;41.872;11.325;12.331;83.745;52.527;46.007
5446945.074;20.973;-0.447;18.217;-14.827;-6.072;41.872;12.480;-1.900
5446945.082;-19.968;-42.319;-22.464;-57.295;-43.176;-6.631;-45.076;-49.137
5446945.090;-40.829;-62.697;-42.580;-76.555;-61.691;2.235;-41.723;-41.574
5446945.098;-48.280;-70.669;-51.148;-81.919;-65.379;-3.539;-49.621;-50.105
5446945.106;-75.027;-100.769;-75.996;-108.629;-94.771;-41.164;-87.656;-102.036
5446945.114;-39.861;-67.391;-40.866;-75.437;-62.846;1.080;-52.638;-63.926
5446945.122;-33.639;-60.610;-36.582;-69.700;-56.624;23.581;-37.327;-48.131
5446945.130;-26.859;-55.954;-32.969;-64.969;-45.076;56.326;-10.543;-21.383
5446945.138;-12.442;-44.554;-19.781;-48.913;-27.530;79.237;10.952;-2.161
5446945.146;-44.554;-73.202;-50.589;-75.065;-58.934;42.357;-36.135;-33.304
5446945.154;-102.073;-128.821;-120.699;-132.769;-116.862;-20.005;-96.262;-86.799
5446945.162;-119.694;-153.296;-139.922;-156.760;-134.408;-32.820;-103.712;-101.477
5446945.170;-180.863;-219.345;-189.133;-221.170;-192.001;-111.237;-173.636;-198.446
5446945.178;-246.391;-282.861;-255.108;-280.812;-253.171;-159.629;-222.065;-247.993
5446945.186;-280.328;-314.414;-291.988;-310.503;-285.804;-175.685;-246.577;-268.854
5446945.194;-349.581;-385.456;-362.173;-384.711;-355.579;-225.902;-295.863;-329.949
5446945.202;-473.261;-505.783;-477.545;-503.175;-467.002;-329.465;-398.345;-431.165
5446945.210;-586.808;-619.292;-601.448;-617.020;-583.008;-447.929;-510.924;-550.039
5446945.218;-568.852;-606.291;-589.900;-602.305;-580.624;-421.032;-477.955;-526.495
5446945.226;-617.728;-655.241;-642.613;-653.788;-620.298;-467.747;-516.102;-584.722
5446945.234;-651.963;-690.967;-669.807;-689.365;-648.089;-510.290;-562.258;-628.047
5446945.260;-640.191;-676.140;-644.177;-670.589;-633.374;-481.568;-538.006;-605.844
5446945.268;-632.070;-672.452;-643.581;-673.234;-623.837;-492.260;-542.700;-620.671
5446945.276;-620.112;-660.121;-644.214;-657.290;-616.834;-479.706;-533.573;-603.944
5446945.284;-626.855;-665.598;-647.567;-662.655;-622.831;-476.763;-534.728;-589.192
5446945.292;-652.783;-688.955;-672.787;-689.812;-644.438;-489.391;-536.256;-615.679
5446945.300;-676.811;-714.995;-691.116;-715.777;-659.898;-509.322;-552.237;-647.195
5446945.308;-736.490;-774.264;-742.935;-774.078;-712.536;-560.321;-606.030;-693.500
5446945.316;-799.149;-834.987;-814.758;-832.565;-781.342;-631.064;-668.988;-760.183
5446945.324;-859.611;-892.021;-876.747;-889.413;-835.732;-689.402;-723.712;-816.286
5446945.332;-921.078;-953.227;-936.054;-955.798;-888.444;-753.030;-787.452;-876.449
5446945.340;-948.273;-983.439;-958.741;-985.116;-926.293;-782.423;-814.907;-900.067
5446945.348;-934.750;-968.240;-950.769;-964.664;-907.257;-770.241;-794.716;-895.299
5446945.356;-830.926;-861.101;-852.980;-862.665;-802.465;-668.913;-691.414;-801.496
5446945.364;-812.784;-840.202;-832.155;-839.718;-787.117;-652.522;-685.304;-776.909
5446945.372;-795.089;-821.203;-808.835;-822.172;-768.751;-629.537;-662.692;-750.534
5446945.380;-787.042;-812.523;-804.327;-813.939;-758.693;-610.538;-644.587;-740.774
5446945.388;-806.190;-831.373;-817.925;-835.918;-768.639;-625.365;-661.798;-759.177
5446945.396;-815.541;-838.265;-824.407;-840.276;-768.118;-642.650;-677.966;-779.480
5446945.404;-830.740;-851.788;-837.557;-854.842;-784.211;-665.709;-704.788;-797.026
5446945.412;-828.244;-848.398;-837.855;-852.123;-785.440;-672.415;-709.817;-804.961
5446945.420;-824.668;-846.349;-832.938;-851.266;-779.368;-668.280;-707.209;-799.783
5446945.428;-836.067;-857.636;-848.956;-867.955;-792.555;-691.041;-730.120;-818.931
5446945.436;-845.939;-868.514;-852.346;-879.988;-799.708;-700.280;-744.313;-819.564
5446945.444;-849.776;-872.277;-852.607;-885.911;-791.959;-707.731;-753.328;-820.607
5446945.456;-864.640;-882.559;-869.557;-897.348;-805.669;-721.887;-764.877;-840.127
5446945.464;-859.760;-879.951;-870.675;-890.382;-812.598;-715.256;-755.414;-840.239
5446945.472;-859.164;-878.051;-864.677;-884.607;-800.677;-702.143;-744.276;-828.579
5446945.480;-906.847;-922.643;-909.753;-923.611;-849.739;-746.660;-791.661;-865.981
5446945.488;-967.644;-979.975;-972.413;-977.181;-910.833;-802.204;-847.355;-923.723
5446945.496;-960.305;-971.407;-958.294;-964.068;-889.413;-783.615;-834.540;-908.226
5446945.504;-946.224;-955.164;-944.287;-946.596;-874.773;-760.034;-815.988;-886.545
5446945.512;-973.567;-980.645;-976.063;-971.667;-913.627;-776.164;-828.952;-909.679
5446945.520;-992.902;-999.123;-994.354;-988.655;-932.962;-789.016;-848.845;-918.433
5446945.528;-1001.656;-1007.654;-1003.407;-996.627;-941.828;-795.610;-857.599;-927.560
5446945.536;-1013.316;-1018.569;-1017.190;-1005.456;-942.424;-795.722;-856.817;-931.174
5446945.544;-1028.776;-1032.278;-1028.180;-1016.371;-955.760;-795.200;-856.556;-933.893
5446945.552;-1044.199;-1047.961;-1041.479;-1029.223;-974.312;-814.758;-875.406;-950.545
5446945.560;-1066.886;-1071.207;-1058.802;-1051.873;-992.678;-832.081;-896.379;-964.701
5446945.568;-1095.422;-1097.023;-1086.481;-1079.068;-1017.153;-856.332;-920.296;-994.541
5446945.576;-1132.563;-1130.737;-1123.697;-1110.882;-1053.959;-898.242;-960.529;-1036.935
5446945.584;-1125.745;-1121.573;-1116.768;-1097.694;-1047.738;-890.121;-952.110;-1025.461
5446945.592;-1127.310;-1124.665;-1123.175;-1100.637;-1052.655;-891.276;-955.053;-1021.624
5446945.600;-1099.929;-1096.688;-1089.163;-1071.245;-1019.910;-858.270;-924.431;-992.008
5446945.608;-1107.454;-1101.308;-1093.410;-1077.950;-1021.847;-866.391;-936.203;-1001.582
5446945.616;-1130.067;-1123.883;-1116.246;-1099.519;-1044.832;-891.462;-960.790;-1026.727
5446945.624;-1128.130;-1119.338;-1112.781;-1093.075;-1042.374;-895.746;-967.085;-1031.011
5446945.632;-1140.051;-1126.453;-1126.751;-1103.915;-1056.455;-906.475;-976.101;-1040.846
5446945.640;-1160.428;-1142.435;-1152.791;-1121.834;-1076.013;-921.264;-990.964;-1053.512
5446945.635;-1163.520;-1143.590;-1149.327;-1121.536;-1069.047;-927.933;-998.564;-1054.816
5446945.643;-1131.333;-1109.354;-1114.793;-1084.953;-1027.510;-894.368;-961.050;-1017.377
5446945.651;-1137.741;-1111.738;-1119.301;-1085.922;-1028.888;-892.505;-958.517;-1018.494
5446945.659;-1155.324;-1126.789;-1137.555;-1101.568;-1042.299;-900.254;-969.991;-1024.567
5446945.667;-1166.575;-1136.102;-1149.364;-1111.031;-1053.214;-915.155;-987.090;-1042.224
5446945.675;-1156.814;-1123.846;-1143.366;-1105.145;-1050.122;-929.572;-1004.860;-1053.214
5446945.683;-1152.605;-1116.097;-1143.590;-1102.239;-1049.712;-933.595;-1012.459;-1057.684
5446945.691;-1140.423;-1103.096;-1142.174;-1089.163;-1045.726;-922.941;-1006.126;-1048.744
5446945.699;-1132.973;-1097.843;-1135.841;-1084.506;-1043.491;-921.823;-1007.169;-1049.116
5446945.707;-1129.992;-1090.616;-1136.623;-1077.503;-1042.224;-926.442;-1014.173;-1054.369
5446945.715;-1133.792;-1091.286;-1129.322;-1078.695;-1041.517;-924.692;-1012.683;-1051.128
5446945.723;-1125.038;-1091.547;-1128.912;-1078.807;-1037.084;-923.164;-1013.167;-1046.956
5446945.731;-1112.893;-1081.675;-1116.619;-1065.768;-1027.062;-915.267;-1011.156;-1042.746
5446945.739;-1091.361;-1060.851;-1093.932;-1045.801;-1002.587;-898.875;-996.850;-1026.876
5446945.747;-1066.662;-1037.717;-1066.886;-1024.827;-975.318;-882.670;-982.434;-1005.940
5446945.755;-1053.102;-1024.976;-1048.818;-1010.746;-957.958;-869.371;-969.060;-988.171
5446945.763;-1053.847;-1025.945;-1045.689;-1009.591;-955.909;-864.454;-962.764;-982.992
5446945.771;-1054.816;-1025.125;-1043.566;-1003.332;-958.927;-852.682;-951.029;-977.404
5446945.779;-1045.056;-1015.812;-1031.868;-991.263;-953.972;-839.978;-942.573;-966.340
5446945.787;-1043.342;-1014.136;-1029.484;-989.065;-954.084;-835.396;-943.020;-962.317
5446945.795;-1055.263;-1028.143;-1039.356;-1003.034;-963.248;-845.119;-953.265;-970.811
5446945.803;-1070.872;-1046.956;-1054.481;-1022.257;-981.651;-868.998;-972.152;-989.735
5446945.811;-1085.363;-1060.814;-1067.631;-1034.774;-996.999;-886.284;-984.967;-1002.401
5446945.819;-1104.996;-1081.303;-1085.699;-1056.865;-1016.855;-904.799;-1004.189;-1014.322
5446945.771;-1132.116;-1110.025;-1112.074;-1081.899;-1046.732;-931.248;-1032.576;-1036.897
5446945.779;-1180.209;-1160.167;-1159.534;-1128.763;-1094.677;-981.167;-1082.420;-1083.091
5446945.787;-1219.660;-1202.375;-1200.177;-1171.529;-1135.878;-1037.866;-1136.586;-1131.520
5446945.795;-1240.596;-1225.136;-1222.603;-1195.706;-1162.365;-1077.019;-1173.765;-1160.465
5446945.803;-1260.676;-1248.792;-1242.533;-1222.864;-1188.070;-1115.017;-1206.100;-1191.720
5446945.811;-1268.126;-1259.893;-1249.276;-1233.667;-1193.397;-1139.529;-1224.801;-1210.719
5446945.819;-1263.544;-1261.383;-1243.539;-1240.075;-1187.511;-1153.499;-1233.891;-1215.302
5446945.827;-1289.248;-1285.486;-1269.579;-1266.599;-1216.754;-1176.409;-1251.735;-1238.510
5446945.835;-1317.970;-1310.371;-1296.476;-1282.468;-1250.617;-1187.213;-1261.644;-1252.629
5446945.843;-1332.313;-1324.937;-1306.012;-1288.839;-1265.034;-1198.463;-1267.493;-1261.271
5446945.851;-1337.193;-1329.035;-1304.708;-1288.876;-1266.338;-1202.971;-1265.518;-1261.532
5446945.859;-1341.030;-1332.350;-1305.342;-1288.615;-1264.811;-1201.779;-1260.154;-1259.148
5446945.867;-1332.536;-1323.111;-1299.754;-1280.233;-1261.979;-1194.328;-1249.090;-1247.898
5446945.875;-1325.533;-1317.263;-1293.458;-1272.932;-1264.364;-1188.628;-1241.118;-1238.584
5446945.883;-1318.790;-1311.786;-1282.096;-1272.336;-1254.678;-1186.952;-1236.536;-1233.146
5446945.891;-1307.353;-1301.505;-1266.450;-1263.656;-1240.186;-1180.358;-1228.861;-1224.801
5446945.899;-1289.435;-1285.523;-1246.855;-1246.296;-1223.944;-1164.377;-1211.837;-1211.502
5446945.907;-1273.118;-1268.014;-1231.693;-1228.750;-1214.519;-1149.513;-1194.142;-1199.320
5446945.915;-1255.125;-1247.637;-1210.049;-1210.310;-1197.793;-1130.290;-1177.229;-1178.496
5446945.923;-1238.734;-1230.948;-1193.285;-1199.916;-1179.539;-1117.326;-1165.420;-1162.328
5446945.931;-1214.482;-1203.083;-1170.896;-1173.243;-1160.279;-1097.769;-1147.091;-1141.317
5446945.939;-1198.985;-1188.628;-1154.132;-1155.920;-1155.250;-1086.220;-1138.039;-1129.210
5446945.947;-1190.677;-1183.152;-1142.137;-1149.140;-1126.938;-1087.710;-1137.294;-1135.021
5446945.955;-1187.697;-1181.066;-1141.839;-1148.730;-1124.106;-1091.175;-1139.156;-1141.317
5446945.963;-1179.166;-1169.965;-1133.904;-1137.033;-1125.261;-1089.349;-1135.170;-1137.145
5446945.971;-1165.047;-1157.746;-1118.593;-1124.367;-1108.795;-1075.603;-1121.312;-1119.673
5446945.979;-1145.154;-1140.907;-1096.427;-1108.646;-1085.401;-1058.728;-1103.282;-1096.018
5446945.987;-1127.012;-1122.952;-1084.506;-1090.653;-1076.087;-1044.236;-1087.040;-1077.428
5446945.995;-1107.007;-1101.606;-1063.421;-1068.264;-1052.618;-1019.686;-1061.708;-1049.414
5446946.003;-1100.525;-1099.445;-1056.045;-1065.023;-1048.632;-1013.950;-1053.065;-1043.715
5446946.011;-1101.941;-1098.141;-1061.484;-1067.892;-1053.028;-1021.400;-1059.026;-1049.973
5446946.019;-1095.235;-1092.367;-1049.638;-1062.378;-1039.356;-1010.671;-1045.540;-1036.599
5446946.027;-1079.962;-1078.099;-1028.664;-1047.477;-1007.915;-995.770;-1025.945;-1021.214
5446946.035;-1069.047;-1063.496;-1018.681;-1029.186;-1003.891;-988.394;-1015.775;-1011.156
5446946.043;-1058.467;-1052.879;-1015.440;-1016.259;-993.982;-973.903;-999.048;-993.237
5446946.051;-1049.936;-1046.434;-1008.958;-1009.889;-986.196;-956.170;-979.453;-972.636
5446946.059;-1032.129;-1030.974;-987.537;-994.354;-974.201;-946.410;-965.521;-964.105
5446946.067;-1018.532;-1022.629;-976.771;-984.035;-962.317;-952.631;-971.295;-967.085
5446946.075;-1016.036;-1027.398;-974.163;-988.021;-958.964;-935.011;-958.927;-939.183
5446946.083;-993.758;-1004.078;-957.325;-970.066;-943.355;-925.660;-948.645;-937.209
5446946.091;-965.446;-968.799;-939.518;-925.958;-917.464;-922.866;-941.828;-942.200
5446946.099;-932.440;-937.767;-891.052;-899.509;-878.200;-897.273;-913.925;-913.516
5446946.107;-911.169;-914.298;-873.506;-883.974;-858.195;-879.951;-892.282;-891.201
5446946.115;-876.598;-887.252;-836.924;-844.523;-818.819;-850.297;-858.381;-855.699
5446946.123;-845.529;-852.570;-812.188;-821.576;-793.785;-828.579;-834.540;-832.267
5446946.131;-814.758;-819.303;-782.833;-787.489;-768.080;-804.812;-812.151;-808.910
5446946.139;-773.370;-770.129;-732.392;-738.949;-726.879;-772.253;-778.027;-775.307
5446946.147;-730.082;-734.068;-692.680;-697.076;-683.703;-748.150;-754.260;-744.946
5446946.192;-717.789;-723.302;-698.268;-695.400;-696.070;-776.351;-781.715;-775.121
5446946.200;-722.073;-715.219;-730.269;-698.268;-723.973;-804.514;-805.855;-805.408
5446946.208;-657.216;-667.386;-656.657;-664.517;-685.304;-790.618;-791.550;-789.911
5446946.216;-627.115;-639.893;-610.128;-640.638;-641.756;-774.711;-774.078;-773.966
5446946.224;-623.949;-635.646;-595.525;-632.592;-624.172;-770.353;-768.267;-765.920
5446946.232;-615.269;-614.077;-590.794;-615.790;-617.169;-759.102;-756.159;-750.311
5446946.240;-604.503;-598.058;-593.253;-594.929;-614.636;-737.682;-733.174;-731.088
5446946.248;-595.674;-591.092;-585.318;-584.535;-601.821;-712.909;-708.587;-708.587
5446946.256;-575.148;-572.912;-567.548;-565.425;-585.429;-683.479;-680.760;-678.599
5446946.264;-562.072;-562.929;-553.764;-557.303;-571.422;-669.770;-668.205;-660.829
5446946.272;-556.521;-555.851;-546.314;-548.735;-558.607;-665.039;-666.380;-650.138
5446946.280;-546.984;-548.810;-536.740;-539.497;-545.979;-651.889;-650.771;-641.420
5446946.288;-552.013;-557.750;-542.030;-545.345;-552.759;-661.835;-661.016;-652.745
5446946.296;-545.010;-552.796;-532.642;-536.889;-541.545;-649.467;-649.989;-642.575
5446946.304;-529.364;-539.795;-515.394;-524.521;-515.096;-619.367;-623.167;-616.908
5446946.312;-519.939;-530.109;-504.926;-509.322;-504.479;-582.524;-589.006;-586.212
5446946.320;-507.385;-520.647;-494.272;-498.667;-493.005;-559.874;-564.195;-566.877
5446946.328;-496.097;-507.869;-481.009;-481.419;-476.837;-558.943;-563.674;-560.544
5446946.336;-470.728;-480.898;-454.634;-451.356;-448.748;-539.608;-543.483;-538.602
5446946.344;-440.925;-451.580;-425.763;-419.840;-423.901;-538.267;-538.677;-535.846
5446946.352;-412.092;-418.201;-393.093;-386.946;-400.804;-530.668;-529.848;-527.799
5446946.360;-394.769;-397.302;-382.252;-368.841;-390.708;-541.285;-540.018;-542.179
5446946.368;-347.793;-344.813;-337.139;-315.756;-353.158;-522.882;-525.638;-520.237
5446946.376;-306.666;-307.783;-294.112;-274.107;-311.881;-489.280;-494.234;-484.064
5446946.354;-267.997;-265.613;-274.666;-246.242;-286.289;-476.725;-481.568;-477.284
5446946.362;-208.393;-179.484;-227.056;-178.851;-249.483;-446.588;-450.090;-459.328
5446946.370;-174.157;-146.665;-196.099;-143.796;-209.026;-408.068;-412.203;-423.528
5446946.378;-189.394;-167.377;-211.857;-168.681;-214.390;-406.504;-414.737;-424.199
5446946.386;-198.595;-180.490;-228.733;-181.682;-215.583;-396.855;-409.596;-411.980
5446946.394;-232.868;-211.559;-268.780;-211.671;-228.882;-401.400;-418.536;-409.558
5446946.402;-267.923;-240.915;-311.621;-238.530;-253.208;-395.775;-414.215;-405.759
5446946.410;-280.738;-248.291;-337.586;-243.448;-261.366;-378.862;-394.247;-397.712
5446946.418;-292.398;-254.475;-354.871;-252.165;-262.074;-383.817;-396.036;-398.606
5446946.426;-297.725;-263.192;-366.941;-264.496;-262.186;-380.054;-389.591;-390.559
5446946.434;-306.815;-276.342;-379.011;-274.517;-265.837;-372.343;-386.611;-383.705
5446946.442;-306.182;-274.740;-383.779;-267.588;-256.710;-342.168;-364.296;-367.239
5446946.450;-313.409;-283.122;-396.334;-276.715;-253.171;-336.841;-358.559;-367.314
5446946.458;-319.183;-289.381;-405.349;-283.159;-245.571;-331.178;-353.269;-361.986
5446946.466;-318.214;-286.736;-407.286;-283.159;-240.169;-320.859;-347.011;-351.705
5446946.474;-313.744;-283.122;-405.200;-284.575;-231.005;-313.856;-340.156;-339.374
5446946.482;-306.927;-279.024;-399.984;-279.322;-223.592;-302.307;-325.888;-326.522
5446946.490;-304.468;-278.391;-402.704;-275.485;-223.219;-298.358;-319.928;-322.834
5446946.498;-300.966;-276.975;-397.265;-274.032;-213.385;-297.651;-323.020;-315.830
5446946.506;-297.949;-276.640;-397.116;-272.319;-209.175;-299.066;-324.957;-311.024
5446946.514;-293.888;-276.491;-392.534;-267.625;-212.491;-299.737;-323.169;-307.821
5446946.522;-289.567;-274.815;-384.077;-261.515;-201.017;-289.008;-313.707;-294.819
5446946.530;-293.106;-280.030;-387.318;-267.439;-200.756;-290.871;-312.887;-295.267
5446946.538;-292.882;-281.595;-384.934;-265.799;-201.538;-289.418;-309.087;-295.565
5446946.506;-294.819;-287.965;-387.393;-268.370;-202.134;-284.761;-302.494;-290.088
5446946.514;-290.722;-290.759;-376.292;-270.344;-194.348;-278.875;-296.757;-280.179
5446946.522;-274.219;-278.726;-349.395;-254.735;-172.779;-261.031;-286.251;-261.366
5446946.530;-254.884;-264.086;-332.147;-237.785;-161.715;-253.618;-279.956;-251.867
5446946.538;-243.150;-255.220;-319.518;-228.770;-156.090;-256.263;-283.197;-253.432
5446946.546;-202.022;-216.663;-276.230;-188.611;-119.880;-227.727;-255.108;-227.168
5446946.554;-189.729;-205.748;-263.341;-178.479;-112.802;-226.460;-253.432;-221.506
5446946.562;-180.639;-199.825;-252.463;-171.736;-108.965;-223.294;-249.557;-220.835
5446946.570;-168.122;-190.698;-234.172;-160.150;-97.901;-217.631;-240.393;-213.385
5446946.578;-154.749;-181.422;-213.310;-148.676;-80.466;-204.556;-228.845;-199.601
5446946.586;-151.433;-177.361;-203.550;-144.131;-77.784;-198.558;-224.337;-194.833
5446946.594;-156.574;-184.327;-205.562;-152.066;-88.103;-203.475;-227.541;-200.085
5446946.602;-158.511;-188.015;-200.421;-152.402;-86.389;-200.383;-223.108;-197.627
5446946.610;-153.556;-182.576;-191.517;-147.931;-82.180;-202.358;-222.661;-200.160
5446946.618;-152.364;-178.292;-193.752;-143.684;-89.891;-200.719;-222.288;-196.211
5446946.626;-148.267;-176.914;-185.631;-142.567;-83.596;-199.862;-222.474;-194.125
5446946.634;-153.035;-184.886;-187.978;-151.061;-86.874;-212.155;-233.613;-205.077
5446946.642;-129.379;-161.082;-160.784;-125.542;-65.304;-187.419;-209.473;-176.989
5446946.650;-117.347;-149.943;-145.771;-117.533;-53.383;-182.204;-202.917;-169.165
5446946.658;-111.200;-141.822;-140.928;-108.555;-48.913;-170.954;-193.231;-158.027
5446946.666;-135.526;-165.477;-165.626;-130.907;-74.171;-186.972;-207.052;-175.387
5446946.674;-119.507;-149.421;-150.315;-118.762;-65.118;-180.900;-194.870;-168.085
5446946.682;-99.912;-131.205;-125.393;-101.551;-43.511;-169.538;-180.826;-157.245
5446946.690;-98.161;-132.620;-121.184;-102.147;-39.227;-169.389;-179.932;-155.345
5446946.671;-103.191;-138.581;-124.909;-108.145;-45.672;-173.114;-186.302;-155.494
5446946.679;-86.538;-121.184;-109.933;-92.909;-33.714;-157.431;-171.661;-142.157
5446946.687;-83.558;-112.243;-106.990;-85.570;-29.840;-164.472;-175.536;-153.668
5446946.695;-78.157;-107.922;-98.199;-77.896;-21.532;-159.517;-173.151;-147.223
5446946.703;-64.224;-94.324;-86.054;-64.783;-12.182;-148.453;-158.325;-133.887
5446946.711;-61.467;-92.201;-79.796;-62.771;-5.811;-137.202;-145.957;-121.593
5446946.719;-60.648;-91.791;-76.555;-62.212;2.421;-130.348;-139.289;-108.927
5446946.727;-58.115;-89.332;-79.349;-61.952;0.559;-144.318;-154.078;-118.688
5446946.735;-50.589;-80.764;-68.843;-55.954;6.109;-135.452;-142.269;-112.355
5446946.743;-33.453;-63.814;-47.982;-41.425;22.836;-131.577;-135.563;-102.594
5446946.751;-26.263;-54.836;-44.219;-33.975;24.885;-139.400;-139.587;-109.263
5446946.759;-22.389;-46.641;-41.947;-27.306;29.542;-141.822;-139.661;-106.059
5446946.767;9.388;-12.405;-10.431;3.837;62.697;-110.641;-104.420;-82.031
5446946.775;30.436;10.133;12.890;28.163;88.587;-85.682;-78.864;-66.087
5446946.783;42.655;23.171;21.979;37.923;101.738;-72.494;-69.179;-44.741
5446946.791;45.896;29.355;28.536;43.027;106.283;-63.777;-60.759;-33.602
5446946.799;18.477;4.657;2.719;20.415;93.766;-69.626;-69.402;-32.224
5446946.807;-22.613;-32.596;-41.574;-17.174;59.567;-90.338;-89.295;-53.197
5446946.815;-9.760;-17.621;-26.114;-3.241;79.088;-71.041;-69.365;-38.408
5446946.823;12.368;3.763;-5.886;16.578;103.042;-53.644;-50.701;-18.217
5446946.831;20.489;15.572;-1.155;30.361;109.673;-49.807;-50.329;-13.746
5446946.839;47.237;44.890;21.048;60.014;135.005;-23.618;-27.306;8.941
5446946.847;63.069;62.585;32.708;80.168;153.556;7.339;3.129;42.953
5446946.855;46.007;45.113;17.397;66.161;147.894;-4.284;-10.468;30.771
5446946.911;43.660;40.531;19.409;63.851;151.731;-3.055;-5.923;31.851
5446946.919;49.882;50.515;20.303;78.008;159.740;12.331;8.605;47.870
5446946.927;37.253;38.855;4.210;68.061;152.513;24.103;15.832;56.736
5446946.935;40.159;41.611;9.872;72.308;156.835;28.983;15.832;53.011
5446946.943;39.078;43.362;2.123;74.245;149.161;33.453;14.454;51.893
5446946.951;51.334;59.605;16.466;84.899;168.346;40.643;20.564;56.326
5446946.959;104.606;115.074;68.918;136.010;220.984;88.699;65.230;101.477
5446946.967;130.758;136.234;79.013;138.693;237.636;91.754;67.353;105.649
5446946.975;133.142;140.183;82.217;124.685;241.213;82.776;60.946;97.863
5446946.983;141.785;151.023;88.215;133.850;251.383;101.104;78.529;113.398
5446946.991;138.134;147.447;84.154;133.775;254.512;106.394;88.252;120.774
5446946.999;129.379;141.338;70.557;131.465;249.222;109.673;94.473;125.580
5446947.007;138.693;153.631;78.604;145.175;260.063;122.003;110.939;137.314
5446947.015;135.489;150.017;69.328;140.108;259.615;119.731;113.398;133.328
5446947.023;132.062;145.398;60.722;134.557;258.237;123.940;113.510;136.159
5446947.031;129.715;142.753;53.793;131.242;261.068;123.195;112.243;137.053
5446947.039;114.366;130.869;39.302;124.127;256.300;127.405;114.143;141.747
5446947.047;101.998;121.631;25.965;114.664;246.614;123.903;108.667;137.575
5446947.055;114.925;133.626;32.187;125.542;254.922;127.964;115.149;143.945
5446947.063;122.301;137.836;34.124;130.236;258.349;130.273;119.507;148.602
5446947.071;126.958;140.443;33.304;132.732;266.135;127.591;125.468;151.284
5446947.079;127.554;140.928;29.728;138.581;265.092;130.050;134.818;161.268
5446947.087;128.895;140.294;27.381;139.773;263.639;128.560;137.128;165.477
5446947.095;131.875;140.928;28.796;137.687;267.364;120.476;131.615;157.692
5446947.136;131.354;138.320;30.659;140.183;270.382;123.754;135.452;160.187
5446947.144;133.440;133.328;26.152;135.228;272.542;113.919;129.789;157.617
5446947.152;140.406;141.226;38.706;147.112;273.399;115.894;133.142;162.981
5446947.160;148.118;149.272;52.378;157.990;278.912;122.488;140.257;167.675
5446947.168;140.406;137.500;41.910;146.106;277.609;114.031;131.950;163.466
5446947.176;151.582;143.200;56.624;155.419;290.275;131.167;146.739;175.089
5446947.184;162.162;150.502;68.545;162.460;299.476;128.336;146.255;169.314
5446947.192;154.935;141.636;61.803;155.531;286.400;112.280;132.918;154.935
5446947.200;187.457;170.544;102.930;186.861;315.346;130.571;151.359;174.716
5446947.208;198.670;181.161;115.074;196.584;314.899;133.291;153.817;180.230
5446947.216;189.617;171.550;110.082;190.400;309.832;131.577;150.092;180.788
5446947.224;213.869;192.262;138.432;210.255;335.239;150.315;170.730;204.146
5446947.232;218.414;195.652;141.338;212.789;325.404;155.717;175.796;208.095
5446947.240;229.813;206.530;155.456;224.933;332.221;167.340;188.388;213.124
5446947.248;230.782;205.040;159.740;222.847;338.368;158.995;182.055;202.209
5446947.256;232.309;205.226;167.675;226.237;334.084;166.595;184.923;208.914
5446947.264;243.708;216.253;187.792;235.252;345.930;172.481;189.841;218.265
5446947.272;241.213;211.895;189.655;232.346;340.156;167.377;186.190;215.545
5446947.280;240.617;206.977;194.162;225.678;335.537;162.870;180.900;211.298
5446947.288;278.577;240.877;240.840;255.369;373.721;186.637;207.871;231.341
5446947.296;289.120;249.334;254.959;269.450;380.240;204.667;225.157;246.502
5446947.304;267.662;224.821;235.513;245.720;352.301;176.579;198.334;222.847
5446947.312;293.851;251.383;264.533;274.330;367.872;202.842;220.947;251.383
5446947.320;286.847;242.740;263.005;265.725;366.904;194.535;209.250;239.424
5446947.300;290.386;244.640;271.089;266.768;368.655;194.721;212.416;240.915
5446947.308;300.854;254.437;284.463;277.460;373.013;208.355;224.151;255.145
5446947.316;311.583;265.539;296.347;284.277;383.221;204.816;219.755;258.982
5446947.324;310.093;264.980;297.986;282.601;379.346;201.389;219.196;254.065
5446947.332;304.058;260.323;296.123;278.838;374.354;193.045;211.708;238.977
5446947.340;317.097;271.797;316.873;286.624;384.152;200.346;221.580;243.634
5446947.348;328.086;283.569;329.986;301.264;393.391;219.159;238.977;258.982
5446947.356;322.349;279.769;325.590;296.943;385.307;213.683;234.656;253.730
5446947.364;328.682;285.953;332.780;302.270;388.436;227.019;246.204;266.917
5446947.372;342.093;298.731;348.277;315.495;401.959;244.491;259.690;280.775
5446947.380;362.955;320.822;368.468;336.915;417.568;269.301;281.632;305.064
5446947.388;365.190;322.685;373.498;340.939;416.562;292.473;300.519;327.565
5446947.396;358.149;312.440;368.208;326.894;415.333;283.383;291.541;320.897
5446947.404;371.747;326.857;382.811;341.535;427.328;282.079;288.561;320.263
5446947.412;378.117;336.803;387.616;353.865;433.736;287.965;298.247;321.344
5446947.420;358.149;317.581;367.463;332.482;414.699;250.302;263.713;287.034
5446947.428;354.610;315.309;371.374;331.774;415.929;256.971;269.413;294.447
5446947.436;373.088;339.039;387.989;354.871;430.644;281.446;293.814;319.518
5446947.444;398.234;368.990;410.452;383.928;453.219;320.300;326.596;352.003
5446947.452;387.728;359.714;396.110;374.056;439.659;323.020;323.690;346.340
5446947.460;390.857;364.371;395.849;375.099;439.174;332.110;331.737;359.565
5446947.468;391.081;364.706;400.059;372.007;449.419;331.476;328.533;361.241
5446947.476;369.437;345.297;381.619;350.736;440.218;302.568;300.333;336.356
5446947.484;323.839;303.648;334.308;308.454;404.268;265.166;262.223;302.047
5446947.436;355.616;340.007;363.290;341.721;441.484;307.038;305.325;340.790
5446947.444;437.200;422.932;443.682;422.113;523.664;388.399;386.313;422.597
5446947.452;456.907;442.229;462.793;443.794;546.724;405.982;399.686;437.871
5446947.460;419.915;407.733;422.932;409.037;515.394;369.884;364.333;400.320
5446947.468;382.364;373.833;381.842;377.111;478.737;343.509;334.904;375.286
5446947.476;372.007;363.961;361.316;369.176;467.524;342.317;328.682;370.219
5446947.484;407.211;401.996;395.477;409.000;505.000;378.154;362.806;398.681
5446947.492;386.946;383.891;374.876;393.353;483.580;362.769;341.311;382.066
5446947.500;386.387;386.052;369.027;393.689;489.652;362.284;339.933;378.862
5446947.508;393.316;395.477;368.990;403.859;500.977;371.188;350.364;385.605
5446947.516;395.328;401.214;367.314;410.303;503.249;377.782;356.212;387.169
5446947.524;414.550;421.554;384.226;428.297;523.664;399.351;377.335;410.080
5446947.532;396.073;405.200;358.075;411.123;509.284;397.265;373.051;412.725
5446947.540;414.550;427.179;369.810;429.861;525.378;415.295;397.712;428.297
5446947.548;406.317;423.789;358.149;425.242;514.351;411.607;396.967;422.746
5446947.556;389.814;412.241;340.603;414.141;505.820;403.374;386.648;417.195
5446947.564;388.362;416.525;334.680;417.568;509.582;406.504;388.585;424.720
5446947.572;366.531;395.924;310.615;398.085;493.117;397.377;379.197;403.263
5446947.580;371.039;402.294;309.981;404.902;496.693;404.157;383.630;405.982
5446947.588;383.370;417.121;318.885;418.574;506.826;424.571;399.165;431.351
5446947.596;383.593;419.803;318.810;419.132;514.723;427.328;396.892;441.521
5446947.604;376.515;413.731;306.219;408.515;499.040;406.913;379.048;418.723
5446947.612;379.719;415.146;305.623;407.062;496.283;399.835;370.555;412.874
5446947.620;379.905;415.854;304.207;402.331;509.806;389.926;358.783;399.351
5446947.616;390.261;427.738;318.512;413.805;526.980;404.865;370.294;414.141
5446947.624;384.413;420.287;315.867;407.100;521.764;404.865;367.314;414.401
5446947.632;373.274;411.235;302.456;397.265;502.393;392.944;353.828;406.615
5446947.640;365.004;407.621;297.241;393.838;497.177;388.548;346.899;406.243
5446947.648;339.933;382.960;274.144;366.196;471.585;353.903;317.656;373.945
5446947.656;352.412;393.689;289.604;376.329;480.749;367.537;336.319;385.791
5446947.664;394.285;436.343;332.110;421.628;524.670;415.519;390.671;427.030
5446947.672;381.991;427.365;319.295;413.619;506.081;405.423;382.289;421.368
5446947.680;377.223;422.932;316.389;410.378;495.203;408.068;382.699;426.322
5446947.688;382.662;426.285;324.249;412.129;506.416;408.478;385.232;432.283
5446947.696;373.758;415.482;326.373;399.835;498.407;394.620;372.082;421.219
5446947.704;362.955;403.821;317.544;386.760;483.431;380.389;360.198;402.704
5446947.712;375.025;415.333;331.774;398.979;492.595;392.497;373.758;418.052
5446947.720;354.014;396.445;315.048;382.587;471.622;380.240;359.006;406.131
5446947.728;335.723;377.074;306.666;360.049;452.474;358.522;340.305;384.711
5446947.736;356.920;393.465;333.339;378.378;475.645;377.335;363.477;405.051
5446947.744;340.529;373.684;321.120;358.857;457.279;364.780;351.332;393.614
5446947.752;319.481;354.573;304.207;342.466;432.320;348.017;335.574;379.235
5446947.760;317.618;354.834;314.005;345.260;427.850;357.814;345.744;387.840
5446947.768;333.078;368.543;336.803;357.740;452.958;371.374;361.539;405.833
5446947.776;312.813;344.105;320.561;334.606;433.698;337.809;330.918;372.231
5446947.784;287.183;316.463;298.433;309.125;404.418;311.993;306.889;340.976
5446947.792;320.338;349.768;334.308;340.827;428.557;346.825;340.976;372.753
5446947.800;330.918;357.851;347.756;348.128;434.406;358.671;350.103;379.607
5446947.841;320.971;347.570;337.921;337.474;423.230;342.652;336.692;363.514
5446947.849;296.645;323.281;316.501;312.366;392.124;312.813;308.044;337.884
5446947.857;327.267;351.109;349.656;342.540;421.815;348.873;344.552;376.739
5446947.865;350.252;370.890;377.409;359.267;445.470;356.212;355.504;383.444
5446947.873;362.694;380.352;390.746;366.867;446.923;353.418;353.716;377.148
5446947.881;362.769;379.160;396.520;361.912;450.201;340.082;342.391;371.970
5446947.889;351.369;364.557;390.857;340.641;446.476;322.796;329.092;354.573
5446947.897;371.486;380.315;411.794;353.828;467.449;334.382;341.423;365.451
5446947.905;382.401;392.161;425.465;365.153;471.063;326.857;332.482;361.055
5446947.913;392.869;401.251;437.349;380.613;479.706;345.893;355.393;374.727
5446947.921;391.752;398.196;440.367;378.527;481.978;345.185;358.485;376.515
5446947.929;389.032;395.589;438.280;378.899;477.880;344.776;355.728;380.725
5446947.937;374.280;379.272;423.417;365.153;461.042;341.050;350.848;376.143
5446947.945;354.797;358.447;406.504;342.987;443.049;329.949;338.554;367.500
5446947.953;360.459;359.043;414.401;344.515;448.227;343.211;351.369;372.082
5446947.961;406.876;402.629;459.626;388.846;495.091;388.585;396.371;412.539
5446947.969;396.520;391.193;447.370;381.023;482.537;380.054;383.519;406.019
5446947.977;390.075;383.370;443.272;375.286;478.178;387.803;390.336;415.146
5446947.985;391.714;384.971;444.613;376.031;483.803;380.017;384.264;405.461
5446947.993;427.067;421.256;477.135;413.358;517.219;416.003;421.293;435.971
5446948.001;402.741;398.867;453.368;389.516;493.824;387.989;398.085;410.415
5446948.009;401.027;395.738;454.597;387.803;491.776;388.250;401.773;412.427
5446948.017;379.011;374.280;433.028;368.096;469.349;372.976;388.138;401.847
5446948.025;379.011;374.615;433.251;372.715;472.404;376.143;392.683;409.000
5446948.023;391.603;387.058;442.974;387.952;486.374;391.155;405.125;426.173
5446948.031;395.589;390.075;443.012;390.932;492.074;384.711;399.910;419.095
5446948.039;376.329;369.139;420.846;370.592;469.163;365.041;380.091;402.294
5446948.047;384.822;379.458;431.612;379.570;465.810;374.503;387.914;407.361
5446948.055;477.694;474.453;515.617;470.690;565.387;465.885;482.798;490.621
5446948.063;489.466;486.821;528.954;489.168;592.247;494.607;508.688;520.274
5446948.071;480.004;474.788;518.076;485.629;572.428;485.778;494.309;515.617
5446948.079;467.040;460.148;495.054;475.757;553.057;473.261;479.482;496.060
5446948.087;453.405;445.545;478.253;461.489;541.992;456.870;461.601;474.006
5446948.095;447.258;436.828;463.724;453.107;535.585;444.837;447.519;464.134
5446948.103;435.673;423.938;444.092;443.384;523.850;437.312;440.367;458.248
5446948.111;453.852;441.857;465.587;461.675;538.491;451.356;459.068;474.192
5446948.119;465.997;454.299;479.706;476.427;550.635;458.881;468.940;485.852
5446948.127;458.807;443.980;468.679;468.642;543.743;447.519;461.303;474.490
5446948.135;450.872;438.094;461.116;460.483;530.332;440.627;459.068;465.848
5446948.143;453.293;439.398;457.801;460.558;527.762;448.301;467.487;473.112
5446948.151;443.049;429.861;447.966;453.368;524.931;438.727;456.683;465.438
5446948.159;480.227;463.240;477.470;486.672;562.146;472.106;487.864;499.114
5446948.167;464.320;450.052;467.598;474.006;552.908;463.165;477.023;489.913
5446948.175;439.994;427.812;441.372;456.050;529.252;448.972;460.558;474.676
5446948.183;448.674;432.208;450.499;467.375;522.472;461.154;473.037;480.749
5446948.191;447.109;430.904;445.768;464.655;521.578;465.214;477.917;483.990
5446948.199;449.158;430.308;451.617;457.168;538.938;453.629;466.853;477.508
5446948.207;436.120;415.705;438.616;440.963;532.866;436.679;450.648;462.532
5446948.200;440.516;413.060;447.519;434.108;540.614;435.933;451.207;465.512
5446948.208;446.215;414.327;456.236;434.704;551.343;439.622;454.448;475.235
5446948.216;428.110;392.422;437.349;408.813;533.871;415.370;433.885;451.654
5446948.224;415.407;379.160;427.179;393.540;523.813;401.400;421.852;441.596
5446948.232;418.909;381.432;435.784;396.743;531.524;400.133;417.307;448.488
5446948.240;421.293;386.126;439.473;401.624;534.169;395.887;415.519;442.155
5446948.248;447.482;414.290;462.718;432.208;552.908;422.411;443.496;453.964
5446948.256;430.644;398.941;441.596;418.499;527.911;413.693;434.481;444.800
5446948.264;437.610;410.900;450.425;435.859;534.728;426.248;447.333;459.589
5446948.272;431.314;406.541;441.857;433.698;530.481;421.926;441.708;461.079
5446948.280;420.026;395.998;427.999;420.734;515.915;403.598;422.373;444.688
5446948.288;435.300;409.223;444.427;430.159;533.648;412.837;428.520;452.735
5446948.296;439.696;414.550;448.413;435.710;533.052;414.699;429.824;457.279
5446948.304;459.068;435.375;463.687;457.130;552.461;437.349;451.095;480.376
5446948.312;469.796;446.253;473.224;468.045;556.633;443.533;459.440;485.368
5446948.320;450.090;426.285;454.895;450.127;539.199;418.276;440.031;458.807
5446948.328;433.214;411.868;436.567;438.653;520.125;408.217;431.240;451.691
5446948.336;451.170;432.581;450.574;462.495;527.762;420.623;447.705;465.363
5446948.344;471.286;451.393;469.834;481.829;543.706;434.034;462.010;481.047
5446948.352;454.225;432.320;455.752;462.569;530.891;412.278;440.404;460.707
5446948.360;425.726;405.647;427.738;435.300;495.091;382.364;410.341;431.836
5446948.368;422.969;400.804;428.185;429.600;486.635;378.750;401.139;424.571
5446948.376;445.843;421.740;456.050;449.680;512.190;398.792;423.826;439.659
5446948.384;488.199;465.736;499.636;497.848;548.735;442.378;470.281;483.133
5446948.396;497.885;476.278;508.539;508.167;558.905;450.127;475.235;497.922
5446948.404;472.292;450.052;486.709;483.505;530.258;417.382;444.017;465.959
5446948.412;442.974;421.815;458.173;458.434;493.787;397.377;423.491;443.459
5446948.420;444.651;425.577;464.469;460.856;492.446;397.488;425.018;439.994
5446948.428;446.327;428.744;469.834;463.761;488.721;396.669;424.124;437.610
5446948.436;451.617;435.896;474.602;468.232;492.334;401.437;427.812;442.415
5446948.444;438.206;423.081;459.515;454.858;476.614;389.814;416.934;431.165
5446948.452;427.626;412.427;455.044;447.854;458.024;382.029;408.292;420.809
5446948.460;414.848;401.437;441.410;436.939;443.794;374.094;400.208;412.762
5446948.468;429.526;418.201;456.758;450.760;464.059;387.616;413.805;425.130
5446948.476;442.825;433.251;471.398;466.704;472.516;400.245;425.018;439.845
5446948.484;455.119;448.264;483.319;481.121;474.676;414.886;437.088;457.838
5446948.492;457.056;453.815;485.405;484.586;481.121;415.482;433.996;453.927
5446948.500;445.545;443.198;473.857;474.304;472.330;404.604;426.173;440.329
5446948.508;427.626;424.422;453.889;453.815;449.941;390.969;408.441;430.048
5446948.516;443.794;441.559;468.530;471.435;457.875;400.878;413.805;440.814
5446948.524;462.942;461.563;485.517;492.297;473.969;415.780;432.283;450.015
5446948.532;431.575;434.257;453.778;466.704;444.576;384.264;402.443;415.072
5446948.540;422.969;427.812;448.227;460.856;436.567;376.776;397.936;405.982
5446948.548;427.850;431.649;450.276;460.073;438.690;390.150;411.011;421.964
5446948.556;444.390;450.499;460.967;483.692;451.654;407.994;427.701;444.762
5446948.564;406.541;416.376;422.634;450.760;419.468;371.709;388.473;408.478
5446948.572;403.523;417.456;417.121;453.182;404.865;370.219;383.817;404.641
5446948.580;468.306;484.698;482.686;522.360;474.118;435.077;451.207;460.744
5446948.710;479.221;490.993;496.171;524.484;495.650;445.358;461.563;471.696
5446948.718;451.915;461.489;471.249;490.472;476.576;418.425;430.532;449.195
5446948.726;445.880;453.219;467.375;476.465;473.596;406.429;416.897;437.088
5446948.734;464.246;472.516;490.583;491.515;505.224;423.938;432.506;449.680
5446948.742;493.303;503.547;522.882;511.967;540.391;450.723;460.297;476.465
5446948.750;468.716;479.855;497.624;481.159;514.500;434.630;441.447;461.452
5446948.758;473.410;487.641;496.395;490.136;518.337;444.651;449.605;469.238
5446948.766;458.062;474.416;480.413;478.327;501.871;434.965;441.074;459.217
5446948.774;451.952;474.229;470.281;480.004;495.501;440.367;443.570;465.475
5446948.782;460.632;487.082;471.957;490.658;505.298;455.119;453.107;478.514
5446948.790;422.187;452.288;425.726;458.620;465.140;418.611;413.172;431.873
5446948.798;447.594;480.115;452.623;489.987;493.191;450.611;444.129;459.179
5446948.806;466.108;501.238;472.106;514.537;509.508;478.029;471.547;482.425
5446948.814;438.578;470.206;438.616;480.562;476.688;446.402;435.971;450.760
5446948.822;460.856;493.154;453.517;500.493;496.693;468.344;455.901;476.316
5446948.830;448.227;487.007;441.037;495.128;490.993;464.469;453.815;471.808
5446948.838;443.496;485.815;428.818;495.762;486.337;464.916;455.268;474.602
5446948.846;489.056;532.977;465.401;544.861;539.422;509.061;498.965;518.970
5446948.854;468.120;510.402;450.313;525.601;523.627;497.065;486.001;501.312
5446948.862;429.377;474.714;414.178;492.372;489.876;468.381;458.583;475.980
5446948.870;427.067;475.571;395.849;486.821;481.419;462.010;450.648;472.777
5446948.878;432.134;482.015;395.551;496.171;483.617;477.396;462.681;481.643
5446948.886;414.029;464.655;377.223;479.296;463.240;469.387;451.878;469.275
5446948.894;401.884;454.709;357.889;474.937;447.743;466.146;446.402;462.718
5446949.024;424.422;479.929;374.466;504.479;463.985;496.954;476.688;489.503
5446949.032;446.253;502.616;396.520;526.495;481.755;519.156;498.891;508.502
5446949.040;439.398;493.228;389.516;515.580;475.012;501.908;480.525;494.160
5446949.048;443.868;496.767;390.038;510.812;476.316;488.348;468.642;487.641
5446949.056;437.833;488.348;384.338;498.407;476.949;475.645;457.093;488.497
5446949.064;400.320;456.385;348.091;464.320;429.936;441.223;421.591;457.838
5446949.072;396.967;445.843;353.269;454.150;439.622;436.567;416.972;449.456
5446949.080;406.243;452.213;371.672;458.956;457.168;437.535;420.995;444.427
5446949.088;417.940;462.383;387.989;465.251;468.604;444.539;430.718;449.903
5446949.096;438.504;476.465;414.327;475.422;490.807;461.675;447.035;465.736
5446949.104;416.674;448.972;400.506;444.166;475.943;439.845;426.210;441.708
5446949.112;396.632;428.148;387.914;420.734;463.724;425.801;412.017;428.893
5446949.120;399.016;429.451;398.457;420.921;470.877;439.025;424.758;441.745
5446949.128;366.271;392.795;376.105;382.997;443.645;412.725;399.128;416.785
5446949.136;340.268;360.869;360.422;348.873;423.901;390.373;376.515;403.300
5446949.144;335.760;351.109;363.924;337.102;420.026;393.502;378.788;406.317
5446949.152;332.966;347.979;366.643;333.488;413.842;388.324;369.661;399.463
5446949.160;358.485;374.243;396.296;357.218;435.263;401.996;386.201;415.444
5446949.168;366.829;384.450;407.435;368.357;436.343;406.131;395.551;415.631
5446949.176;344.850;360.832;393.540;345.670;411.868;380.464;369.214;391.714
5446949.184;354.052;367.835;407.696;351.369;415.966;386.685;374.541;399.649
5446949.192;352.971;370.368;408.553;348.873;414.215;381.246;368.766;394.322
5446949.200;400.059;420.846;459.589;400.059;457.354;418.685;411.980;425.018
5446949.208;430.793;452.101;496.209;434.630;490.993;452.474;447.817;462.346
5446949.265;390.187;414.401;458.248;399.239;449.680;418.052;411.458;429.861
5446949.273;380.464;405.163;443.012;385.642;432.394;402.629;395.998;419.952
5446949.281;392.981;413.284;464.395;392.124;435.375;409.856;405.423;425.726
5446949.289;387.132;407.137;462.271;382.587;429.936;410.117;406.392;429.638
5446949.297;378.788;402.816;452.548;382.662;417.456;401.027;398.457;419.542
5446949.305;395.253;424.497;460.744;406.615;421.554;416.189;414.662;433.065
5446949.313;402.406;433.512;467.822;410.154;420.921;412.315;412.762;429.340
5446949.321;393.279;421.256;466.220;397.228;412.799;397.712;396.669;421.628
5446949.329;392.869;418.276;468.828;398.792;413.619;395.253;394.173;424.907
5446949.337;402.629;428.967;485.480;403.114;438.765;384.934;386.164;416.264
5446949.345;403.821;430.010;484.735;401.102;436.455;376.403;377.893;403.486
5446949.353;456.125;482.164;538.342;447.482;487.790;426.359;430.234;450.909
5446949.361;440.143;464.581;526.607;419.207;473.298;405.982;411.868;429.451
5446949.369;423.007;441.037;515.617;394.434;461.936;386.238;391.006;412.874
5446949.377;441.112;458.471;534.356;411.980;483.952;400.394;402.965;430.942
5446949.385;468.865;489.205;559.799;433.885;507.943;418.387;416.413;458.732
5446949.393;448.041;470.467;544.749;404.790;489.727;391.416;388.995;428.148
5446949.401;439.435;458.770;538.528;393.316;484.027;381.730;382.066;417.382
5446949.409;418.089;432.506;518.188;365.749;465.401;371.002;371.858;408.702
5446949.417;427.663;440.888;526.384;372.082;480.935;389.777;388.883;427.291
5446949.425;443.123;457.615;530.519;391.863;488.497;410.378;410.900;442.192
5446949.433;372.082;386.424;465.214;321.753;412.650;343.844;343.360;374.392
5446949.441;348.538;364.557;448.823;299.104;393.279;317.432;316.463;347.048
5446949.449;374.429;396.185;468.940;335.425;417.009;342.801;344.366;369.474
5446949.478;424.348;447.445;511.594;391.677;458.136;393.987;397.302;417.270
5446949.486;419.803;442.155;504.851;385.903;451.915;400.618;406.913;421.889
5446949.494;436.641;457.726;530.034;401.624;479.706;429.749;435.151;451.766
5446949.502;370.368;384.748;463.389;330.470;416.562;367.500;367.090;398.010
5446949.510;402.220;415.556;496.954;360.012;447.929;391.826;388.212;422.373
5446949.518;407.472;429.451;499.785;372.902;449.829;391.789;391.006;424.087
5446949.526;381.880;408.776;464.544;355.914;407.957;371.039;374.094;406.355
5446949.534;409.074;431.612;491.850;379.905;431.873;399.239;403.151;432.171
5446949.542;351.444;371.039;429.414;325.404;371.486;345.707;350.215;372.678
5446949.550;333.339;350.662;410.117;302.568;351.816;334.717;341.721;365.116
5446949.558;315.644;333.525;398.979;282.936;351.779;316.240;323.057;354.424
5446949.566;304.915;316.091;386.536;266.358;337.027;307.374;312.775;349.656
5446949.574;409.931;417.083;483.207;377.521;431.687;415.929;426.285;444.353
5446949.582;406.355;429.153;470.690;389.814;431.798;416.301;419.952;443.719
5446949.590;427.626;452.064;495.650;418.499;444.651;429.526;433.177;448.935
5446949.598;390.820;415.593;451.170;383.258;394.396;400.655;405.721;415.370
5446949.606;405.721;430.234;462.048;402.965;404.604;427.067;436.418;438.616
5446949.614;390.932;402.704;453.442;373.572;407.398;397.228;414.625;417.083
5446949.622;366.904;368.468;435.747;336.170;392.608;355.951;372.566;384.226
5446949.630;356.361;353.754;420.958;322.759;385.903;348.166;363.588;375.882
5446949.638;385.679;390.373;453.889;346.303;411.123;386.350;404.678;409.745
5446949.646;403.710;408.217;476.353;358.485;432.134;414.364;434.071;425.577
5446949.654;354.126;358.075;436.530;313.930;403.151;370.257;387.393;384.860
5446949.662;359.975;370.406;431.016;310.503;406.355;379.533;394.546;389.442
5446949.730;339.262;352.077;411.309;285.767;379.570;361.316;369.549;363.514
5446949.738;265.129;283.681;347.868;220.500;312.924;302.121;303.276;305.958
5446949.746;300.966;310.764;376.776;247.993;344.180;336.953;335.388;337.102
5446949.754;354.648;362.508;429.153;296.757;398.420;379.086;377.856;380.985
5446949.762;319.555;329.949;399.053;257.194;373.535;337.511;340.641;347.234
5446949.770;302.233;314.489;386.685;235.289;358.783;318.438;326.708;331.402
5446949.778;310.950;322.461;394.285;244.528;366.755;323.839;335.462;344.478
5446949.786;299.849;317.432;376.627;243.001;353.791;309.609;325.553;328.757
5446949.794;293.218;316.054;367.053;238.568;338.592;291.727;311.360;312.105
5446949.802;262.223;281.744;340.454;203.960;303.015;259.057;279.434;284.761
5446949.810;303.462;328.869;381.730;252.090;346.899;309.348;331.700;334.382
5446949.818;324.622;353.195;403.635;273.697;362.173;323.541;348.724;349.432
5446949.826;289.083;317.916;365.749;235.885;309.758;277.422;302.978;309.609
5446949.834;309.311;336.058;386.275;254.512;341.311;288.077;312.850;325.292
5446949.842;318.587;342.578;385.642;261.925;344.329;292.063;315.048;331.998
5446949.850;328.422;354.089;389.442;275.262;345.409;304.803;326.373;347.160
5446949.858;322.871;351.258;386.089;277.199;335.202;304.431;325.739;345.558
5446949.866;347.607;376.888;403.635;308.231;347.532;322.983;345.521;363.998
5446949.874;312.254;339.672;372.604;270.493;317.879;283.681;309.609;323.467
5446949.882;298.880;325.292;361.688;260.212;304.505;270.084;296.868;308.640
5446949.890;319.108;350.997;371.896;295.080;314.340;300.072;326.708;336.468
5446949.898;338.219;372.827;392.273;318.550;334.196;321.418;349.283;359.155
5446949.906;360.422;381.805;416.897;326.708;352.263;320.971;348.762;362.024
5446949.914;352.003;368.133;420.399;313.781;347.532;312.477;339.039;353.567
5446949.954;339.709;353.344;414.811;299.439;349.395;299.960;327.304;337.437
5446949.962;346.564;360.012;420.176;301.711;363.216;305.809;331.402;345.707
5446949.970;333.153;345.856;406.541;282.601;351.146;292.547;318.252;330.433
5446949.978;326.633;335.649;402.182;269.674;342.391;281.148;307.597;317.283
5446949.986;323.802;327.639;403.784;262.521;340.752;280.701;307.076;317.693
5446949.994;303.313;308.976;382.140;247.881;315.644;263.080;288.449;299.290
5446950.002;313.632;314.787;394.620;251.792;327.714;268.668;292.510;307.560
5446950.010;313.483;308.231;396.222;240.952;326.335;270.456;295.416;308.715
5446950.018;329.874;323.430;414.401;259.429;335.723;284.128;308.715;316.426
5446950.026;328.682;325.218;409.782;266.992;323.728;273.138;296.459;296.980
5446950.034;339.039;339.635;414.401;285.283;339.188;293.851;318.177;314.936
5446950.042;315.532;312.217;401.102;260.696;316.054;270.531;294.372;296.310
5446950.050;326.000;323.057;418.015;272.766;320.561;275.522;301.339;303.090
5446950.058;314.228;312.962;400.878;264.011;304.021;272.654;298.023;301.599
5446950.066;305.250;304.319;387.207;259.615;288.747;272.654;298.284;295.825
5446950.074;308.715;307.709;387.952;267.811;283.383;282.153;310.391;298.470
5446950.082;313.148;311.211;390.820;271.387;282.302;297.762;324.734;309.348
5446950.090;294.931;288.002;370.592;243.559;263.192;271.983;289.828;292.659
5446950.098;241.511;235.066;316.501;192.486;208.877;214.986;230.409;244.863
5446950.106;183.880;178.739;259.876;136.346;146.478;146.925;162.683;180.155
5446950.114;285.543;284.053;359.043;242.926;239.052;242.889;262.074;269.003
5446950.122;383.444;383.854;456.572;347.346;328.459;340.715;366.233;358.410
5446950.130;372.194;374.690;442.192;342.540;306.517;328.422;355.728;350.513
5446950.138;337.437;339.411;406.131;309.460;273.511;283.048;309.758;307.485
5446950.095;343.844;345.670;414.141;321.977;275.075;288.896;316.314;311.024
5446950.103;348.054;353.716;415.184;334.196;273.474;294.261;320.449;312.626
5446950.111;337.139;346.042;401.996;328.608;267.029;292.175;318.363;312.254
5446950.119;324.249;333.451;383.258;313.930;243.708;283.122;307.411;305.809
5446950.127;325.218;333.786;386.499;314.899;249.259;286.587;307.411;308.007
5446950.135;304.766;314.601;365.004;296.049;229.068;274.740;294.782;295.974
5446950.143;276.156;287.257;335.351;271.611;203.252;253.990;272.878;281.818
5446950.151;239.238;248.700;297.613;230.744;168.718;205.748;227.019;232.719
5446950.159;241.064;250.675;300.743;230.186;171.065;203.550;226.982;224.896
5446950.167;312.589;321.195;373.572;298.098;253.655;264.607;283.457;284.649
5446950.175;320.040;326.596;377.260;297.576;264.160;274.181;292.175;292.435
5446950.183;354.722;360.832;413.321;326.708;297.651;312.589;329.763;327.714
5446950.191;338.405;345.260;398.979;306.480;284.202;302.382;316.687;318.475
5446950.199;317.916;327.937;372.529;292.845;264.905;285.506;296.123;304.990
5446950.207;302.568;316.277;356.063;284.538;253.022;271.536;281.706;289.492
5446950.215;298.023;313.595;347.383;278.056;245.757;264.198;272.132;281.036
5446950.223;304.729;323.355;344.478;288.151;245.869;273.064;280.775;285.842
5446950.231;301.972;325.255;334.829;293.218;244.454;275.448;282.675;287.555
5446950.239;276.789;302.531;310.987;272.579;223.406;253.543;259.802;268.631
5446950.247;271.015;298.284;298.358;271.723;217.855;257.529;258.908;273.623
5446950.255;266.097;298.768;282.042;271.499;214.167;258.535;259.727;271.536
5446950.263;234.246;268.556;246.651;241.511;183.657;232.384;233.725;242.889
5446950.271;291.802;327.975;297.762;302.829;231.154;285.543;284.426;297.278
5446950.279;347.905;389.665;346.191;365.451;280.999;341.460;343.733;352.748
5446950.225;302.009;345.297;292.659;323.094;246.987;303.127;303.946;310.652
5446950.233;267.848;307.821;258.610;290.386;225.529;284.873;280.738;292.659
5446950.241;253.879;292.510;244.230;282.414;209.101;300.743;293.627;300.892
5446950.249;242.591;289.269;224.672;282.191;197.254;302.643;290.759;298.135
5446950.257;214.204;264.458;187.308;258.014;165.962;274.293;264.123;268.482
5446950.265;248.961;297.837;215.992;291.727;209.697;297.613;294.261;288.524
5446950.273;277.087;329.949;239.648;321.642;237.040;314.340;316.091;307.448
5446950.281;263.453;319.555;222.772;314.675;222.139;298.657;300.594;295.229
5446950.289;246.651;306.480;202.432;304.133;199.005;288.226;288.412;286.661
5446950.297;240.095;303.462;194.460;306.331;200.048;294.372;292.212;295.751
5446950.305;240.691;303.835;192.337;311.472;193.119;304.431;304.542;292.920
5446950.313;229.962;290.833;183.992;302.382;188.276;302.903;305.586;283.159
5446950.321;211.745;278.912;163.205;292.622;175.759;291.765;290.833;271.015
5446950.329;199.340;268.705;145.435;282.712;160.672;278.428;271.350;263.862
5446950.337;211.857;280.067;147.410;296.906;168.309;281.595;270.382;273.287
5446950.345;159.480;225.455;90.264;236.444;115.484;219.159;205.263;211.708
5446950.353;224.933;290.051;152.476;296.161;183.024;276.119;262.335;268.295
5446950.361;310.875;376.850;235.811;385.977;260.584;355.542;345.409;341.088
5446950.369;239.685;303.127;165.552;314.787;193.194;284.649;275.113;272.691
5446950.377;221.804;279.434;144.653;292.100;168.085;262.931;255.965;252.388
5446950.385;260.584;316.538;186.786;332.966;201.538;307.038;302.643;296.608
5446950.393;287.890;344.962;216.551;361.539;226.460;338.629;335.984;329.353
5446950.401;277.869;326.484;212.006;344.031;211.522;307.001;304.766;294.968
5446950.409;283.271;325.441;224.821;337.884;216.924;285.730;283.197;277.273
5446950.421;276.417;314.079;225.455;323.094;210.665;274.889;271.276;269.525
5446950.429;296.123;327.490;251.755;334.717;227.243;290.684;285.618;285.730
5446950.437;307.709;334.010;266.097;342.317;228.062;299.923;294.968;292.435
5446950.445;303.276;326.335;262.409;338.666;215.992;290.573;288.114;283.383
5446950.453;299.774;324.734;262.074;338.331;209.697;294.819;294.708;285.134
5446950.461;306.740;328.086;277.348;345.968;217.073;298.358;298.880;290.647
5446950.469;305.846;322.275;287.965;342.205;213.943;299.513;301.376;291.876
5446950.477;319.146;334.829;302.978;355.616;221.469;308.491;312.254;297.241
5446950.485;322.163;338.331;305.288;361.875;216.812;301.078;307.560;289.008
5446950.493;312.701;328.012;297.204;352.114;200.011;286.102;296.757;272.468
5446950.501;326.484;338.629;309.870;359.863;212.155;295.453;307.336;283.532
5446950.509;342.056;348.724;334.494;369.847;224.933;299.029;309.199;288.337
5446950.517;358.447;359.975;354.536;379.048;231.937;302.866;313.595;293.739
5446950.525;365.749;364.073;362.210;384.152;228.770;308.007;318.885;301.078
5446950.533;374.317;373.274;376.590;395.812;233.427;316.948;328.459;309.907
5446950.541;398.234;399.873;400.469;421.479;256.710;332.855;346.750;330.582
5446950.549;387.281;388.362;389.777;408.217;243.857;312.477;326.894;314.787
5446950.557;366.941;367.239;368.729;385.009;212.714;285.096;301.152;285.320
5446950.565;369.772;369.735;370.406;389.442;208.616;283.830;303.015;280.589
5446950.573;389.814;388.287;391.155;408.106;228.733;298.135;317.357;291.727
5446950.581;374.876;375.472;375.435;392.795;209.585;284.910;301.488;286.922
5446950.589;392.199;394.173;392.757;409.856;230.521;307.225;321.493;314.191
5446950.597;419.095;417.940;429.079;429.675;261.292;316.575;335.313;315.048
5446950.605;410.713;408.441;417.791;420.585;245.571;300.892;318.326;297.874
5446950.615;389.665;386.350;395.030;399.798;221.170;290.498;311.919;287.928
5446950.623;360.049;356.548;367.351;366.978;191.331;255.182;275.522;266.172
5446950.631;394.918;395.849;403.672;407.733;230.707;275.820;293.180;295.378
5446950.639;392.348;392.683;396.185;400.767;226.535;266.172;290.051;276.268
5446950.647;383.593;383.332;389.479;389.852;218.302;271.536;295.602;280.477
5446950.655;402.667;404.082;407.174;412.427;235.327;304.319;329.241;308.901
5446950.663;379.086;381.321;382.252;389.144;216.067;289.530;312.254;299.364
5446950.671;359.043;363.253;357.367;371.188;193.529;280.589;301.786;291.616
5446950.679;348.277;350.811;346.936;357.702;179.783;270.680;292.324;285.208
5446950.687;348.128;351.742;348.352;360.608;184.067;270.642;293.590;283.942
5446950.695;368.170;374.131;365.265;385.717;201.464;288.971;312.440;299.066
5446950.703;393.577;401.475;386.536;406.355;226.907;284.426;310.317;291.951
5446950.711;406.653;415.035;404.231;417.083;236.630;272.989;298.694;273.772
5446950.719;428.371;436.679;414.029;433.661;246.391;285.096;308.789;290.573
5446950.727;407.621;419.989;389.554;418.685;226.684;255.331;275.783;264.905
5446950.735;389.740;402.629;367.090;404.604;207.648;248.663;264.831;267.476
5446950.743;403.561;418.946;377.148;421.815;223.815;277.907;294.149;293.329
5446950.751;396.259;412.427;368.170;420.697;222.996;284.724;302.717;290.237
5446950.759;377.595;396.371;350.028;406.764;209.659;269.823;291.578;277.273
5446950.767;383.556;400.953;347.607;413.917;216.067;282.004;304.952;292.473
5446950.775;371.449;389.293;327.900;403.523;206.530;280.477;301.674;294.670
5446950.783;376.999;392.683;329.614;405.423;212.155;275.113;299.849;279.471
5446950.791;369.959;386.350;316.016;401.549;206.083;269.487;295.490;268.109
5446950.799;364.296;380.874;304.580;394.359;206.344;267.550;289.418;273.250
5446950.826;314.787;328.869;251.979;342.168;162.572;236.444;252.984;254.661
5446950.834;327.379;339.039;259.578;355.095;174.195;255.778;273.064;259.727
5446950.842;401.884;413.209;330.061;429.638;252.426;326.037;336.915;321.679
5446950.850;349.618;358.187;277.720;378.415;204.556;277.758;285.208;277.087
5446950.858;338.294;346.154;262.782;364.296;192.449;256.896;265.203;258.945
5446950.866;377.707;385.642;299.364;411.570;236.519;302.009;314.414;300.109
5446950.874;377.633;380.985;297.539;408.962;240.617;303.537;320.338;299.588
5446950.882;358.149;359.267;279.285;385.232;219.494;278.838;298.731;274.777
5446950.890;361.986;361.986;280.179;392.795;226.423;289.679;306.480;286.922
5446950.898;361.204;358.634;280.030;388.585;230.744;290.982;304.207;289.492
5446950.906;342.131;338.294;258.908;368.059;214.130;270.009;282.377;267.364
5446950.914;347.197;343.807;262.298;374.541;218.675;281.036;296.831;273.027
5446950.922;335.090;333.190;254.773;361.428;215.396;260.621;274.703;256.673
5446950.930;322.759;322.051;243.820;352.450;198.968;255.145;267.588;247.024
5446950.938;321.828;321.157;244.342;351.518;196.099;263.080;273.995;251.271
5446950.946;315.905;318.810;242.069;349.991;195.131;264.905;274.740;241.324
5446950.954;327.043;334.233;253.916;371.039;208.914;294.857;298.768;260.100
5446950.962;360.347;370.443;289.455;403.970;246.949;328.012;323.541;294.857
5446950.970;368.245;379.272;299.253;408.404;257.120;335.649;326.857;297.949
5446950.978;377.521;387.765;299.700;409.335;263.155;333.674;324.361;301.599
5446950.986;379.197;387.132;298.545;407.882;262.149;320.151;312.887;298.247
5446950.994;374.317;380.464;295.974;398.643;251.941;301.599;298.917;284.836
5446951.002;371.449;380.017;289.194;396.408;255.033;283.495;282.675;271.536
5446951.010;369.884;382.401;288.375;401.810;262.819;278.987;280.179;269.301
5446951.018;358.075;370.145;270.531;389.740;248.961;262.223;263.229;258.051
5446951.026;350.885;364.333;261.515;385.605;238.754;261.441;263.378;251.271
5446951.034;346.825;361.614;258.461;384.413;240.840;259.429;261.851;251.383
5446951.042;368.282;380.836;280.477;397.041;264.384;256.971;260.063;250.489
5446951.035;378.899;392.385;287.592;406.802;273.362;263.490;266.992;255.704
5446951.043;369.847;383.221;271.834;396.110;268.631;250.041;253.953;246.577
5446951.051;377.074;390.150;277.348;404.231;278.763;262.484;267.178;258.386
5446951.059;372.156;385.083;274.256;400.431;270.642;263.117;269.562;257.641
5446951.067;358.038;370.741;255.518;385.307;257.976;251.308;259.578;249.892
5446951.075;343.956;356.585;240.430;377.186;245.832;248.104;254.959;249.557
5446951.083;357.740;366.606;248.216;388.175;258.237;257.120;264.905;261.031
5446951.091;338.368;347.011;225.268;369.921;234.768;241.287;249.110;238.828
5446951.099;336.207;349.879;224.113;374.392;234.805;252.612;259.466;244.565
5446951.107;350.550;362.694;238.195;387.952;249.185;270.046;275.634;261.776
5446951.115;354.536;362.322;242.777;389.591;255.480;284.836;286.810;276.864
5446951.123;325.963;332.668;211.820;360.832;224.933;264.607;266.694;252.426
5446951.131;314.824;321.493;199.750;355.691;206.381;262.484;262.558;250.079
5446951.139;314.824;320.524;203.103;359.528;211.708;269.599;267.923;258.051
5446951.147;312.626;312.440;203.401;349.842;213.459;263.676;263.341;257.678
5446951.155;304.580;301.488;203.326;342.429;212.640;261.664;260.770;253.096
5446951.163;294.708;288.263;195.466;328.310;202.432;246.167;249.632;237.860
5446951.171;291.578;282.526;193.082;322.759;193.492;240.356;248.551;229.403
5446951.179;293.441;282.563;196.695;325.218;192.933;247.471;255.108;238.046
5446951.187;292.994;281.781;197.031;325.181;183.880;243.112;249.334;236.630
5446951.195;291.988;279.807;199.266;326.596;184.923;247.471;252.612;232.197
5446951.203;283.644;266.656;192.486;313.930;183.173;243.150;250.973;227.131
5446951.211;268.742;247.620;181.831;294.000;174.008;219.382;222.400;211.932
5446951.219;270.195;246.949;191.592;296.645;167.005;220.388;222.512;213.422
5446951.170;275.038;250.787;199.564;300.705;170.767;223.145;231.154;214.428
5446951.178;288.747;262.186;217.482;316.538;192.821;244.975;255.369;226.833
5446951.186;284.016;255.145;216.141;309.758;188.351;235.252;244.677;221.394
5446951.194;284.351;253.916;218.749;311.062;182.651;233.874;243.038;223.443
5446951.202;277.720;245.236;216.924;303.276;180.267;235.066;243.969;224.411
5446951.210;274.554;239.722;216.700;293.292;179.298;238.866;246.279;231.676
5446951.218;263.862;231.378;204.667;288.337;163.987;238.381;244.603;232.086
5446951.226;269.860;239.015;209.771;296.608;171.810;223.927;232.421;219.047
5446951.234;252.426;221.618;193.715;281.967;153.147;193.827;205.711;186.972
5446951.242;222.661;190.623;165.179;253.730;121.184;160.448;169.650;160.523
5446951.250;240.244;209.324;179.559;269.413;135.489;177.883;191.331;174.865
5446951.258;304.393;274.740;243.187;335.425;199.489;257.529;271.909;246.987
5446951.266;302.531;271.872;242.367;327.267;197.142;254.363;267.327;236.146
5446951.274;291.988;261.776;230.819;318.587;184.104;248.328;258.163;227.801
5446951.282;272.952;243.336;210.702;303.984;166.930;245.646;254.288;224.747
5446951.290;265.911;238.977;202.917;297.800;166.260;241.809;251.308;225.268
5446951.298;273.958;243.634;208.430;303.537;166.558;240.095;243.783;223.853
5446951.306;260.919;230.782;199.936;291.206;158.139;224.300;229.701;211.745
5446951.314;255.890;227.727;190.288;289.641;158.623;217.222;223.368;204.891
5446951.322;249.185;222.586;179.932;280.403;150.464;202.954;209.287;192.449
5446951.330;216.216;191.554;141.114;246.204;112.355;178.069;184.961;166.260
5446951.338;196.397;174.977;114.441;233.166;92.909;158.101;167.191;134.781
5446951.346;237.152;215.024;154.860;269.637;129.566;190.288;197.887;164.434
5446951.354;241.883;220.500;159.107;270.158;130.758;199.415;201.985;175.163
5446951.335;231.043;209.212;141.487;253.655;128.448;179.745;181.235;157.245
5446951.343;264.496;242.330;170.507;283.644;164.174;203.550;206.828;186.078
5446951.351;254.922;236.742;160.746;280.887;157.431;213.385;212.267;197.329
5446951.359;242.144;222.363;141.338;267.960;142.939;197.031;196.770;179.224
5446951.367;280.887;263.751;176.169;318.512;177.100;235.960;238.940;213.385
5446951.375;282.936;266.582;175.871;323.616;188.500;255.890;257.008;238.977
5446951.383;220.500;203.140;111.572;257.604;131.018;180.304;176.393;161.156
5446951.391;144.430;125.095;45.709;180.379;61.430;106.618;97.342;86.464
5446951.399;200.160;179.969;99.875;233.501;119.992;154.264;151.247;130.832
5446951.407;259.839;244.305;156.611;299.849;176.691;222.214;221.729;194.237
5446951.415;253.171;239.126;153.258;294.447;172.220;224.337;223.219;196.360
5446951.423;218.451;204.369;117.756;253.432;142.902;190.213;187.419;164.956
5446951.431;201.017;187.792;101.067;236.407;131.279;187.345;184.029;157.133
5446951.439;189.282;180.677;90.227;228.398;122.935;177.734;179.447;153.296
5446951.447;171.810;167.973;74.916;216.998;110.604;168.122;171.326;144.355
5446951.455;148.714;148.267;52.378;197.515;88.997;166.334;167.787;144.653
5446951.463;131.615;134.856;36.396;182.614;74.431;163.019;164.211;139.177
5446951.471;138.432;147.596;45.560;204.071;85.905;194.050;191.592;154.264
5446951.479;146.143;159.368;53.272;215.136;96.634;196.882;193.827;154.488
5446951.487;138.097;152.104;44.256;205.524;89.481;189.170;180.751;155.717
5446951.495;140.890;155.605;43.213;202.283;87.768;170.283;160.858;140.630
5446951.503;162.572;178.590;64.932;215.247;114.515;161.268;151.545;141.747
5446951.511;160.336;179.447;62.548;212.081;115.000;164.993;151.135;147.820
5446951.519;148.863;167.191;47.684;194.237;103.153;147.820;135.154;133.663
5446951.559;150.353;170.954;49.099;197.962;106.357;152.215;137.873;137.500
5446951.567;140.034;164.919;40.978;190.064;98.906;142.232;128.336;127.591
5446951.575;147.149;174.828;49.472;193.790;105.500;142.045;129.789;132.434
5446951.583;141.710;172.704;42.059;192.858;96.448;149.906;134.744;139.028
5446951.591;127.070;158.958;28.349;177.212;86.427;133.291;115.260;127.330
5446951.599;135.042;166.520;37.104;183.657;98.608;138.022;118.911;128.783
5446951.607;142.902;173.524;47.572;190.958;100.695;157.841;137.724;145.100
5446951.615;138.208;165.515;47.423;178.851;101.402;147.559;129.454;137.985
5446951.623;123.754;150.613;33.416;165.142;92.126;146.106;127.852;129.119
5446951.631;149.757;177.510;66.608;190.362;112.876;166.856;149.235;151.284
5446951.639;161.640;189.394;81.211;205.189;127.293;180.192;162.236;156.760
5446951.647;153.705;177.771;77.486;192.635;128.858;176.840;156.686;152.960
5446951.655;146.516;164.881;69.626;173.636;114.441;153.482;135.750;139.177
5446951.663;140.332;157.282;66.869;172.630;109.114;151.433;134.520;133.775
5446951.671;151.657;167.266;81.025;183.061;123.978;149.272;136.532;139.289
5446951.679;171.475;183.508;104.308;202.581;139.698;165.924;156.797;157.915
5446951.687;173.934;182.539;111.572;204.891;141.971;174.828;167.526;164.770
5446951.695;152.029;156.090;92.089;175.312;119.433;145.175;140.071;136.197
5446951.703;136.308;141.375;77.523;164.099;99.167;141.673;137.798;125.915
5446951.711;122.637;128.038;64.410;148.378;83.558;119.694;119.507;112.727
5446951.719;131.167;133.775;79.721;155.158;85.980;133.887;135.303;126.436
5446951.727;150.539;147.298;103.191;169.612;110.939;148.527;148.900;140.779
5446951.735;171.699;167.228;127.107;184.029;133.961;148.006;150.055;145.286
5446951.743;179.298;170.469;132.360;187.457;132.434;157.915;160.672;151.508
5446951.681;200.681;187.308;144.579;198.595;142.008;157.245;162.870;155.047
5446951.689;180.230;168.197;137.687;175.610;117.309;125.729;132.807;122.003
5446951.697;167.005;150.502;121.929;157.990;96.373;109.933;116.266;109.561
5446951.705;171.624;147.931;125.132;154.711;99.987;105.500;112.206;110.045
5446951.713;160.299;136.234;123.791;147.521;93.021;108.369;114.404;107.363
5446951.721;156.723;132.099;122.003;142.828;88.364;99.353;104.383;106.469
5446951.729;169.836;141.822;138.804;151.768;106.283;121.631;126.064;131.838
5446951.737;139.400;111.423;112.131;125.878;78.641;97.342;106.916;96.187
5446951.745;119.843;88.885;96.112;98.161;59.269;56.252;71.004;53.607
5446951.753;128.113;96.150;107.288;104.867;65.677;65.677;83.707;53.719
5446951.761;125.356;94.697;102.893;99.279;61.132;56.103;79.460;52.489
5446951.769;142.492;112.690;123.344;117.719;81.360;83.148;103.824;85.533
5446951.777;160.448;130.050;147.671;139.363;105.277;110.902;128.858;111.051
5446951.785;150.166;118.576;134.297;125.654;91.046;91.679;111.349;104.718
5446951.793;152.849;117.794;141.375;124.834;93.505;101.440;121.593;115.335
5446951.801;156.760;120.997;142.120;127.219;96.634;89.221;110.045;104.979
5446951.809;139.028;103.191;127.591;110.231;81.472;81.025;100.955;97.416
5446951.817;130.348;92.797;119.619;99.540;75.474;75.251;95.330;89.481
5446951.825;129.007;92.275;114.255;96.522;73.835;62.995;84.192;83.596
5446951.833;114.143;79.125;101.030;87.842;58.226;53.532;74.580;67.428
5446951.841;134.744;98.534;121.742;105.016;83.260;65.155;91.381;77.486
5446951.849;123.754;88.513;110.827;93.021;74.990;63.479;89.295;78.045
5446951.857;107.102;72.606;92.834;78.231;57.705;53.942;78.864;67.949
5446951.865;106.618;69.290;94.622;72.457;61.430;44.182;70.520;60.089
5446951.891;124.238;86.091;111.684;90.934;71.004;84.937;108.294;97.901
5446951.899;153.892;117.831;139.922;124.983;102.744;107.586;132.695;118.315
5446951.907;151.806;118.986;140.741;128.523;107.288;112.206;139.400;122.152
5446951.915;126.213;89.630;110.902;100.322;77.263;87.991;114.255;100.806
5446951.923;124.760;84.452;108.704;94.734;86.911;72.680;102.557;84.303
5446951.931;98.869;62.846;93.803;75.772;59.754;68.583;94.809;80.578
5446951.939;69.700;32.037;65.900;44.033;32.112;37.886;63.851;50.701
5446951.947;100.993;60.946;92.909;74.767;63.404;77.337;103.712;86.576
5446951.955;78.455;40.792;71.786;57.817;46.492;66.385;90.525;80.764
5446951.963;82.105;42.617;79.125;56.215;61.691;57.630;83.447;80.280
5446951.971;72.233;27.977;71.414;37.178;48.503;35.428;62.399;50.738
5446951.979;98.832;54.874;95.069;57.295;71.228;45.896;76.108;59.791
5446951.987;146.031;99.763;147.559;96.671;120.290;74.096;101.030;91.232
5446951.995;192.858;144.280;200.756;138.618;167.936;106.879;129.007;120.662
5446952.003;140.294;90.301;147.857;87.917;113.621;61.020;80.019;79.423
5446952.011;97.118;48.988;104.606;57.220;73.761;46.641;62.175;59.307
5446952.019;79.758;27.083;88.103;40.904;61.058;38.743;51.260;46.343
5446952.027;106.879;51.036;113.882;64.224;83.148;70.557;80.168;75.363
5446952.035;99.204;43.102;102.781;59.865;74.655;70.184;75.214;75.623
5446952.043;97.044;40.010;98.757;61.877;73.351;71.377;77.635;71.339
5446952.051;92.015;34.980;93.132;64.969;67.055;77.523;79.498;71.302
5446952.059;57.854;1.304;60.163;32.112;35.912;40.047;45.598;33.453
5446952.067;89.444;32.410;93.393;63.814;72.084;72.084;78.864;56.140
5446952.075;87.619;31.106;92.126;63.553;64.671;87.619;88.103;66.124
5446952.058;96.262;41.164;102.408;75.139;78.827;118.017;109.784;88.178
5446952.066;88.215;34.645;97.677;76.517;77.598;148.006;128.672;105.426
5446952.074;59.307;9.164;68.098;55.060;47.684;128.001;98.757;84.043
5446952.082;31.851;-17.397;39.525;23.358;22.165;99.465;67.279;54.054
5446952.090;41.798;-9.164;47.795;22.054;34.980;91.903;61.579;55.358
5446952.098;79.572;28.610;82.962;55.470;69.812;109.598;82.813;83.968
5446952.106;101.998;52.676;104.718;80.056;97.528;133.328;108.220;106.692
5446952.114;121.370;71.898;122.450;99.428;120.886;139.996;118.017;117.943
5446952.122;102.483;55.283;99.950;86.725;103.340;123.493;106.804;103.116
5446952.130;94.920;50.552;91.642;83.260;93.654;113.286;100.955;93.542
5446952.138;82.292;37.700;74.208;68.881;78.343;85.942;78.306;71.041
5446952.146;83.596;41.835;69.477;77.672;83.372;91.083;83.111;79.423
5446952.154;85.272;48.727;69.253;83.782;84.117;89.258;82.813;81.360
5446952.162;75.400;40.457;58.785;74.953;73.574;85.048;80.280;77.635
5446952.170;40.829;8.009;24.028;43.511;48.690;60.536;55.842;54.240
5446952.178;69.179;37.327;52.266;67.130;82.292;63.144;58.897;61.989
5446952.186;48.801;18.142;25.705;45.896;55.544;31.404;29.728;28.946
5446952.194;79.647;51.074;50.440;73.351;80.913;44.070;45.747;49.770
5446952.202;67.651;41.947;34.161;60.983;64.559;23.060;28.610;27.902
5446952.210;39.674;13.672;4.210;31.628;34.943;-6.892;-1.639;-1.937
5446952.218;50.925;23.320;11.958;39.712;45.560;2.570;7.227;10.990
5446952.226;35.129;12.740;-9.984;30.398;23.767;-6.743;-3.427;-1.453
5446952.234;24.885;2.123;-24.624;21.793;15.348;-8.196;-5.774;4.396
5446952.242;58.785;36.843;4.582;59.716;52.229;36.396;37.886;38.259
5446952.208;40.904;21.718;-10.245;45.188;36.433;23.656;22.911;20.266
5446952.216;25.034;5.215;-24.475;29.132;23.022;2.198;2.049;-0.969
5446952.224;10.431;-6.519;-42.021;24.773;10.170;0.969;3.539;-3.465
5446952.232;27.269;11.548;-27.418;44.554;24.326;16.987;17.695;16.987
5446952.240;22.613;6.855;-31.479;38.631;17.323;24.252;23.246;22.538
5446952.248;1.751;-14.715;-53.607;21.756;-6.743;19.185;14.678;16.876
5446952.256;-19.558;-38.706;-71.786;-0.037;-25.108;-8.047;-18.366;-8.345
5446952.264;11.884;-8.196;-40.531;32.075;3.166;30.659;17.099;27.157
5446952.272;19.819;-2.496;-31.888;39.935;11.697;30.100;19.744;32.075
5446952.280;8.829;-14.864;-40.792;30.920;-0.335;16.205;11.474;16.354
5446952.288;-10.729;-38.296;-57.071;7.376;-22.501;3.763;3.204;3.576
5446952.296;-4.284;-34.794;-48.168;11.437;-17.174;6.631;8.233;12.629
5446952.304;-2.794;-33.826;-46.380;17.062;-12.740;13.672;15.050;19.260
5446952.312;11.846;-18.664;-30.696;34.273;-4.768;24.438;27.679;27.679
5446952.320;22.501;-7.413;-19.334;47.758;-0.671;38.520;41.202;39.674
5446952.328;18.701;-12.480;-22.054;43.213;-0.298;33.267;35.167;31.702
5446952.336;13.784;-18.962;-25.183;37.029;-4.321;20.713;22.948;18.254
5446952.344;13.411;-18.626;-23.693;41.947;-9.015;25.965;29.281;21.420
5446952.352;28.536;-4.247;-8.568;54.240;6.221;37.961;46.864;38.370
5446952.360;12.666;-23.544;-23.358;38.818;-16.391;24.773;36.769;22.054
5446952.368;2.719;-33.081;-31.106;34.384;-26.152;15.870;30.100;13.672
5446952.376;16.317;-18.626;-14.789;47.386;-10.207;19.111;36.955;21.532
5446952.384;23.730;-8.978;-4.806;59.642;-14.007;32.820;50.589;27.381
5446952.392;10.990;-25.816;-18.217;42.357;-27.716;14.268;28.051;9.984
5446952.356;-13.784;-52.378;-40.792;17.323;-48.652;0.112;11.027;-2.570
5446952.364;-12.927;-48.801;-39.078;21.644;-56.326;20.787;27.120;17.732
5446952.372;-33.118;-72.680;-51.558;-3.800;-66.347;-0.298;5.774;1.006
5446952.380;-10.207;-51.893;-23.432;14.827;-42.655;10.431;21.197;7.115
5446952.388;0.484;-42.245;-9.798;17.174;-33.453;6.594;20.713;2.347
5446952.396;-13.113;-59.754;-18.924;-7.451;-40.345;-12.927;4.433;-19.483
5446952.404;-18.775;-70.557;-18.887;-17.881;-40.494;-18.738;1.006;-21.979
5446952.412;1.267;-52.378;3.986;-5.625;-20.675;-16.950;2.049;-12.107
5446952.420;17.770;-32.261;25.295;4.768;-1.267;-1.937;17.285;-2.198
5446952.428;5.029;-46.007;14.640;-7.637;-14.678;-14.305;8.009;-12.964
5446952.436;-7.115;-56.811;0.075;-13.150;-31.777;-11.921;5.923;-7.264
5446952.444;13.635;-34.645;23.432;13.411;-14.715;10.654;22.762;8.158
5446952.452;-5.290;-55.321;9.313;-7.525;-30.547;-11.884;2.608;-14.342
5446952.460;-24.177;-75.623;-4.359;-30.771;-46.454;-27.306;-9.649;-31.516
5446952.468;-23.134;-72.308;0.745;-27.418;-40.419;-33.155;-11.288;-36.024
5446952.476;-0.224;-47.982;18.477;-0.410;-26.189;-18.366;5.588;-22.203
5446952.484;52.452;4.955;69.179;53.830;15.162;28.424;53.681;16.801
5446952.492;73.686;27.940;89.668;78.715;33.155;50.813;74.245;33.826
5446952.500;40.308;-4.880;57.258;45.151;1.863;28.498;48.801;17.546
5446952.508;73.351;27.791;89.929;78.008;29.393;55.619;78.976;51.968
5446952.516;35.502;-8.084;51.484;44.592;-3.912;25.071;53.868;24.065
5446952.524;18.291;-25.667;32.037;29.877;-20.973;10.692;40.792;11.995
5446952.532;32.298;-14.156;41.984;39.525;-14.454;14.640;47.497;20.303
5446952.540;38.557;-6.817;47.572;45.933;-10.170;26.748;60.797;39.227
5446952.507;23.693;-21.681;29.914;31.069;-25.183;-25.630;14.938;-8.419
5446952.515;2.049;-42.059;3.017;8.531;-51.558;-66.124;-17.956;-54.538
5446952.523;14.529;-26.524;10.133;26.450;-49.397;-49.621;-1.118;-40.941
5446952.531;63.367;20.228;60.387;77.523;2.943;30.696;73.798;40.531
5446952.539;87.731;40.755;90.413;97.416;32.000;66.720;102.669;71.675
5446952.547;92.573;44.666;99.428;99.242;39.712;51.856;91.642;44.592
5446952.555;69.626;18.515;79.870;67.875;25.257;25.481;66.496;19.334
5446952.563;60.238;8.754;75.065;54.650;26.301;14.454;57.928;7.823
5446952.571;61.132;7.674;79.982;46.901;40.755;4.023;40.531;10.133
5446952.579;33.379;-20.638;60.089;15.199;24.214;-3.465;24.773;5.290
5446952.587;31.255;-23.171;62.920;11.921;31.628;7.786;35.688;15.348
5446952.595;0.559;-53.868;42.692;-28.200;6.743;-18.701;5.141;-10.952
5446952.603;7.562;-43.176;54.538;-21.383;22.948;-1.341;18.105;3.986
5446952.611;-26.897;-69.253;24.997;-41.276;-4.843;-33.528;-7.153;-35.278
5446952.619;-44.778;-75.288;9.686;-45.784;-18.217;-25.257;11.437;-35.278
5446952.627;-20.713;-40.159;28.573;-13.970;3.502;7.190;53.681;-11.846
5446952.635;-24.252;-36.433;14.976;-16.652;-1.676;7.562;55.507;-13.895
5446952.643;-28.759;-31.367;8.903;-19.968;-3.949;14.156;56.401;-4.396
5446952.651;-44.219;-34.198;-12.591;-33.379;-21.197;-11.176;28.051;-20.787
5446952.659;-64.149;-45.113;-40.047;-52.899;-41.239;-46.901;-11.288;-48.727
5446952.667;-69.365;-35.353;-54.464;-57.034;-46.045;-60.312;-32.783;-52.676
5446952.675;-57.928;2.608;-55.805;-42.617;-39.637;-56.960;-38.408;-41.947
5446952.683;-47.460;46.231;-53.421;-24.736;-33.416;-46.678;-31.851;-31.069
5446952.691;-16.764;93.319;-32.447;6.743;-13.374;-18.030;-5.066;-12.107
5446952.716;22.128;134.446;-5.364;48.652;16.056;2.310;11.921;-3.278
5446952.724;13.672;131.391;-15.274;42.878;11.623;-7.115;4.023;-15.460
5446952.732;-6.929;119.954;-41.611;25.220;-9.611;-18.328;-6.147;-30.100
5446952.740;6.072;145.100;-37.700;44.815;0.633;3.949;16.391;-7.339
5446952.748;35.614;189.245;-8.084;82.776;26.189;29.765;45.113;17.881
5446952.756;30.510;279.061;-15.907;87.991;19.222;31.069;46.641;20.787
5446952.764;40.829;609.755;-1.229;107.437;50.254;32.671;48.243;34.943
5446952.772;10.915;749.901;-31.739;85.272;28.908;-7.115;11.213;0.782
5446952.780;-13.933;746.138;-53.123;56.103;14.640;-27.940;-7.413;-15.460
5446952.788;19.222;778.958;-16.950;78.864;57.518;5.551;29.206;14.566
5446952.796;-8.941;747.293;-42.170;42.878;38.855;-13.672;8.196;0.373
5446952.804;-27.977;724.010;-54.762;11.139;27.940;-28.796;-10.207;-4.806
5446952.812;23.879;770.614;0.037;53.830;91.419;31.739;49.807;48.541
5446952.820;23.656;760.891;7.860;43.921;106.394;36.098;56.662;50.142
5446952.828;16.764;746.772;8.866;28.759;110.567;29.281;48.988;48.876
5446952.836;1.974;725.873;0.820;7.562;105.835;12.107;25.257;33.714
5446952.844;4.917;724.494;8.345;5.811;109.561;22.911;38.184;50.738
5446952.852;1.006;718.571;11.474;4.470;108.480;21.607;42.059;42.394
5446952.860;-3.502;713.468;12.033;4.619;98.534;16.429;39.786;34.757
5446952.868;-6.817;706.874;12.182;5.476;97.118;11.809;40.457;35.204
5446952.876;-4.806;707.619;17.770;16.280;99.018;14.789;42.468;37.327
5446952.884;-23.358;684.075;-5.811;-5.290;76.257;-2.794;20.377;20.862
5446952.892;-39.414;664.443;-12.256;-23.656;61.430;-15.758;4.359;9.276
5446952.900;-35.018;667.162;-2.459;-16.876;60.312;-1.006;17.844;27.604
5446952.925;-24.699;676.848;9.388;-3.651;65.230;17.062;39.302;36.955
5446952.933;-54.948;645.258;-18.552;-30.175;26.524;1.490;23.097;21.793
5446952.941;-55.470;644.512;-18.850;-32.447;31.330;2.645;26.375;26.859
5446952.949;-24.997;670.292;12.815;-2.943;54.576;29.504;55.954;53.383
5446952.957;-23.395;671.633;14.529;8.121;45.039;27.455;53.868;43.027
5446952.965;-41.053;647.753;-4.731;-11.884;20.936;7.078;31.404;27.306
5446952.973;-41.723;642.203;-0.782;-15.758;16.056;-1.527;20.526;19.185
5446952.981;-34.198;644.587;11.288;-14.789;19.111;-13.784;16.131;2.198
5446952.989;-30.436;645.705;19.707;-14.901;22.985;0.782;30.734;21.495
5446952.997;4.582;677.928;57.518;29.504;47.982;28.461;60.163;47.088
5446953.005;17.546;687.577;67.130;44.852;51.036;35.912;67.726;58.450
5446953.013;-16.689;650.324;38.818;11.176;14.193;16.019;46.641;44.331
5446953.021;-36.061;617.020;30.957;-23.507;9.425;-4.768;24.252;29.355
5446953.029;3.390;648.685;74.618;7.562;47.609;27.791;60.648;51.446
5446953.037;24.624;658.743;101.179;24.699;69.477;42.953;78.194;63.106
5446953.045;23.916;649.542;108.220;16.466;76.368;41.164;74.878;65.714
5446953.053;14.901;638.776;107.959;4.582;74.580;21.830;55.656;49.546
5446953.061;11.772;624.955;101.998;-10.096;69.439;15.534;45.486;35.875
5446953.069;-5.066;593.923;102.669;-34.906;60.648;14.305;33.118;33.751
5446953.077;-34.273;551.492;81.584;-69.588;43.362;7.488;13.150;21.793
5446953.085;-67.651;519.045;47.386;-105.388;9.164;-0.298;2.347;7.190
5446953.093;-1.751;587.367;118.166;-41.574;68.210;72.047;74.506;64.559
5446953.101;-13.262;571.460;110.231;-41.872;52.974;50.217;44.592;33.341
5446953.109;-74.245;507.943;48.503;-94.175;-7.674;-4.172;-9.872;-23.842
5446953.166;-55.805;526.868;62.548;-74.022;4.172;30.883;27.008;2.235
5446953.174;38.743;609.607;150.502;13.672;86.911;106.096;99.763;72.606
5446953.182;11.586;578.091;137.500;-8.009;62.957;85.123;75.810;52.303
5446953.190;-0.633;565.983;138.618;-16.540;47.572;74.878;61.132;47.162
5446953.198;-29.504;534.952;97.156;-44.107;19.260;41.574;25.183;13.188
5446953.206;-20.079;532.568;95.628;-44.107;18.924;47.199;33.826;22.426
5446953.214;-69.365;480.451;43.884;-100.583;-39.637;-5.066;-17.509;-26.710
5446953.222;-62.175;480.376;49.025;-88.401;-37.588;1.118;-17.062;-33.788
5446953.230;-75.325;467.561;44.480;-99.093;-51.819;2.719;-20.415;-44.927
5446953.238;-116.266;436.380;-1.416;-130.087;-96.411;-32.336;-57.630;-91.828
5446953.246;-107.400;449.829;16.727;-112.168;-89.966;-7.525;-40.755;-75.921
5446953.254;-89.407;456.013;26.301;-110.343;-80.168;-1.267;-39.488;-75.400
5446953.262;-50.180;494.458;53.123;-80.653;-44.294;24.885;-24.326;-43.362
5446953.270;-51.782;494.719;55.656;-81.845;-61.691;12.070;-35.986;-66.534
5446953.278;-90.785;452.846;15.348;-113.584;-94.697;-39.637;-86.315;-119.321
5446953.286;-73.500;466.742;29.318;-89.705;-69.439;-30.734;-76.145;-107.363
5446953.294;-66.757;475.310;25.667;-72.308;-68.992;-18.105;-60.648;-90.972
5446953.302;-45.635;488.125;38.929;-53.458;-51.670;0.671;-40.345;-66.981
5446953.310;-50.776;468.642;35.129;-69.700;-58.040;-16.131;-57.071;-76.294
