Timestamp,AFz,AF3,AF4,AF7,AF8,Pz,P3,P4,2024-05-08 12:06:52.267,fs=125
4755224.656;-31.404;-72.271;-116.304;-30.175;1833.886;-2.794;-27.493;4.210
4755224.664;-37.402;-73.723;-121.072;-29.579;1807.772;-8.605;-31.590;-0.484
4755224.672;-41.686;-79.274;-118.874;-34.980;1778.454;-10.729;-33.863;-3.874
4755224.680;-38.035;-78.790;-109.971;-39.153;1785.457;-8.456;-34.086;-1.043
4755224.688;-23.358;-71.712;-69.365;-36.620;1769.625;-2.086;-30.361;7.264
4755224.696;-47.199;-84.154;-116.117;-46.454;1661.181;-5.104;-33.453;5.625
4755224.704;-40.159;-75.959;-105.575;-37.290;1620.576;1.043;-26.003;7.339
4755224.712;-35.316;-76.480;-86.986;-40.047;1608.469;1.006;-27.306;6.035
4755224.720;-21.756;-64.708;-53.793;-33.192;1616.068;3.241;-26.673;10.505
4755224.728;-48.019;-81.621;-107.549;-49.099;1498.088;-14.938;-40.419;-9.574
4755224.736;-35.837;-74.059;-82.180;-43.027;1533.069;-11.697;-35.055;-5.588
4755224.744;-12.256;-49.397;-51.409;-19.595;1522.079;10.319;-13.374;13.597
4755224.752;-13.039;-48.913;-48.578;-20.005;1494.102;5.849;-18.515;10.431
4755224.760;-13.001;-50.217;-41.015;-23.879;1472.011;0.447;-22.799;5.364
4755224.768;-14.231;-51.185;-42.208;-23.581;1440.421;2.235;-21.085;3.204
4755224.776;-19.185;-52.005;-52.601;-22.314;1407.377;3.390;-20.899;5.737
4755224.784;-9.835;-45.411;-32.112;-19.781;1427.867;9.090;-18.477;11.846
4755224.792;0.931;-41.313;2.235;-18.030;1418.926;11.027;-19.521;10.803
4755224.800;-9.611;-47.423;-20.601;-22.836;1371.540;12.554;-18.068;11.325
4755224.808;-24.959;-57.220;-48.019;-30.585;1339.875;8.978;-20.303;7.302
4755224.816;-19.781;-56.103;-31.367;-31.255;1329.966;10.282;-20.750;9.164
4755224.824;-21.867;-56.848;-29.728;-33.528;1312.308;13.001;-19.670;13.225
4755224.832;-41.798;-72.233;-56.960;-47.535;1245.700;-4.396;-34.161;-8.717
4755224.840;-49.621;-78.678;-62.212;-55.805;1221.634;-9.872;-42.133;-13.635
4755224.851;-12.890;-49.993;-7.227;-33.416;1278.520;18.105;-12.591;12.740
4755224.859;-10.207;-53.570;12.815;-41.202;1256.615;28.014;-3.874;22.687
4755224.867;-30.547;-56.773;-39.190;-33.192;1198.016;23.656;-5.439;19.595
4755224.875;-13.597;-37.402;-23.432;-9.052;1167.320;11.735;-12.331;8.196
4755224.883;-14.305;-32.671;-33.714;-0.596;1122.653;9.723;-10.356;5.774
4755224.891;-5.215;-26.263;-21.234;11.213;1127.943;9.313;-7.823;0.447
4755224.899;-21.569;-33.863;-60.275;12.331;1050.681;11.437;-5.327;3.241
4755224.907;-30.249;-38.184;-70.333;9.649;1033.098;7.935;-11.288;6.594
4755224.915;-37.402;-46.603;-77.747;1.863;998.974;-9.499;-27.493;-7.972
4755224.923;-23.842;-41.798;-38.669;1.080;1035.966;-5.774;-24.028;-3.800
4755224.931;-57.295;-68.210;-96.187;-21.160;928.864;-21.234;-38.072;-23.097
4755224.939;-37.588;-50.515;-74.208;-3.725;961.386;0.782;-14.491;-4.098
4755224.947;-19.483;-33.379;-44.890;11.362;962.727;16.615;0.820;12.368
4755224.955;-32.596;-43.102;-66.645;6.407;935.458;14.566;-1.863;12.852
4755224.963;-26.710;-42.021;-47.013;4.135;946.522;11.772;-3.241;6.780
4755224.971;-40.717;-55.432;-67.838;-8.941;905.693;4.731;-12.442;-1.676
4755224.979;-39.972;-55.917;-60.163;-8.941;913.069;10.058;-14.417;2.645
4755224.987;-34.422;-52.266;-45.151;-7.488;904.985;15.646;-10.878;7.525
4755224.995;-38.259;-54.352;-48.727;-7.302;854.544;18.142;-10.505;12.740
4755225.003;-54.017;-67.838;-77.784;-21.569;817.515;10.207;-17.472;6.780
4755225.011;-52.042;-67.465;-71.488;-20.713;821.427;2.049;-19.856;-0.522
4755225.019;-45.970;-60.797;-64.857;-14.901;826.567;-2.645;-17.881;-4.172
4755225.027;-32.857;-51.558;-36.955;-8.792;842.847;-5.253;-16.466;-6.929
4755225.035;-40.196;-56.401;-50.291;-13.448;786.297;-5.327;-17.285;-7.674
4755225.060;-46.007;-58.264;-65.006;-14.007;742.935;-0.745;-11.958;-5.253
4755225.068;-44.368;-61.579;-59.754;-15.423;749.938;-3.055;-13.374;-7.227
4755225.076;-31.218;-51.111;-40.047;-7.041;764.057;3.763;-5.439;-0.112
4755225.084;-15.199;-32.894;-23.916;9.127;760.146;14.491;7.637;10.245
4755225.092;-12.070;-30.883;-20.042;13.821;749.864;13.672;7.004;9.723
4755225.100;-23.916;-43.213;-28.871;-0.745;723.936;13.448;2.161;8.754
4755225.108;-26.822;-44.182;-30.547;-1.229;694.767;11.921;-3.651;6.370
4755225.116;-8.829;-25.220;-12.517;18.924;677.668;7.115;-5.662;2.943
4755225.124;-0.633;-19.744;-6.706;23.805;649.616;7.823;-2.235;4.433
4755225.132;4.023;-19.930;-6.072;25.667;611.953;6.892;-1.043;2.906
4755225.140;1.676;-25.779;-4.545;17.583;556.149;5.625;-1.639;0.894
4755225.148;-5.327;-34.198;-6.557;8.717;481.159;5.811;-2.831;0.484
4755225.156;-9.798;-38.594;-4.843;2.570;388.995;8.382;-0.969;1.043
4755225.164;-8.047;-37.439;3.316;0.298;297.837;8.196;-0.857;-0.224
4755225.172;-4.061;-36.880;11.995;1.639;211.000;6.780;-1.900;-2.049
4755225.180;-6.147;-40.270;15.274;-3.316;92.089;2.421;-6.035;-4.917
4755225.188;-16.019;-52.974;10.990;-17.323;-56.475;-3.651;-17.509;-7.972
4755225.196;-24.326;-64.783;11.399;-31.069;-198.409;-5.551;-24.848;-8.531
4755225.204;-26.114;-67.055;14.864;-37.216;-347.570;2.868;-17.397;-0.373
4755225.212;-30.436;-72.829;16.838;-46.045;-465.326;4.955;-13.635;0.149
4755225.220;-31.851;-74.655;23.320;-50.217;-573.769;2.868;-11.548;-3.986
4755225.228;-19.409;-65.379;40.978;-41.574;-671.446;10.915;-0.671;3.427
4755225.236;-14.044;-61.840;48.578;-39.116;-768.192;12.256;1.863;4.284
4755225.244;-7.153;-61.095;54.613;-40.047;-873.618;9.499;-0.112;1.341
4755225.362;-10.878;-72.382;50.701;-51.185;-973.456;-1.639;-11.660;-8.047
4755225.370;-1.006;-65.863;63.553;-45.523;-1002.401;-0.298;-8.754;-4.955
4755225.378;-2.868;-69.849;65.044;-49.323;-1031.794;-3.502;-11.139;-6.072
4755225.386;-6.221;-74.506;66.906;-56.066;-1054.965;-0.410;-10.207;-3.576
4755225.394;-4.210;-73.165;70.818;-57.779;-1064.055;3.353;-7.749;-0.373
4755225.402;-13.411;-83.707;64.410;-68.583;-1079.887;-6.631;-17.062;-8.382
4755225.410;-15.497;-83.447;63.628;-69.216;-1093.112;-4.731;-16.019;-5.849
4755225.418;-16.950;-85.123;62.026;-72.643;-1107.603;7.451;-4.582;4.284
4755225.426;0.224;-74.469;87.060;-67.241;-1096.912;3.204;-7.004;-1.043
4755225.434;-0.559;-78.231;95.665;-77.561;-1092.181;-0.894;-11.362;-5.439
4755225.442;-7.115;-86.203;95.777;-92.313;-1089.908;2.868;-8.531;-2.421
4755225.450;-15.236;-94.511;97.007;-107.326;-1087.822;-1.714;-11.846;-5.402
4755225.458;-28.089;-108.667;95.740;-126.287;-1085.550;-8.568;-18.850;-9.984
4755225.466;-40.829;-121.929;94.287;-144.653;-1087.636;-15.311;-25.146;-14.938
4755225.474;-52.936;-133.291;89.556;-161.342;-1096.018;-16.540;-26.859;-16.913
4755225.482;-57.891;-136.159;89.258;-164.844;-1093.782;-12.331;-21.979;-13.448
4755225.490;-70.892;-143.684;79.982;-173.636;-1101.382;-9.388;-18.105;-10.468
4755225.498;-87.209;-158.288;66.683;-189.543;-1114.346;-20.973;-29.914;-22.314
4755225.506;-80.466;-153.892;78.343;-188.798;-1100.153;-22.426;-35.428;-24.140
4755225.514;-53.532;-126.585;109.673;-165.515;-1069.419;1.229;-15.162;-3.427
4755225.522;-49.286;-120.811;116.192;-159.033;-1065.023;-0.782;-18.552;-4.992
4755225.530;-51.297;-121.221;118.390;-162.013;-1062.155;-11.586;-30.138;-13.933
4755225.538;-51.185;-119.507;122.897;-161.640;-1058.206;-14.603;-31.441;-19.148
4755225.546;-56.811;-123.084;119.209;-164.099;-1064.837;-11.288;-25.518;-18.291
4755225.616;-67.428;-130.795;111.125;-173.524;-1086.593;-13.486;-29.355;-19.297
4755225.624;-68.098;-129.081;110.492;-172.444;-1108.125;-16.205;-32.037;-20.750
4755225.632;-50.552;-109.002;128.485;-154.264;-1096.092;-0.708;-14.864;-8.121
4755225.640;-45.821;-102.520;135.712;-148.602;-1086.779;5.364;-9.872;-5.215
4755225.648;-47.311;-100.955;134.297;-147.894;-1095.422;2.757;-9.947;-8.084
4755225.656;-45.560;-97.603;137.053;-146.553;-1111.664;3.353;-5.662;-5.625
4755225.664;-42.543;-94.920;141.189;-144.355;-1106.560;-0.708;-7.972;-6.557
4755225.672;-51.819;-100.769;132.248;-151.806;-1111.440;-9.313;-16.689;-12.442
4755225.680;-48.168;-93.095;135.973;-143.945;-1107.007;-9.052;-16.019;-12.740
4755225.688;-36.135;-81.360;151.247;-134.893;-1085.363;-1.639;-9.947;-7.264
4755225.696;-31.404;-77.821;160.374;-136.010;-1070.499;4.731;-5.439;-2.831
4755225.704;-33.453;-78.604;159.182;-139.661;-1075.715;5.700;-4.917;-2.570
4755225.712;-41.798;-83.596;153.445;-146.292;-1098.216;1.565;-10.096;-5.849
4755225.720;-39.712;-82.850;158.288;-147.931;-1091.808;5.215;-10.654;-1.974
4755225.728;-38.892;-77.821;159.219;-146.776;-1088.120;10.021;-6.631;2.459
4755225.736;-38.780;-72.084;166.222;-147.223;-1085.028;8.978;-6.557;0.633
4755225.744;-37.216;-68.434;171.363;-146.776;-1078.360;9.760;-5.178;-0.075
4755225.752;-34.086;-60.685;173.189;-142.269;-1073.368;12.927;0.261;2.123
4755225.760;-33.267;-58.711;173.859;-141.412;-1067.445;10.543;-1.527;-0.820
4755225.768;-37.253;-60.648;167.787;-145.324;-1070.127;8.605;-4.023;-3.129
4755225.776;-37.178;-55.544;166.036;-143.647;-1070.239;11.101;-2.570;-1.267
4755225.784;-36.098;-53.197;169.314;-143.684;-1059.547;9.574;-3.316;-2.533
4755225.792;-32.969;-47.274;172.295;-140.406;-1054.630;9.313;-0.186;-4.023
4755225.800;-32.894;-46.119;171.289;-141.114;-1051.798;10.133;0.298;-2.272
4755225.752;-35.204;-44.815;165.254;-140.183;-1054.928;9.872;-0.298;-2.794
4755225.760;-28.498;-38.892;173.934;-136.569;-1039.878;9.686;-1.490;-5.290
4755225.768;-30.063;-41.276;171.065;-138.991;-1036.413;1.192;-11.064;-13.970
4755225.776;-27.046;-36.210;172.742;-135.787;-1032.464;8.754;-4.359;-7.972
4755225.784;-24.103;-32.224;176.020;-131.428;-1022.741;8.717;-4.061;-7.302
4755225.792;-17.285;-23.991;183.471;-122.041;-1007.020;8.382;-4.098;-5.625
4755225.800;-22.762;-27.716;175.275;-126.287;-1012.832;4.284;-5.886;-8.009
4755225.808;-30.063;-36.210;168.942;-136.010;-1010.858;-2.943;-9.984;-12.591
4755225.816;-29.318;-34.273;170.916;-133.589;-1000.315;-2.608;-7.600;-12.517
4755225.824;-33.751;-37.886;164.881;-134.110;-1002.178;-2.421;-5.551;-12.964
4755225.832;-32.224;-40.345;165.664;-139.661;-995.211;-7.190;-10.654;-17.844
4755225.840;-28.573;-35.129;167.899;-133.887;-988.469;-8.494;-10.505;-19.148
4755225.848;-23.656;-27.157;171.326;-124.387;-981.018;-7.562;-7.786;-17.732
4755225.856;-18.217;-22.836;177.510;-122.711;-969.805;-5.253;-6.519;-14.976
4755225.864;-26.263;-32.112;166.930;-132.769;-975.840;-5.774;-8.307;-14.231
4755225.872;-26.003;-28.238;164.472;-126.064;-974.610;-1.676;-5.662;-10.245
4755225.880;-12.890;-18.477;180.490;-117.235;-949.018;-0.037;-4.806;-9.127
4755225.888;-11.921;-14.193;175.498;-109.822;-952.482;3.614;0.000;-7.562
4755225.896;-12.703;-15.534;175.983;-112.355;-949.688;1.229;-2.272;-11.586
4755225.904;-12.740;-15.236;175.051;-109.933;-944.771;-0.447;-3.502;-12.890
4755225.912;-17.695;-19.222;167.899;-113.994;-949.055;-1.118;-5.923;-14.380
4755225.920;-27.530;-29.691;159.070;-126.213;-947.490;-8.009;-14.156;-18.328
4755225.928;-28.163;-31.404;156.425;-122.897;-941.157;-9.462;-12.703;-17.583
4755225.936;-31.218;-32.298;149.570;-123.903;-943.393;-12.293;-13.523;-18.850
4755225.873;-31.926;-32.447;147.521;-123.829;-941.455;-12.368;-13.039;-19.185
4755225.881;-20.191;-23.730;162.423;-114.962;-916.645;-7.451;-7.711;-16.540
4755225.889;-14.156;-17.509;164.472;-107.549;-916.421;-3.912;-3.725;-17.211
4755225.897;-15.423;-19.707;161.566;-110.120;-914.335;-6.072;-5.849;-22.054
4755225.905;-12.293;-13.858;163.876;-105.165;-906.624;-1.937;-2.049;-18.552
4755225.913;-18.477;-23.134;159.368;-114.106;-899.397;-3.465;-6.482;-20.117
4755225.921;-33.192;-38.557;137.798;-125.989;-913.218;-4.508;-9.798;-18.887
4755225.929;-38.520;-44.890;126.585;-127.777;-910.386;-4.470;-8.680;-18.217
4755225.937;-28.722;-35.428;133.663;-116.788;-897.981;1.378;-3.278;-12.964
4755225.945;-24.214;-28.722;137.240;-110.269;-888.295;3.912;2.533;-9.574
4755225.953;-23.022;-28.536;139.028;-112.876;-880.323;1.974;3.055;-11.064
4755225.961;-24.661;-31.851;137.500;-116.192;-871.159;1.453;1.378;-13.076
4755225.969;-22.948;-26.003;133.999;-106.804;-874.810;3.763;3.949;-13.001
4755225.977;-26.189;-33.192;131.093;-113.472;-870.153;-2.049;-4.135;-18.291
4755225.985;-23.469;-31.628;131.503;-112.094;-864.081;-6.482;-9.090;-20.787
4755225.993;-23.954;-30.361;127.926;-107.512;-861.436;-4.731;-6.743;-17.360
4755226.001;-26.450;-33.490;123.903;-109.412;-859.983;-6.929;-9.015;-17.025
4755226.009;-26.785;-33.416;123.605;-109.598;-857.487;-10.170;-11.362;-20.191
4755226.017;-28.871;-36.471;121.854;-114.478;-852.905;-15.274;-15.087;-24.550
4755226.025;-36.061;-40.568;113.472;-118.576;-858.642;-18.254;-19.334;-27.046
4755226.033;-32.671;-38.296;116.490;-111.647;-847.243;-11.213;-15.646;-20.824
4755226.041;-34.384;-40.084;113.063;-113.323;-845.790;-10.580;-16.578;-20.079
4755226.049;-37.253;-40.121;109.635;-113.510;-844.970;-11.995;-17.062;-18.217
4755226.057;-41.798;-45.411;103.153;-114.627;-843.629;-11.809;-15.125;-16.876
4755226.022;-40.941;-43.549;102.781;-113.100;-835.545;-12.107;-14.640;-17.434
4755226.030;-44.070;-46.976;97.044;-115.260;-841.841;-17.397;-19.521;-20.079
4755226.038;-45.709;-50.142;93.766;-119.060;-840.761;-17.136;-20.750;-20.228
4755226.046;-46.380;-46.417;91.679;-111.833;-838.116;-12.927;-16.987;-18.850
4755226.054;-48.243;-48.280;85.980;-114.553;-842.586;-14.380;-20.675;-19.781
4755226.062;-43.996;-45.747;91.456;-113.435;-830.889;-15.721;-20.452;-21.905
4755226.070;-35.726;-40.531;100.583;-106.841;-815.094;-11.958;-13.560;-19.558
4755226.078;-37.774;-39.376;93.952;-103.973;-820.011;-11.884;-12.890;-19.111
4755226.086;-35.204;-33.230;95.218;-98.385;-812.151;-9.276;-10.729;-17.807
4755226.094;-38.147;-38.259;91.828;-104.457;-811.405;-10.170;-12.442;-18.477
4755226.102;-37.365;-38.259;90.897;-102.893;-809.319;-11.399;-12.629;-18.366
4755226.110;-29.951;-31.330;95.069;-94.958;-798.926;-10.319;-9.537;-17.025
4755226.118;-29.244;-30.957;93.989;-93.579;-792.034;-14.342;-12.852;-22.911
4755226.126;-29.467;-29.579;93.877;-92.760;-786.185;-16.876;-13.411;-25.183
4755226.134;-35.875;-33.975;85.868;-96.150;-795.908;-24.959;-19.707;-31.739
4755226.142;-36.545;-36.284;86.948;-99.130;-782.311;-27.567;-21.458;-33.453
4755226.150;-34.422;-33.788;86.464;-92.722;-781.342;-24.959;-19.446;-30.436
4755226.158;-36.284;-35.614;80.429;-93.021;-782.870;-22.724;-19.036;-27.679
4755226.166;-38.929;-40.606;77.486;-100.099;-779.666;-15.870;-13.597;-22.948
4755226.174;-50.925;-54.389;65.602;-114.813;-782.274;-10.580;-9.350;-21.644
4755226.182;-55.432;-49.770;57.034;-105.388;-789.240;-9.052;-8.717;-21.681
4755226.190;-52.713;-43.064;52.750;-93.915;-794.232;-13.933;-13.858;-25.593
4755226.198;-58.264;-46.417;40.419;-94.064;-800.304;-17.844;-17.397;-28.647
4755226.206;-66.683;-49.770;21.867;-93.915;-814.795;-21.569;-18.738;-30.994
4755226.217;-78.566;-61.803;3.204;-99.614;-828.356;-24.214;-20.042;-31.777
4755226.225;-82.888;-62.995;-5.960;-97.677;-832.416;-15.981;-11.809;-26.077
4755226.233;-82.664;-61.542;-7.674;-92.983;-826.493;-9.686;-4.992;-22.687
4755226.241;-88.476;-68.396;-13.672;-98.236;-825.264;-7.711;-5.402;-21.048
4755226.249;-99.204;-76.331;-27.046;-103.675;-834.167;-10.580;-10.878;-24.177
4755226.257;-98.497;-74.916;-26.822;-98.906;-825.748;-14.268;-13.374;-25.667
4755226.265;-97.007;-73.761;-27.567;-97.752;-825.599;-16.131;-11.250;-25.332
4755226.273;-87.805;-66.087;-19.111;-90.450;-814.237;-15.460;-8.047;-25.108
4755226.281;-80.317;-61.058;-13.337;-84.378;-802.837;-15.199;-8.009;-27.269
4755226.289;-81.509;-63.181;-13.337;-87.246;-792.816;-17.136;-10.654;-28.722
4755226.297;-82.292;-61.430;-16.764;-83.819;-791.512;-14.752;-7.786;-26.822
4755226.305;-82.143;-59.679;-17.732;-81.584;-793.897;-13.039;-5.700;-26.599
4755226.313;-85.048;-60.908;-21.644;-82.813;-793.189;-13.597;-6.855;-26.189
4755226.321;-83.223;-61.952;-20.042;-83.707;-783.168;-15.125;-11.027;-26.487
4755226.329;-81.211;-58.748;-20.564;-81.584;-778.623;-11.511;-9.239;-24.475
4755226.337;-80.056;-58.599;-22.128;-82.292;-775.419;-8.009;-6.519;-21.495
4755226.345;-80.541;-57.593;-24.661;-80.541;-774.600;-1.229;0.037;-15.274
4755226.353;-86.203;-64.708;-28.834;-86.762;-768.229;-2.645;-1.155;-18.068
4755226.361;-86.203;-64.038;-31.069;-87.097;-767.559;0.112;3.725;-19.036
4755226.369;-84.788;-60.648;-31.739;-83.335;-765.361;0.261;5.215;-21.458
4755226.377;-88.550;-63.628;-38.370;-83.596;-767.522;-3.837;0.894;-24.997
4755226.385;-95.405;-70.557;-46.343;-90.525;-772.104;-9.052;-7.041;-28.200
4755226.393;-84.601;-63.851;-31.739;-84.713;-747.889;-5.029;-6.519;-22.277
4755226.401;-69.663;-48.950;-17.695;-69.067;-727.698;7.413;5.290;-10.356
4755226.429;-63.181;-40.643;-13.746;-60.797;-722.371;14.007;14.007;-5.662
4755226.437;-64.410;-42.729;-15.199;-62.510;-724.196;10.133;10.990;-9.090
4755226.445;-70.222;-47.199;-21.160;-67.540;-724.122;3.278;3.763;-15.013
4755226.453;-70.781;-49.546;-21.830;-70.259;-717.603;0.298;0.112;-16.540
4755226.461;-72.867;-52.787;-25.667;-72.755;-720.173;-7.376;-7.451;-22.016
4755226.469;-68.434;-47.311;-24.252;-64.932;-716.746;-7.562;-7.413;-21.383
4755226.477;-63.851;-44.145;-18.775;-61.877;-701.733;-3.986;-2.831;-17.397
4755226.485;-63.777;-45.113;-17.472;-63.255;-694.990;-2.608;0.820;-15.534
4755226.493;-64.783;-46.901;-22.687;-64.224;-701.807;-2.570;0.931;-15.721
4755226.501;-66.981;-49.099;-24.959;-65.938;-694.692;-3.390;-1.118;-17.472
4755226.509;-69.961;-51.819;-27.940;-66.534;-689.589;-6.035;-4.470;-17.658
4755226.517;-63.144;-46.194;-21.458;-59.567;-676.364;-5.439;-3.204;-16.280
4755226.525;-62.510;-45.002;-23.022;-59.456;-673.532;-6.184;-3.166;-18.254
4755226.533;-60.350;-41.984;-23.283;-56.103;-669.993;-4.135;0.075;-17.844
4755226.541;-57.667;-37.253;-21.271;-51.744;-663.623;-2.161;2.347;-15.274
4755226.549;-55.879;-34.720;-19.595;-51.484;-658.184;-3.502;1.378;-13.411
4755226.557;-54.128;-32.410;-19.372;-50.627;-651.442;-3.949;-0.857;-11.548
4755226.565;-52.638;-29.877;-17.360;-50.813;-643.916;-4.210;-2.496;-11.846
4755226.573;-54.091;-34.496;-19.334;-55.991;-642.277;-5.253;-5.066;-13.895
4755226.581;-53.942;-34.347;-19.781;-57.593;-634.864;-2.645;-4.023;-13.486
4755226.589;-54.538;-32.894;-22.389;-58.226;-634.305;-1.714;-1.304;-14.752
4755226.597;-68.173;-47.944;-36.657;-75.512;-643.954;-2.049;-2.123;-15.721
4755226.605;-58.822;-32.261;-29.653;-56.513;-635.274;-2.086;-1.639;-15.423
4755226.613;-53.160;-25.146;-28.387;-46.045;-628.345;-5.886;-3.092;-18.813
4755226.668;-61.840;-31.069;-44.182;-45.560;-634.082;-6.966;-1.416;-19.185
4755226.676;-68.396;-32.932;-57.593;-41.462;-646.450;-5.737;0.894;-18.999
4755226.684;-73.388;-33.602;-67.689;-37.029;-652.745;-5.253;3.055;-19.260
4755226.692;-79.721;-33.826;-76.815;-35.018;-656.545;-6.706;2.012;-19.148
4755226.700;-92.089;-43.251;-93.952;-41.313;-671.856;-13.337;-3.278;-24.140
4755226.708;-101.328;-47.870;-107.363;-41.313;-681.616;-18.664;-6.892;-28.014
4755226.716;-105.463;-49.807;-113.584;-40.159;-685.006;-13.784;-1.416;-25.481
4755226.724;-107.735;-54.799;-117.160;-43.437;-676.662;-10.170;4.023;-23.730
4755226.732;-107.400;-53.123;-117.607;-42.990;-673.048;-6.407;6.333;-21.420
4755226.740;-111.610;-54.687;-122.860;-45.784;-673.160;-9.909;3.353;-23.581
4755226.748;-109.561;-52.042;-120.774;-39.563;-668.503;-14.640;-0.522;-27.046
4755226.756;-110.418;-53.085;-124.350;-39.265;-666.156;-20.266;-6.221;-30.920
4755226.764;-111.051;-54.389;-126.958;-40.904;-662.208;-24.140;-9.127;-32.000
4755226.772;-111.386;-52.750;-127.926;-40.121;-660.308;-20.526;-7.227;-30.100
4755226.780;-111.461;-53.197;-130.646;-38.594;-657.067;-16.615;-6.221;-27.902
4755226.788;-109.002;-51.744;-127.926;-37.253;-651.777;-8.866;-1.639;-22.240
4755226.796;-107.028;-53.756;-122.897;-40.382;-640.526;-4.172;0.522;-19.632
4755226.804;-109.710;-57.817;-124.574;-42.245;-633.784;-4.284;1.080;-19.334
4755226.812;-110.716;-56.848;-128.746;-42.208;-635.721;-3.129;4.247;-19.968
4755226.820;-104.606;-52.862;-122.525;-38.221;-623.651;3.017;12.368;-17.360
4755226.828;-104.420;-52.117;-125.170;-34.124;-626.706;6.966;14.827;-14.417
4755226.836;-99.689;-46.827;-119.545;-26.450;-615.977;7.339;14.342;-13.597
4755226.844;-96.932;-47.274;-114.068;-26.748;-604.168;0.782;9.425;-17.583
4755226.852;-95.554;-44.741;-114.627;-24.065;-601.336;-1.192;8.307;-17.285
4755226.773;-98.534;-47.274;-118.911;-23.954;-607.818;-1.863;8.568;-18.179
4755226.781;-95.926;-47.386;-115.260;-22.799;-596.680;1.155;14.007;-15.870
4755226.789;-93.542;-44.219;-114.031;-20.377;-592.060;5.998;19.968;-12.964
4755226.797;-90.450;-40.531;-112.019;-17.509;-588.559;9.127;22.277;-10.729
4755226.805;-89.370;-39.451;-110.865;-17.285;-584.237;11.399;22.724;-7.637
4755226.813;-92.722;-43.511;-114.515;-19.781;-579.953;11.399;19.483;-6.706
4755226.821;-94.026;-45.896;-116.937;-22.016;-573.918;9.052;17.695;-6.333
4755226.829;-92.871;-44.331;-117.160;-22.016;-577.308;5.066;14.268;-7.078
4755226.837;-93.058;-44.927;-118.613;-22.426;-574.887;1.006;9.947;-10.245
4755226.845;-91.605;-43.027;-116.825;-20.824;-567.138;-0.410;6.594;-11.288
4755226.853;-91.419;-42.915;-117.198;-18.924;-563.711;-0.671;5.998;-12.480
4755226.861;-86.837;-39.674;-114.180;-14.827;-557.043;-1.378;8.233;-14.044
4755226.869;-82.105;-35.204;-109.002;-11.362;-547.282;-0.969;11.809;-13.448
4755226.877;-77.598;-32.261;-106.208;-7.376;-541.620;0.708;12.517;-12.331
4755226.885;-76.517;-29.430;-104.196;-4.359;-536.628;1.825;11.660;-11.697
4755226.893;-79.870;-33.751;-107.139;-9.425;-536.889;1.229;7.115;-11.511
4755226.901;-83.521;-37.625;-110.641;-13.821;-535.212;-2.272;5.476;-13.299
4755226.909;-88.997;-41.015;-115.409;-17.956;-530.817;-4.135;5.960;-13.672
4755226.917;-88.923;-41.351;-116.900;-18.068;-532.903;-4.843;6.333;-13.039
4755226.925;-87.582;-39.563;-115.745;-15.758;-527.538;-8.270;6.519;-16.019
4755226.933;-84.788;-38.147;-113.733;-16.168;-522.919;-9.015;5.960;-16.876
4755226.941;-80.280;-33.453;-109.300;-11.139;-509.806;-7.339;6.109;-15.609
4755226.949;-81.100;-32.000;-113.249;-8.009;-515.394;-8.792;3.204;-16.838
4755226.957;-84.154;-36.024;-117.980;-11.586;-518.747;-12.480;-2.123;-20.750
4755226.937;-77.821;-30.994;-109.151;-9.350;-503.398;-9.127;0.782;-18.515
4755226.945;-73.984;-28.387;-106.022;-4.768;-496.544;-2.906;7.525;-13.523
4755226.953;-75.698;-30.026;-107.363;-5.811;-495.203;-0.484;10.058;-10.803
4755226.961;-73.649;-26.859;-104.532;-3.129;-488.609;2.533;13.821;-8.568
4755226.969;-70.520;-24.699;-103.675;-3.017;-485.480;0.559;10.617;-9.798
4755226.977;-73.053;-27.344;-105.910;-9.090;-483.356;-5.960;1.825;-14.603
4755226.985;-73.239;-28.685;-105.910;-10.990;-480.972;-8.754;0.559;-15.572
4755226.993;-75.512;-29.281;-109.039;-11.176;-480.749;-12.331;2.310;-17.472
4755227.001;-74.953;-28.089;-108.518;-9.015;-473.298;-12.927;3.241;-16.838
4755227.009;-69.812;-26.897;-102.185;-8.084;-464.544;-11.586;2.831;-15.534
4755227.017;-63.553;-21.309;-97.491;-3.986;-456.795;-5.476;6.109;-12.219
4755227.025;-63.404;-21.383;-99.353;-2.533;-456.832;-2.682;6.780;-10.096
4755227.033;-64.373;-24.326;-99.875;-5.364;-453.964;-2.831;6.668;-10.654
4755227.041;-63.851;-22.501;-96.597;-5.215;-443.608;-1.229;8.941;-10.282
4755227.049;-60.424;-18.440;-93.356;-3.204;-432.357;-0.075;11.139;-9.760
4755227.057;-58.971;-17.397;-95.479;-3.017;-437.275;2.608;16.391;-7.786
4755227.065;-59.754;-19.930;-96.448;-4.917;-433.475;2.421;17.285;-8.754
4755227.073;-55.097;-14.678;-91.754;2.012;-426.546;1.937;18.664;-9.015
4755227.081;-52.899;-12.442;-88.550;3.502;-421.889;-2.459;13.560;-12.517
4755227.089;-52.713;-13.523;-88.997;3.688;-416.636;-6.072;8.978;-15.087
4755227.097;-46.678;-8.233;-84.043;8.307;-409.633;-3.688;10.356;-12.964
4755227.105;-46.752;-6.594;-86.538;11.101;-409.707;1.378;14.231;-9.239
4755227.113;-43.623;-4.992;-83.223;11.958;-402.257;4.619;15.274;-5.662
4755227.121;-39.302;-2.049;-78.678;14.827;-391.975;6.706;17.136;-4.657
4755227.101;-39.935;-3.092;-78.902;14.566;-385.456;3.949;16.429;-8.382
4755227.109;-40.047;-2.496;-80.653;14.044;-386.760;-0.335;14.268;-12.964
4755227.117;-39.153;0.000;-82.105;15.646;-386.946;-0.745;15.460;-13.299
4755227.125;-38.035;0.112;-78.827;16.354;-378.750;-4.172;13.523;-15.125
4755227.133;-42.543;-4.396;-84.080;13.299;-380.874;-4.582;11.362;-15.423
4755227.141;-46.529;-9.127;-89.705;10.096;-382.029;-1.602;11.809;-13.411
4755227.149;-45.039;-7.860;-87.433;9.462;-375.360;1.714;12.666;-9.649
4755227.157;-42.059;-6.370;-84.862;11.250;-367.984;2.608;15.274;-8.494
4755227.165;-35.278;0.633;-76.219;17.248;-355.653;3.353;18.440;-7.898
4755227.173;-34.422;1.192;-74.506;15.907;-351.258;3.166;19.781;-8.494
4755227.181;-39.712;-2.533;-81.658;14.752;-358.149;4.433;20.601;-7.786
4755227.189;-41.537;-2.570;-82.031;14.566;-351.816;3.539;18.850;-7.637
4755227.197;-40.531;-2.235;-82.180;12.070;-350.326;0.261;13.784;-10.356
4755227.205;-39.525;-1.080;-81.621;13.150;-347.234;-3.241;8.382;-14.342
4755227.213;-38.743;0.857;-79.982;15.944;-340.603;-1.490;8.866;-14.715
4755227.221;-33.528;4.061;-74.282;19.819;-333.264;1.341;12.442;-13.113
4755227.229;-30.771;7.264;-70.594;23.022;-325.143;8.158;22.277;-7.115
4755227.237;-34.980;3.465;-77.821;19.856;-334.345;7.153;26.226;-7.078
4755227.245;-42.766;-3.166;-85.458;11.362;-336.431;-1.043;19.781;-11.511
4755227.253;-45.747;-6.780;-86.278;7.153;-333.041;-8.494;9.425;-16.317
4755227.261;-49.397;-13.076;-90.301;2.570;-333.227;-13.821;1.229;-21.495
4755227.269;-47.721;-11.660;-88.997;4.284;-327.751;-11.139;3.874;-20.377
4755227.277;-45.002;-10.133;-86.650;6.780;-320.524;-8.047;7.078;-18.142
4755227.285;-35.390;-1.155;-77.337;16.354;-308.119;-3.278;11.213;-14.119
4755227.312;-25.108;7.488;-69.365;25.257;-300.594;1.714;15.572;-10.766
4755227.320;-22.389;9.611;-67.763;27.418;-295.416;0.447;15.497;-12.666
4755227.328;-22.240;11.250;-66.869;27.083;-290.349;-2.384;15.087;-15.497
4755227.336;-27.046;4.694;-72.494;19.334;-293.814;-7.525;9.984;-17.323
4755227.344;-30.026;1.155;-76.480;16.801;-294.484;-8.941;10.170;-15.199
4755227.352;-31.367;0.484;-77.374;15.572;-293.739;-5.886;13.113;-14.976
4755227.360;-30.808;1.080;-77.151;16.019;-288.375;-4.545;13.970;-16.578
4755227.368;-28.163;4.433;-74.580;17.136;-281.557;-5.290;12.182;-16.093
4755227.376;-28.089;2.906;-73.798;16.019;-278.056;-4.657;11.511;-13.970
4755227.384;-28.200;2.235;-73.947;15.236;-274.219;-4.433;10.170;-12.740
4755227.392;-22.091;8.196;-69.514;22.389;-265.054;-1.565;12.554;-10.319
4755227.400;-18.403;8.568;-67.428;25.406;-261.776;-1.118;12.852;-11.623
4755227.408;-18.291;10.245;-67.800;25.071;-257.790;-0.186;12.442;-12.070
4755227.416;-21.309;7.153;-69.663;22.128;-252.835;-4.917;6.817;-14.976
4755227.424;-24.065;3.912;-72.457;17.248;-250.973;-9.872;3.390;-18.179
4755227.432;-28.759;1.378;-77.896;11.139;-256.002;-12.070;3.949;-19.521
4755227.440;-28.424;1.229;-77.747;7.860;-252.873;-9.276;8.084;-17.807
4755227.448;-29.281;1.006;-78.529;4.098;-248.775;-9.350;7.823;-18.142
4755227.456;-28.312;2.272;-77.859;4.470;-242.852;-6.109;10.654;-13.709
4755227.464;-28.014;3.353;-77.188;4.508;-238.679;-6.147;9.462;-14.715
4755227.472;-25.444;5.774;-75.214;5.774;-235.960;-4.731;11.586;-17.472
4755227.480;-24.810;4.843;-75.176;4.880;-233.911;-6.780;9.499;-20.787
4755227.488;-29.691;-0.037;-79.721;-0.596;-236.481;-11.735;3.055;-24.401
4755227.496;-29.765;0.037;-79.945;-2.310;-233.278;-13.039;0.186;-24.512
4755227.491;-25.742;4.210;-76.145;1.080;-229.515;-9.350;2.868;-21.942
4755227.499;-19.856;9.499;-72.084;6.743;-225.604;-5.737;6.631;-19.222
4755227.507;-15.460;12.778;-68.434;10.245;-219.457;-6.966;5.923;-17.025
4755227.515;-18.999;8.792;-70.408;5.290;-218.339;-8.009;2.906;-16.615
4755227.523;-19.744;7.898;-69.104;4.582;-211.932;-5.290;5.290;-15.423
4755227.531;-22.426;7.004;-71.004;2.421;-210.367;-6.221;6.706;-17.770
4755227.539;-28.722;1.788;-77.337;-2.496;-219.569;-9.574;4.098;-20.266
4755227.547;-27.493;1.900;-75.288;0.037;-213.385;-8.605;5.253;-18.701
4755227.555;-25.518;4.247;-73.463;0.075;-209.510;-5.998;5.513;-16.689
4755227.563;-22.613;5.029;-70.184;0.186;-202.842;-4.470;4.955;-16.466
4755227.571;-20.489;7.637;-66.981;2.347;-196.472;-6.370;2.049;-17.919
4755227.579;-17.658;11.362;-62.957;5.849;-191.554;-5.402;4.359;-17.211
4755227.587;-21.309;7.227;-65.975;2.533;-190.921;-8.754;3.166;-19.334
4755227.595;-21.160;7.749;-66.049;2.533;-187.792;-11.511;1.416;-19.036
4755227.603;-26.934;3.055;-72.345;-2.123;-191.294;-14.193;-2.123;-17.472
4755227.611;-22.575;5.998;-67.800;0.075;-183.620;-10.952;0.708;-13.188
4755227.619;-16.913;10.356;-63.218;3.390;-176.057;-8.978;3.092;-11.586
4755227.627;-13.560;11.325;-62.473;7.227;-176.057;-8.829;3.353;-11.548
4755227.635;-9.686;15.236;-56.997;11.511;-169.501;-7.972;4.917;-13.001
4755227.643;-11.213;12.815;-57.258;9.127;-164.807;-7.376;5.886;-13.337
4755227.651;-11.846;11.772;-56.624;8.531;-161.901;-5.588;6.706;-10.878
4755227.659;-12.666;10.282;-56.811;7.637;-161.789;-5.886;6.445;-11.139
4755227.667;-13.188;8.866;-58.226;9.276;-162.981;-9.276;4.470;-13.411
4755227.675;-16.615;5.551;-62.436;8.009;-164.658;-13.299;0.782;-17.546
4755227.643;-21.197;1.490;-65.900;1.267;-162.758;-16.205;-3.502;-19.521
4755227.651;-22.091;0.894;-66.571;0.522;-160.411;-15.274;-4.210;-19.111
4755227.659;-20.377;1.788;-65.640;0.484;-158.846;-13.635;-4.061;-17.174
4755227.667;-16.503;4.545;-62.212;4.210;-151.433;-10.617;-0.931;-16.950
4755227.675;-14.156;6.780;-60.610;4.880;-151.023;-7.749;3.614;-14.864
4755227.683;-14.156;5.215;-60.089;3.576;-146.665;-6.370;5.215;-13.821
4755227.691;-18.589;0.373;-65.714;0.522;-151.843;-7.302;5.513;-16.205
4755227.699;-18.179;0.112;-65.714;0.671;-149.459;-8.196;3.800;-16.689
4755227.707;-17.881;-0.037;-64.522;-0.484;-146.329;-9.947;0.186;-16.876
4755227.715;-18.366;-0.708;-63.702;-2.757;-145.026;-13.299;-2.757;-20.415
4755227.723;-16.689;-0.559;-61.281;-2.533;-140.890;-12.629;0.000;-19.446
4755227.731;-16.987;-1.267;-62.436;-1.565;-139.549;-9.015;2.943;-17.174
4755227.739;-14.640;2.459;-60.275;1.527;-135.899;-7.041;3.576;-15.646
4755227.747;-8.903;9.201;-55.097;7.823;-129.789;-2.757;5.364;-10.878
4755227.755;-7.413;11.958;-52.676;9.499;-125.132;-2.123;4.135;-10.133
4755227.763;-7.078;12.480;-51.893;11.399;-124.313;-0.075;6.072;-9.164
4755227.771;-5.327;14.156;-51.446;12.890;-121.258;0.484;7.562;-9.947
4755227.779;-6.966;11.921;-53.160;9.947;-120.960;-2.719;5.998;-13.821
4755227.787;-9.239;7.600;-54.650;6.594;-119.172;-5.923;4.396;-16.876
4755227.795;-19.372;-0.335;-63.404;-1.118;-124.052;-3.353;7.339;-13.858
4755227.803;-15.236;-2.347;-53.830;-2.980;-109.486;-6.780;2.384;-14.491
4755227.811;-16.317;-5.513;-54.054;-8.233;-109.822;-10.580;-1.192;-16.056
4755227.819;-13.635;-5.178;-48.988;-10.841;-102.781;-10.096;0.112;-15.683
4755227.827;-12.219;-5.476;-47.311;-13.337;-98.683;-14.901;-4.768;-19.670
4755227.792;-3.465;5.625;-37.663;-4.135;-87.544;-11.772;-0.224;-16.987
4755227.800;-2.906;4.880;-38.072;-5.774;-83.037;-9.127;3.129;-13.486
4755227.808;-3.166;5.811;-38.110;-6.035;-82.813;-11.250;1.714;-14.752
4755227.816;-5.402;5.849;-40.568;-5.886;-85.756;-14.827;-1.565;-17.099
4755227.824;-6.817;3.241;-41.686;-7.413;-82.329;-15.683;-4.731;-18.589
4755227.832;-3.092;7.600;-37.327;-3.166;-74.990;-10.543;-1.229;-14.603
4755227.840;0.931;11.548;-34.310;1.639;-70.892;-4.135;4.508;-9.090
4755227.848;2.310;13.337;-33.788;3.763;-70.482;-4.135;2.757;-9.835
4755227.856;-0.894;9.015;-36.396;-0.335;-69.812;-8.047;-2.049;-12.740
4755227.864;-1.714;4.657;-36.098;-3.539;-65.081;-13.709;-7.041;-15.944
4755227.872;-3.204;3.465;-37.737;-5.625;-65.863;-16.615;-10.766;-17.434
4755227.880;-7.451;0.894;-42.804;-8.047;-70.520;-13.858;-11.027;-17.025
4755227.888;-8.456;1.080;-43.698;-5.886;-67.391;-12.293;-10.096;-18.179
4755227.896;-3.763;4.247;-39.339;-3.166;-62.883;-10.952;-5.551;-17.583
4755227.904;-2.272;4.806;-38.743;-2.682;-61.430;-11.474;-3.465;-17.323
4755227.912;1.490;8.494;-33.490;2.235;-52.825;-10.058;-2.459;-16.317
4755227.920;4.321;9.798;-31.330;4.731;-50.291;-6.780;0.410;-14.491
4755227.928;9.164;15.423;-28.126;8.978;-48.131;-1.974;4.396;-10.058
4755227.936;14.007;20.750;-23.246;13.411;-40.829;2.757;7.153;-5.066
4755227.944;9.537;14.864;-27.716;7.339;-39.861;-0.224;1.453;-8.605
4755227.952;1.565;8.345;-34.720;-0.112;-44.852;-6.706;-4.880;-14.007
4755227.960;-4.396;1.155;-40.159;-6.221;-49.956;-16.131;-12.033;-21.607
4755227.968;-3.241;3.055;-39.972;-4.284;-49.137;-22.985;-16.093;-26.673
4755227.976;-2.123;4.917;-39.488;-1.378;-46.492;-22.873;-13.188;-26.524
4755227.987;-0.447;5.476;-39.265;1.788;-43.325;-16.764;-7.674;-20.340
4755227.995;8.754;15.534;-31.181;13.337;-32.410;-3.465;4.731;-8.494
4755228.003;16.317;24.699;-25.705;21.942;-25.705;5.625;13.746;-1.974
4755228.011;18.924;27.530;-23.842;24.475;-22.575;7.935;15.460;-2.459
4755228.019;13.746;22.724;-29.542;19.446;-30.585;1.527;9.425;-8.643
4755228.027;10.803;19.148;-31.553;14.715;-29.244;-6.258;2.980;-13.933
4755228.035;6.855;15.795;-37.029;12.368;-33.677;-10.878;-2.794;-18.552
4755228.043;6.482;13.784;-37.923;11.213;-31.330;-11.586;-4.061;-20.899
4755228.051;7.562;15.348;-36.657;11.697;-28.759;-10.766;-3.539;-20.079
4755228.059;9.574;17.062;-35.390;11.772;-27.642;-8.494;-3.614;-15.981
4755228.067;13.933;17.993;-30.771;14.231;-19.707;-6.631;-3.986;-13.933
4755228.075;15.423;20.117;-29.020;16.391;-15.125;-5.774;-2.421;-15.348
4755228.083;15.013;18.775;-30.808;16.503;-16.466;-4.247;0.447;-14.827
4755228.091;14.678;16.503;-31.739;15.013;-16.652;-5.439;-0.671;-15.572
4755228.099;6.929;10.245;-39.227;8.941;-23.097;-8.903;-3.465;-17.732
4755228.107;0.633;4.172;-45.411;3.092;-26.673;-13.635;-7.711;-21.867
4755228.115;-2.570;1.900;-48.019;0.000;-26.673;-17.062;-10.468;-24.401
4755228.123;2.049;5.774;-43.064;4.880;-17.770;-17.099;-11.325;-26.114
4755228.131;7.041;11.735;-38.929;9.537;-12.517;-11.846;-7.339;-22.575
4755228.139;12.480;17.956;-33.602;15.274;-6.855;-6.072;-0.596;-17.956
4755228.147;14.156;21.756;-34.049;19.334;-9.015;0.820;8.717;-12.405
4755228.155;10.803;19.334;-36.508;17.993;-11.101;-0.410;8.792;-11.884
4755228.163;7.078;12.629;-38.408;10.617;-8.941;-4.508;3.278;-15.609
4755228.171;2.570;7.562;-43.139;5.104;-7.786;-10.282;-4.731;-22.389
4755228.242;-2.012;3.390;-47.497;0.484;-10.915;-15.385;-9.984;-25.816
4755228.250;-3.278;0.596;-50.999;-1.267;-15.125;-18.291;-12.331;-26.412
4755228.258;-0.559;2.645;-48.429;-0.037;-11.660;-19.409;-13.895;-25.444
4755228.266;0.782;2.980;-48.019;-0.186;-8.717;-20.675;-15.348;-25.779
4755228.274;4.470;5.960;-44.815;2.682;-2.757;-18.030;-12.964;-24.252
4755228.282;4.098;4.582;-45.076;0.298;-1.118;-15.274;-10.617;-23.693
4755228.290;1.304;2.384;-49.211;-1.304;-5.178;-10.692;-5.960;-20.452
4755228.298;11.288;13.001;-39.525;12.890;0.820;-8.270;-4.061;-19.334
4755228.306;22.240;22.016;-30.249;22.985;5.513;-7.525;-2.794;-20.079
4755228.314;31.702;32.149;-23.395;33.379;8.829;-8.009;-4.098;-22.128
4755228.322;41.611;41.462;-14.566;40.121;15.907;-11.213;-8.643;-24.363
4755228.330;49.807;47.162;-8.494;44.703;21.532;-13.560;-10.468;-25.220
4755228.338;54.650;51.633;-4.247;46.603;24.214;-14.529;-8.196;-24.214
4755228.346;53.383;50.962;-4.768;45.560;25.816;-13.411;-4.917;-23.171
4755228.354;55.842;53.160;-3.800;46.901;28.387;-9.947;-1.006;-22.389
4755228.362;58.971;55.581;-1.527;46.827;32.522;-6.445;1.155;-21.085
4755228.370;55.693;52.564;-3.763;43.437;36.322;-7.227;-2.123;-18.813
4755228.378;53.942;53.309;-6.147;42.990;36.769;-6.072;-2.533;-14.231
4755228.386;53.942;53.421;-6.594;41.351;40.047;-5.662;-3.763;-11.958
4755228.394;50.552;50.180;-8.792;36.545;39.898;-7.264;-5.998;-13.262
4755228.402;46.194;47.013;-12.629;33.379;36.694;-5.476;-3.204;-12.331
4755228.410;39.786;38.967;-17.472;25.630;35.502;-7.264;-5.476;-13.486
4755228.418;36.247;35.278;-21.309;20.266;34.571;-10.058;-9.462;-15.832
4755228.426;34.571;32.820;-22.277;17.844;32.783;-9.313;-10.245;-17.062
4755228.437;36.098;35.316;-19.968;18.924;35.353;-4.731;-7.004;-13.076
4755228.445;39.525;40.717;-16.242;22.985;39.674;-1.229;-3.912;-8.307
4755228.453;36.843;38.520;-19.781;21.197;36.508;0.000;-4.545;-8.009
4755228.461;32.298;34.980;-23.991;16.615;32.783;-2.570;-7.898;-12.442
4755228.469;28.200;30.920;-27.232;16.056;28.387;-5.178;-9.425;-14.901
4755228.477;34.235;34.980;-19.595;20.973;37.998;-6.035;-6.743;-15.013
4755228.485;37.476;38.929;-15.683;23.805;41.388;-3.129;-0.894;-12.852
4755228.493;35.353;35.688;-18.328;22.613;38.110;-3.688;-1.341;-14.454
4755228.501;40.643;42.841;-9.574;29.951;49.062;-0.149;-0.447;-9.537
4755228.509;41.164;42.506;-5.774;29.095;53.160;-5.253;-8.754;-13.709
4755228.517;44.703;46.752;-1.527;34.608;54.538;-5.402;-9.164;-17.248
4755228.525;54.426;58.822;9.388;48.876;64.969;4.470;0.633;-10.468
4755228.533;54.836;59.418;11.362;51.372;66.794;6.817;2.719;-6.296
4755228.541;50.999;56.699;8.270;49.807;62.585;6.221;2.980;-6.072
4755228.549;43.586;49.435;2.272;43.772;55.954;2.943;-0.298;-8.158
4755228.557;39.078;45.598;-1.118;42.655;46.305;2.012;-1.453;-7.488
4755228.565;47.162;53.644;7.339;50.776;48.801;3.949;1.565;-7.115
4755228.573;54.128;58.450;14.827;56.922;55.879;4.582;1.974;-5.178
4755228.581;58.226;62.212;20.787;61.356;61.430;4.023;-0.261;-4.768
4755228.589;62.995;65.602;27.604;64.410;66.012;1.825;-2.496;-7.413
4755228.597;67.949;71.228;32.857;67.241;69.924;0.931;-2.868;-7.339
4755228.605;72.420;73.835;38.333;68.545;75.139;1.080;-3.800;-6.966
4755228.613;76.890;75.959;43.474;69.700;80.951;0.410;-4.098;-8.680
4755228.621;83.707;83.447;49.993;77.486;86.091;3.241;0.522;-3.837
4755228.572;86.278;85.048;52.005;79.982;85.905;4.172;2.608;-0.633
4755228.580;82.254;83.596;50.440;77.225;85.123;5.402;3.204;2.161
4755228.588;86.240;89.668;56.364;81.770;90.227;0.522;2.272;-7.674
4755228.596;89.295;89.966;59.940;81.435;93.058;-5.029;-1.080;-15.125
4755228.604;97.044;97.416;68.471;88.587;100.285;0.745;4.098;-7.935
4755228.612;107.773;106.171;77.970;94.883;109.896;4.321;7.674;-2.310
4755228.620;108.965;108.443;79.311;95.889;110.455;3.278;9.127;-1.229
4755228.628;109.859;110.827;81.286;97.863;112.243;5.588;12.927;1.602
4755228.636;111.908;111.237;82.366;98.124;112.653;3.166;6.109;0.037
4755228.644;109.784;107.326;79.833;92.611;111.423;-5.551;-0.745;-8.047
4755228.652;110.045;107.437;78.194;90.860;108.853;-7.674;-1.229;-9.798
4755228.660;113.025;108.145;80.355;93.840;109.710;-6.817;-3.204;-9.239
4755228.668;112.839;107.773;80.578;92.797;110.082;-6.035;-1.751;-10.096
4755228.676;109.039;103.079;77.412;87.805;109.486;-9.686;-5.737;-12.405
4755228.684;109.114;103.116;78.902;86.240;111.610;-13.039;-9.462;-15.758
4755228.692;111.200;105.761;80.839;88.625;111.312;-9.649;-3.316;-14.156
4755228.700;113.696;108.331;83.223;91.605;114.627;-4.545;3.427;-10.766
4755228.708;113.770;110.492;82.441;93.542;114.255;-2.608;2.608;-10.431
4755228.716;113.770;108.853;81.919;95.330;114.068;-2.272;0.894;-10.505
4755228.724;122.115;114.515;91.828;100.099;123.046;1.825;5.253;-6.147
4755228.732;127.926;118.054;98.385;103.787;131.391;3.837;7.935;-4.061
4755228.740;125.580;116.825;96.150;102.594;128.374;-2.012;2.570;-8.754
4755228.748;128.038;118.986;99.503;105.724;129.379;-6.519;-1.527;-11.325
4755228.756;129.193;118.911;101.440;106.804;131.503;-6.855;-1.714;-11.846
4755228.797;131.130;121.072;103.526;106.990;131.838;-8.382;-3.502;-15.646
4755228.805;133.850;123.084;104.234;109.263;131.577;-7.302;-3.166;-13.374
4755228.813;135.191;124.797;104.047;111.237;129.975;-5.327;-0.149;-12.554
4755228.821;138.320;127.740;108.331;114.478;133.291;-1.825;1.714;-9.276
4755228.829;136.793;125.282;106.469;111.945;131.242;-0.894;1.490;-8.717
4755228.837;136.048;124.760;105.649;109.114;131.242;-2.272;-0.484;-8.345
4755228.845;137.724;123.829;106.655;108.629;131.354;1.639;3.725;-3.614
4755228.853;140.183;125.878;108.294;110.939;132.583;-5.923;0.224;-11.474
4755228.861;143.088;127.517;110.194;109.039;135.526;-9.723;-1.788;-16.242
4755228.869;134.334;116.825;99.204;97.640;126.325;-11.884;-4.508;-19.632
4755228.877;153.854;136.718;117.198;116.974;145.175;-13.448;-9.425;-21.458
4755228.885;141.561;124.685;101.402;107.065;135.675;-7.488;-4.657;-16.727
4755228.893;136.532;119.992;93.579;105.090;131.950;-8.419;-1.639;-17.434
4755228.901;134.632;119.135;91.344;104.420;134.595;-6.817;4.433;-14.678
4755228.909;127.852;110.790;83.558;97.267;131.540;-6.780;4.172;-10.617
4755228.917;118.054;100.918;71.973;87.842;124.574;-5.402;3.353;-6.519
4755228.925;112.094;93.542;64.783;79.684;118.837;2.943;14.193;-0.373
4755228.933;112.988;91.940;66.198;77.374;121.854;-1.900;6.407;-4.359
4755228.941;119.023;97.528;72.196;82.776;129.826;-2.123;5.998;-7.264
4755228.949;126.027;102.296;76.965;87.395;135.377;-1.751;4.210;-7.078
4755228.957;124.574;100.359;74.990;83.782;135.154;-7.078;-3.576;-11.437
4755228.965;118.352;94.436;67.502;78.827;128.821;-11.921;-11.250;-15.199
4755228.973;114.255;89.854;62.399;74.692;122.935;-15.721;-12.852;-20.526
4755228.981;118.315;92.611;67.875;77.523;132.509;-10.729;-8.233;-16.503
4755229.037;112.951;85.048;62.287;71.079;128.932;-7.413;-8.047;-13.709
4755229.045;110.976;83.707;61.765;68.843;129.938;-0.522;-2.533;-6.631
4755229.053;116.639;88.885;68.136;74.729;137.277;2.161;2.049;-4.731
4755229.061;116.415;88.662;67.949;74.059;138.618;8.233;6.333;3.837
4755229.069;108.443;82.217;58.822;68.210;130.571;9.201;7.115;8.158
4755229.077;104.047;79.125;52.378;66.459;126.064;-5.290;-4.768;-8.419
4755229.085;105.128;81.621;53.346;67.800;127.256;-8.307;-7.004;-13.746
4755229.093;108.592;83.931;57.593;70.632;134.371;-7.376;-5.737;-13.411
4755229.101;109.635;85.905;59.530;73.574;136.979;-2.868;-0.261;-9.127
4755229.109;112.280;91.419;62.734;78.194;139.996;2.049;4.396;-4.061
4755229.117;113.510;91.195;63.442;78.008;140.965;1.155;3.204;-2.570
4755229.125;118.017;93.654;69.700;81.211;145.435;-4.135;-3.949;-9.462
4755229.133;120.476;96.224;70.930;82.850;144.541;0.596;1.639;-4.508
4755229.141;115.037;90.860;66.161;76.033;139.400;1.378;7.711;0.112
4755229.149;115.223;92.424;67.875;78.306;141.747;1.155;12.964;-1.378
4755229.157;108.704;87.395;61.765;72.196;135.973;-13.262;-12.517;-11.809
4755229.165;101.589;81.882;57.444;63.032;130.720;-14.007;-14.566;-11.660
4755229.173;92.834;73.127;49.472;55.358;124.387;-13.933;-14.789;-14.082
4755229.181;87.358;67.577;43.586;51.856;118.092;-20.824;-26.859;-18.552
4755229.189;94.809;74.171;52.489;58.487;124.462;-16.354;-23.246;-11.548
4755229.197;90.599;69.030;49.993;53.607;122.078;-23.730;-31.479;-14.789
4755229.205;88.401;69.030;47.870;51.931;118.390;-28.051;-37.104;-19.930
4755229.213;90.301;70.110;50.217;52.825;122.003;-29.430;-41.835;-21.718
4755229.221;92.760;73.090;51.819;56.811;123.158;-15.683;-20.638;-10.692
4755229.292;94.697;74.506;55.283;57.146;129.789;-5.849;-15.274;1.974
4755229.300;85.607;63.330;46.268;47.237;124.760;-20.154;-31.255;-13.523
4755229.308;83.782;62.995;43.921;48.578;123.568;-41.053;-54.836;-34.906
4755229.316;75.251;51.819;33.788;40.047;115.894;-44.405;-64.559;-38.520
4755229.324;77.933;53.570;35.577;44.852;119.582;-42.170;-66.645;-38.370
4755229.332;89.183;67.391;48.056;59.903;132.471;-25.071;-53.719;-24.997
4755229.340;89.891;67.055;49.025;63.665;131.540;-15.981;-54.762;-19.595
4755229.348;87.470;62.771;47.684;59.493;128.336;-14.193;-61.505;-18.068
4755229.356;75.698;46.864;35.912;42.878;118.092;-19.930;-67.949;-23.767
4755229.364;76.927;45.896;36.731;41.276;119.545;-19.781;-69.290;-26.897
4755229.372;78.902;48.615;39.935;43.251;124.276;-19.968;-71.153;-23.991
4755229.380;77.970;45.225;39.972;40.792;128.150;-39.674;-87.917;-45.560
4755229.388;71.265;38.221;33.230;34.086;123.531;-52.638;-99.353;-63.591
4755229.396;69.626;35.465;32.000;30.063;124.276;-45.262;-89.519;-55.730
4755229.404;72.569;40.792;34.980;33.155;125.058;-33.788;-79.796;-43.362
4755229.412;68.173;39.563;33.565;29.393;125.840;-29.020;-80.056;-39.302
4755229.420;57.928;28.536;25.928;18.254;120.513;-27.828;-82.478;-40.866
4755229.428;54.799;27.716;22.687;16.801;117.347;-29.244;-78.380;-43.809
4755229.436;53.793;26.748;21.197;17.658;117.421;-32.894;-79.684;-47.870
4755229.444;49.919;20.638;19.483;13.858;120.215;-34.310;-80.280;-51.819
4755229.452;48.541;19.632;19.409;12.703;122.115;-21.644;-66.087;-41.090
4755229.460;45.709;14.156;14.044;12.256;116.713;-21.979;-65.416;-39.935
4755229.468;46.119;12.554;14.193;9.239;120.141;-39.190;-81.025;-56.997
4755229.476;47.646;11.027;16.056;5.886;126.250;-35.726;-71.600;-56.997
4755229.546;36.135;1.453;4.545;-6.855;116.713;-36.545;-79.051;-54.426
4755229.554;31.963;-1.490;1.378;-13.001;113.696;-32.783;-78.380;-49.807
4755229.562;34.794;1.751;2.831;-9.947;117.235;-24.773;-62.920;-45.672
4755229.570;30.436;-0.931;-0.820;-16.019;119.582;-24.959;-64.597;-47.907
4755229.578;23.693;-8.568;-7.153;-25.295;117.868;-21.309;-62.399;-41.202
4755229.586;20.117;-11.548;-11.586;-29.914;116.117;-32.634;-78.641;-52.154
4755229.594;14.082;-16.913;-18.738;-37.141;112.429;-30.585;-73.761;-51.595
4755229.602;19.036;-14.603;-15.348;-35.167;119.172;-21.942;-58.673;-44.070
4755229.610;20.079;-13.672;-12.219;-36.806;126.958;-33.528;-71.190;-54.277
4755229.618;17.434;-16.540;-15.274;-41.351;123.717;-29.877;-62.138;-50.850
4755229.626;20.787;-14.752;-12.964;-41.090;127.964;-26.897;-63.777;-47.311
4755229.634;16.913;-16.503;-18.477;-44.517;122.972;-29.728;-70.259;-51.968
4755229.642;12.666;-20.489;-23.507;-50.254;118.129;-28.983;-68.508;-51.074
4755229.650;13.411;-18.142;-20.899;-51.074;122.190;-31.032;-68.396;-53.979
4755229.658;22.128;-8.829;-11.064;-43.288;131.242;-19.036;-47.795;-44.778
4755229.666;24.363;-6.370;-9.462;-44.405;131.279;-24.177;-58.971;-45.486
4755229.674;22.389;-6.631;-9.947;-47.237;131.801;-29.393;-66.571;-48.764
4755229.682;21.383;-7.860;-12.293;-48.727;130.385;-29.504;-56.177;-51.521
4755229.690;23.097;-4.433;-11.735;-47.535;133.812;-31.069;-63.106;-55.283
4755229.698;22.277;-5.849;-13.933;-49.621;133.365;-33.714;-66.422;-58.636
4755229.706;15.944;-11.921;-22.799;-56.960;128.634;-33.304;-62.846;-57.220
4755229.714;17.881;-9.052;-21.458;-56.401;129.268;-25.369;-50.105;-50.589
4755229.722;18.328;-11.772;-23.209;-59.344;131.987;-23.805;-51.484;-45.560
4755229.730;16.056;-14.342;-28.871;-63.181;131.130;-34.869;-65.602;-59.605
4755229.711;15.572;-16.354;-31.106;-64.932;133.663;-39.414;-69.700;-63.814
4755229.719;17.583;-17.956;-29.728;-64.895;136.867;-32.745;-62.510;-55.470
4755229.727;12.480;-24.326;-36.322;-73.276;131.577;-33.863;-66.794;-54.352
4755229.735;12.517;-25.295;-39.637;-73.873;129.119;-36.284;-65.938;-56.960
4755229.743;8.866;-27.865;-43.958;-77.188;128.560;-41.313;-68.359;-62.697
4755229.751;11.995;-25.928;-42.431;-75.884;131.354;-34.869;-53.979;-61.505
4755229.759;16.987;-20.228;-39.227;-73.202;136.606;-30.175;-58.934;-57.220
4755229.767;22.464;-12.629;-35.241;-64.597;140.220;-23.730;-56.848;-50.031
4755229.775;18.999;-16.876;-41.686;-66.832;132.807;-28.051;-54.538;-53.756
4755229.783;18.850;-16.540;-41.425;-67.614;133.030;-24.028;-45.486;-51.334
4755229.791;28.461;-9.649;-33.602;-59.903;141.561;-22.724;-48.950;-47.237
4755229.799;28.312;-11.548;-35.502;-62.957;141.747;-29.840;-56.401;-54.166
4755229.807;34.943;-4.098;-29.430;-57.109;149.533;-18.328;-39.004;-45.784
4755229.815;35.837;-4.880;-31.292;-57.593;150.576;-17.546;-44.145;-39.898
4755229.823;34.757;-5.700;-33.937;-57.667;149.496;-26.226;-49.099;-46.492
4755229.831;36.098;-7.711;-33.900;-54.836;153.072;-27.567;-46.082;-47.237
4755229.839;39.339;-3.502;-31.628;-52.638;154.153;-29.653;-50.627;-48.839
4755229.847;42.543;2.533;-28.461;-50.850;158.474;-21.830;-37.588;-43.623
4755229.855;36.322;-1.192;-35.428;-56.326;151.917;-19.558;-35.577;-43.064
4755229.863;28.759;-5.737;-43.772;-62.771;146.925;-18.775;-44.070;-41.947
4755229.871;28.536;-6.892;-46.268;-62.026;147.633;-17.919;-36.992;-42.170
4755229.879;31.814;-4.172;-44.554;-58.375;149.310;-17.285;-33.379;-41.202
4755229.887;32.745;-0.857;-43.884;-55.209;151.657;-11.437;-25.667;-35.912
4755229.895;38.296;2.049;-39.637;-48.578;157.692;-5.998;-11.884;-35.055
4755229.907;39.563;3.166;-38.147;-50.291;159.480;-4.508;-16.503;-34.533
4755229.915;34.459;-1.341;-42.059;-56.140;158.884;-9.649;-31.777;-35.353
4755229.923;31.665;-3.986;-43.847;-59.567;158.772;-3.241;-23.693;-26.524
4755229.931;32.261;-0.261;-42.170;-55.470;161.752;-6.482;-29.281;-34.086
4755229.939;31.814;0.969;-43.325;-56.662;159.927;-3.502;-20.862;-31.367
4755229.947;33.751;6.035;-40.680;-54.017;159.517;0.335;-6.557;-28.796
4755229.955;36.992;8.382;-37.625;-50.031;165.403;-2.757;-14.752;-28.536
4755229.963;36.210;9.611;-40.159;-49.099;164.695;1.676;-12.219;-25.779
4755229.971;38.743;13.262;-37.551;-44.443;168.122;9.462;-4.657;-21.495
4755229.979;28.200;0.335;-45.337;-56.513;162.646;1.155;-13.113;-31.441
4755229.987;24.661;-0.782;-47.125;-59.530;161.268;2.347;-9.835;-33.043
4755229.995;23.581;-1.565;-50.105;-59.679;155.978;10.170;-0.745;-24.922
4755230.003;23.805;-1.863;-50.254;-58.003;159.070;10.952;4.396;-23.805
4755230.011;14.305;-11.474;-59.232;-67.279;154.153;3.837;-15.832;-28.834
4755230.019;15.125;-12.331;-56.811;-65.155;158.660;8.009;-8.717;-26.077
4755230.027;22.314;-4.135;-48.839;-59.642;165.477;8.866;-7.525;-25.481
4755230.035;22.165;-7.004;-49.658;-59.046;163.056;10.580;-4.470;-22.203
4755230.043;15.683;-13.188;-55.060;-64.746;157.878;7.376;-5.104;-22.762
4755230.051;11.809;-15.236;-55.544;-68.359;158.995;7.898;-5.215;-20.750
4755230.059;12.554;-17.881;-53.942;-68.992;160.113;6.631;-4.359;-20.862
4755230.067;20.787;-8.605;-43.400;-60.461;167.117;9.798;5.774;-20.787
4755230.075;24.289;-5.588;-40.755;-55.507;169.687;5.029;-3.017;-26.450
4755230.083;23.767;-7.600;-43.772;-55.842;168.867;1.416;-11.437;-27.493
4755230.091;25.928;-6.072;-42.208;-53.458;170.209;1.974;-4.321;-26.859
4755230.102;29.653;-3.949;-39.674;-49.807;173.599;-1.453;-5.066;-27.716
4755230.110;33.863;1.527;-34.571;-45.002;179.373;0.522;-3.949;-25.146
4755230.118;30.734;-3.427;-38.929;-49.323;174.567;0.447;-0.112;-27.865
4755230.126;29.989;-4.694;-39.712;-51.595;174.828;0.820;-0.969;-30.063
4755230.134;25.071;-7.786;-45.113;-54.389;169.352;-2.235;-9.686;-29.765
4755230.142;28.051;-5.588;-44.517;-51.893;171.475;-5.141;-6.631;-32.708
4755230.150;37.327;5.551;-35.167;-44.405;178.181;-5.588;-1.490;-30.734
4755230.158;39.376;5.737;-33.528;-43.139;179.932;-13.746;-12.256;-36.061
4755230.166;44.294;12.629;-29.802;-37.812;184.476;-9.276;-9.313;-32.485
4755230.174;52.154;21.905;-21.346;-30.622;192.076;-0.894;-1.155;-26.599
4755230.182;54.650;22.314;-16.019;-30.883;196.286;-1.565;-2.719;-30.361
4755230.190;60.573;29.989;-7.972;-25.779;203.773;0.969;0.410;-29.691
4755230.198;59.493;27.604;-10.207;-27.604;197.515;-1.639;-5.700;-34.459
4755230.206;57.369;25.965;-12.517;-30.138;195.876;-0.186;-5.439;-34.124
4755230.214;58.711;29.355;-11.884;-28.014;197.515;6.221;-1.453;-30.361
4755230.222;56.587;25.742;-15.050;-31.739;197.776;4.694;-6.594;-30.883
4755230.230;63.144;34.571;-9.798;-24.997;204.034;10.133;2.570;-27.455
4755230.238;69.290;39.227;-5.253;-20.266;210.851;9.611;-4.433;-21.979
4755230.246;70.073;39.861;-5.588;-19.968;213.087;12.144;-5.588;-16.466
4755230.254;64.485;34.906;-12.107;-26.487;209.622;-4.359;-27.008;-38.370
4755230.262;67.540;38.333;-11.101;-21.867;212.751;0.969;-15.162;-34.757
4755230.270;62.510;36.471;-15.944;-27.306;207.312;-11.250;-20.228;-34.533
4755230.278;60.685;30.175;-20.415;-32.000;207.946;-35.875;-17.248;-30.361
4755230.286;55.656;23.469;-29.802;-37.700;203.587;-37.812;-23.730;-29.765
4755230.310;58.152;27.008;-28.051;-34.533;204.109;-31.963;-17.732;-26.636
4755230.318;60.312;27.791;-27.418;-32.373;205.562;-20.452;3.427;-12.517
4755230.326;36.024;4.545;-51.334;-55.842;181.086;-42.543;-19.856;-41.798
4755230.334;28.610;-2.459;-57.481;-58.934;177.138;-45.411;-25.891;-41.015
4755230.342;24.140;-5.998;-60.275;-60.350;174.567;-44.741;-26.748;-38.594
4755230.350;23.246;-5.923;-57.518;-58.636;177.585;-38.520;-22.091;-37.625
4755230.358;19.781;-9.909;-57.817;-56.960;180.192;-39.265;-23.767;-41.313
4755230.366;16.540;-9.201;-57.407;-52.899;176.914;-38.631;-20.750;-39.525
4755230.374;10.356;-14.342;-59.642;-52.266;172.146;-41.872;-25.518;-40.755
4755230.382;6.370;-16.056;-57.295;-48.727;171.252;-39.302;-21.420;-39.376
4755230.390;-2.831;-20.638;-57.556;-45.970;166.968;-36.918;-18.552;-40.978
4755230.398;-14.119;-31.628;-63.293;-47.311;160.895;-41.388;-28.238;-47.088
4755230.406;-23.395;-36.210;-65.193;-45.486;158.027;-37.290;-24.401;-42.953
4755230.414;-30.659;-47.833;-63.181;-48.950;160.262;-37.737;-24.475;-43.288
4755230.422;-16.466;-41.500;-42.804;-33.192;174.865;-40.829;-26.561;-43.362
4755230.430;0.112;-33.826;-22.314;-15.274;195.242;-35.502;-18.962;-36.992
4755230.438;8.680;-38.296;-13.672;-10.282;197.366;-45.896;-29.504;-47.833
4755230.446;32.857;-21.160;11.362;11.362;217.780;-37.439;-25.369;-32.559
4755230.454;47.497;-15.721;23.432;25.295;223.853;-34.273;-20.862;-22.724
4755230.462;50.552;-16.950;24.214;29.244;212.155;-39.004;-27.455;-25.220
4755230.470;53.793;-13.597;29.728;33.490;217.557;-27.008;-16.876;-13.411
4755230.478;53.681;-17.025;32.596;33.639;227.019;-22.985;-14.342;-5.513
4755230.486;54.725;-17.248;33.379;35.465;226.870;-18.440;-6.557;-1.229
4755230.494;56.587;-19.744;32.000;38.706;221.059;-15.795;-2.310;1.676
4755230.402;54.687;-22.724;29.169;38.221;217.035;-20.862;-8.531;-3.017
4755230.410;58.599;-22.575;35.986;37.104;228.509;-19.856;-5.215;-2.719
4755230.418;62.548;-22.501;34.608;42.133;227.764;-12.778;1.788;3.055
4755230.426;61.058;-26.487;28.871;41.500;223.890;-11.176;-0.633;3.539
4755230.434;62.995;-32.000;25.965;40.643;228.845;-15.199;-6.296;-1.229
4755230.442;65.714;-32.522;22.203;40.978;223.741;-14.491;-2.533;-5.066
4755230.450;63.330;-36.545;17.025;41.015;219.792;-12.182;-1.304;-2.608
4755230.458;66.571;-38.072;19.595;41.276;230.186;-9.127;0.559;2.049
4755230.466;66.310;-39.265;18.589;38.743;228.658;-6.445;4.098;5.104
4755230.474;65.491;-48.503;14.342;40.978;217.408;-7.264;3.874;5.439
4755230.482;73.388;-50.105;22.016;46.417;229.515;-0.671;9.201;10.878
4755230.490;73.761;-51.893;19.148;49.546;226.013;3.092;13.486;13.970
4755230.498;75.363;-55.172;22.314;50.068;245.534;2.272;13.858;13.299
4755230.506;74.767;-54.352;22.613;49.882;244.007;3.651;17.509;13.672
4755230.514;76.219;-53.644;20.936;53.346;241.920;8.717;24.699;16.801
4755230.522;76.965;-52.378;20.601;56.475;255.704;9.835;28.722;17.844
4755230.530;64.634;-64.038;6.966;45.970;247.583;4.135;21.383;12.480
4755230.538;48.801;-81.398;-9.872;30.957;225.976;-2.421;15.907;6.221
4755230.546;39.451;-89.891;-18.328;21.644;207.312;-6.594;18.775;0.857
4755230.554;41.090;-92.611;-18.515;21.048;204.407;-7.451;15.683;0.037
4755230.562;41.462;-94.101;-22.426;20.713;201.166;-12.033;6.258;-5.364
4755230.570;38.035;-99.242;-29.691;17.807;195.019;-15.385;0.112;-12.703
4755230.578;40.308;-102.296;-30.473;21.458;193.417;-15.348;1.341;-13.299
4755230.586;40.531;-100.583;-30.212;25.779;192.821;-15.050;4.731;-14.789
4755230.551;41.984;-102.334;-30.510;24.624;192.001;-12.442;5.290;-11.809
4755230.559;39.972;-103.451;-36.769;24.065;176.057;-13.858;5.849;-15.944
4755230.567;48.131;-95.591;-29.244;33.863;181.384;-8.196;11.623;-12.219
4755230.575;54.650;-91.679;-22.054;38.818;186.600;-12.033;12.815;-18.626
4755230.583;53.681;-91.009;-22.240;35.949;181.533;-14.007;3.614;-22.314
4755230.591;56.997;-89.407;-21.495;39.488;174.269;-10.841;0.708;-22.538
4755230.599;59.679;-88.364;-20.228;40.792;175.573;-10.133;5.513;-28.796
4755230.607;55.097;-92.648;-27.791;37.141;162.683;-8.568;8.978;-28.126
4755230.615;57.332;-91.605;-27.269;42.431;167.415;-5.923;14.380;-25.034
4755230.623;47.125;-101.365;-36.322;29.877;158.548;-16.540;-4.023;-35.502
4755230.631;37.402;-111.684;-47.535;19.111;150.055;-21.383;-8.196;-42.319
4755230.639;29.393;-120.848;-59.903;14.268;145.026;-23.618;-12.070;-43.996
4755230.647;24.401;-127.666;-69.104;10.841;137.053;-20.303;-6.706;-42.804
4755230.655;11.064;-145.100;-85.868;-2.868;128.001;-22.575;-12.331;-44.554
4755230.663;-7.972;-164.509;-105.649;-22.352;116.341;-30.324;-20.452;-50.589
4755230.671;-9.425;-166.968;-108.853;-21.383;117.980;-27.753;-16.950;-48.988
4755230.679;-9.798;-164.621;-109.263;-18.962;115.149;-23.246;-10.245;-42.915
4755230.687;-13.188;-166.222;-112.839;-22.538;105.761;-27.195;-11.027;-49.807
4755230.695;-15.162;-172.034;-116.974;-26.673;97.379;-31.441;-14.491;-55.283
4755230.703;-12.964;-171.438;-114.739;-27.642;100.955;-28.946;-15.013;-49.472
4755230.711;-6.929;-168.122;-108.778;-23.134;108.145;-25.220;-11.288;-43.735
4755230.719;-6.109;-165.068;-114.031;-18.142;96.597;-26.897;-12.517;-44.517
4755230.727;2.719;-156.127;-106.134;-11.772;96.150;-23.134;-6.333;-43.549
4755230.735;34.310;-128.448;-75.884;17.658;119.582;-13.299;2.421;-32.969
4755230.686;53.942;-109.039;-58.599;33.155;126.101;-10.282;7.227;-32.037
4755230.694;72.792;-94.958;-43.213;45.635;131.205;-18.254;-2.496;-43.437
4755230.702;89.221;-78.566;-28.685;61.020;138.767;-14.156;3.316;-38.035
4755230.710;103.004;-63.963;-17.099;72.420;143.722;-10.356;4.917;-31.963
4755230.718;104.457;-66.087;-18.217;73.127;142.008;-2.682;10.468;-24.363
4755230.726;103.153;-65.602;-17.248;69.365;139.996;-1.043;11.399;-24.065
4755230.734;101.626;-67.204;-19.558;68.769;135.414;0.000;13.486;-21.048
4755230.742;98.124;-69.551;-27.120;66.608;123.568;-1.825;14.901;-23.283
4755230.750;96.858;-68.210;-28.722;64.969;117.533;-0.671;17.732;-22.277
4755230.758;97.267;-69.849;-28.051;63.851;117.682;1.080;16.987;-16.205
4755230.766;95.442;-70.073;-26.897;60.610;117.719;-8.419;5.811;-19.781
4755230.774;91.903;-77.672;-29.765;56.289;125.617;-19.595;-13.486;-26.859
4755230.782;96.224;-75.400;-25.854;59.567;131.503;-18.440;-12.927;-27.232
4755230.790;91.866;-79.423;-28.200;53.868;125.580;-14.715;-4.694;-26.114
4755230.798;89.109;-82.701;-29.765;50.925;119.880;-11.921;2.533;-25.705
4755230.806;85.980;-79.162;-30.436;48.764;111.647;-8.270;1.974;-20.079
4755230.814;87.544;-74.357;-26.412;53.011;107.586;2.310;8.941;-7.972
4755230.822;81.956;-77.114;-27.120;44.368;107.251;-1.080;4.172;-15.721
4755230.830;77.225;-75.176;-30.585;44.182;92.797;4.284;14.864;-9.537
4755230.838;61.207;-89.630;-47.982;29.430;67.651;-2.645;6.258;-14.603
4755230.846;58.115;-89.295;-46.119;22.016;76.704;1.192;15.125;-15.311
4755230.854;46.082;-97.938;-56.326;16.205;71.414;4.396;23.581;-12.256
4755230.862;43.511;-95.963;-56.587;17.285;75.325;7.451;15.125;0.969
4755230.870;34.608;-103.004;-65.416;8.978;71.153;2.235;15.758;-3.614
4755230.883;44.145;-97.938;-56.662;15.795;93.691;-3.278;14.305;-10.729
4755230.891;40.755;-99.540;-62.101;10.319;81.472;-7.674;9.574;-12.927
4755230.899;39.563;-104.606;-66.459;4.284;81.919;-4.880;18.738;-12.182
4755230.907;42.394;-102.557;-66.087;7.525;93.170;-7.264;8.121;-12.666
4755230.915;40.084;-105.537;-70.706;2.459;98.050;-4.731;5.029;-4.508
4755230.923;27.716;-121.482;-84.341;-8.754;94.920;-9.276;3.465;-0.745
4755230.931;44.443;-107.475;-65.714;12.852;118.203;-1.416;17.770;16.093
4755230.939;59.046;-99.167;-54.091;28.908;125.989;0.186;22.911;25.183
4755230.947;59.940;-101.179;-56.103;27.716;107.959;-11.101;10.729;18.850
4755230.955;58.748;-103.116;-56.401;30.845;104.085;-8.121;14.827;26.114
4755230.963;53.830;-111.833;-63.553;28.498;93.468;-14.044;12.666;17.434
4755230.971;49.323;-115.298;-67.726;23.097;90.748;-20.377;7.153;15.050
4755230.979;39.451;-128.374;-77.784;16.950;102.371;-24.252;3.316;13.448
4755230.987;36.545;-134.595;-83.148;21.793;129.677;-25.183;3.316;13.933
4755230.995;31.143;-141.971;-90.487;16.540;150.427;-29.989;-2.868;11.474
4755231.003;33.490;-144.169;-93.393;16.801;159.591;-29.057;-4.582;12.591
4755231.011;37.290;-137.985;-91.456;18.366;164.732;-30.622;-6.109;11.139
4755231.019;46.007;-132.509;-84.899;25.630;173.748;-28.126;-0.522;14.193
4755231.027;46.045;-133.328;-85.533;25.034;171.661;-29.132;1.267;13.337
4755231.035;51.558;-125.393;-77.151;30.771;170.432;-23.954;7.227;16.503
4755231.043;53.942;-124.276;-74.655;29.989;163.205;-29.057;3.055;12.219
4755231.051;72.457;-101.775;-55.805;46.976;169.724;-15.311;17.509;23.395
4755231.059;71.675;-104.010;-56.885;45.821;158.660;-15.050;18.068;22.352
4755231.067;74.245;-101.626;-53.048;45.151;157.803;-19.558;13.374;17.770
4755231.135;78.306;-97.193;-48.392;49.546;151.508;-20.936;10.952;18.850
4755231.143;86.874;-89.295;-39.861;59.307;167.191;-19.893;14.976;21.197
4755231.151;101.030;-67.502;-22.501;73.127;184.774;-9.760;26.710;29.467
4755231.159;101.253;-65.267;-18.664;72.941;185.966;-9.425;26.822;28.424
4755231.167;94.175;-68.545;-22.538;66.049;176.802;-15.646;20.489;21.495
4755231.175;79.833;-76.741;-33.490;53.830;155.605;-23.954;13.746;11.921
4755231.183;76.815;-80.205;-33.937;49.621;144.690;-27.791;7.227;10.356
4755231.191;79.013;-72.271;-32.075;51.521;141.375;-23.618;14.380;14.454
4755231.199;78.715;-72.718;-32.745;50.925;136.755;-26.189;13.039;11.809
4755231.207;74.357;-72.829;-34.571;47.237;123.829;-26.934;14.417;10.766
4755231.215;72.978;-68.508;-31.367;48.652;93.840;-19.632;19.260;17.025
4755231.223;70.035;-71.041;-32.149;46.566;41.947;-18.738;18.105;17.546
4755231.231;80.392;-53.197;-17.323;54.352;38.184;-14.529;26.636;23.283
4755231.239;92.909;-39.414;-2.123;64.559;47.237;-12.033;29.951;27.381
4755231.247;102.818;-25.779;11.288;71.749;55.023;-7.339;37.625;31.516
4755231.255;105.016;-19.334;16.317;71.898;59.046;-7.227;33.304;28.834
4755231.263;106.283;-15.534;16.987;72.904;59.567;-8.866;28.461;29.542
4755231.271;101.589;-12.740;15.572;69.551;53.085;-12.554;28.834;25.816
4755231.279;101.663;-14.566;20.415;66.124;65.379;-11.288;29.504;26.822
4755231.287;102.185;-6.817;22.054;68.061;66.943;-5.029;35.167;32.857
4755231.295;96.746;-3.874;19.372;60.014;63.963;-4.806;39.302;30.734
4755231.303;92.648;-7.898;17.397;55.358;69.886;-7.413;33.677;28.685
4755231.311;83.633;-7.004;4.061;52.042;41.761;-9.798;29.951;24.214
4755231.319;85.756;-7.898;7.190;50.701;51.782;-8.717;29.095;22.836
4755231.272;81.882;-8.903;4.098;46.305;56.960;-4.806;33.788;24.103
4755231.280;77.486;-7.115;1.490;48.615;58.711;-1.714;37.365;27.604
4755231.288;77.486;-5.141;-1.453;52.936;54.017;5.513;45.411;36.322
4755231.296;78.268;1.080;1.118;57.109;60.722;7.637;45.449;37.216
4755231.304;71.377;-8.568;-4.061;46.380;63.777;-0.894;39.749;26.561
4755231.312;65.118;-11.697;-13.262;43.102;55.954;-3.427;35.465;22.091
4755231.320;62.846;-13.001;-17.583;40.978;58.599;-0.596;39.898;25.593
4755231.328;72.755;-9.984;-11.623;51.260;82.292;10.692;49.099;40.345
4755231.336;65.342;-15.236;-22.054;45.933;77.784;11.176;41.388;37.067
4755231.344;59.307;-24.736;-33.043;40.643;71.265;8.345;40.494;32.559
4755231.352;68.434;-13.672;-23.954;50.738;84.192;16.093;55.619;42.580
4755231.360;67.092;-12.368;-22.426;48.243;85.458;13.784;42.506;43.176
4755231.368;61.281;-21.905;-29.430;43.064;83.782;-0.335;27.977;22.128
4755231.376;66.273;-12.033;-22.203;50.552;96.820;6.445;36.769;30.883
4755231.384;60.238;-20.601;-29.355;47.013;84.937;5.960;34.645;30.436
4755231.392;55.991;-23.693;-33.751;46.380;77.672;5.513;37.514;27.344
4755231.400;54.389;-23.507;-29.653;42.841;83.037;12.517;43.809;34.124
4755231.408;46.939;-32.671;-37.476;39.861;74.022;5.662;37.849;26.859
4755231.416;49.919;-23.842;-31.441;45.709;80.876;8.419;41.276;27.753
4755231.424;48.652;-27.455;-30.436;45.300;91.940;10.096;41.798;29.989
4755231.432;44.405;-29.542;-35.837;45.076;78.045;13.933;42.990;33.826
4755231.440;40.680;-31.516;-39.861;41.053;67.949;16.019;44.256;36.024
4755231.448;38.520;-37.998;-44.331;41.351;67.204;13.113;41.239;34.012
4755231.456;38.706;-33.490;-41.090;42.580;83.968;14.640;39.376;35.129
4755231.466;33.863;-40.494;-45.262;41.761;86.278;14.566;38.370;32.708
4755231.474;26.189;-49.509;-56.848;34.943;68.061;10.654;31.590;29.691
4755231.482;25.816;-49.882;-54.650;35.539;83.670;12.554;33.565;30.100
4755231.490;19.446;-60.201;-61.765;27.344;79.982;8.196;26.710;26.114
4755231.498;11.511;-64.187;-70.669;20.862;70.371;6.333;25.108;24.512
4755231.506;10.505;-67.055;-76.555;23.209;56.736;10.431;27.083;29.057
4755231.514;12.666;-64.187;-79.274;26.189;47.758;11.399;30.734;29.132
4755231.522;12.815;-64.075;-77.933;23.730;58.822;7.264;24.922;25.518
4755231.530;14.082;-67.018;-75.549;24.252;89.817;7.823;20.526;24.214
4755231.538;5.402;-67.651;-86.576;17.323;101.812;8.978;20.228;19.893
4755231.546;7.041;-66.534;-85.048;18.477;140.034;15.646;20.079;26.859
4755231.554;8.605;-61.281;-85.160;20.452;150.017;15.423;21.197;23.693
4755231.562;2.123;-63.255;-93.393;16.876;155.270;10.841;16.838;16.913
4755231.570;-17.285;-86.725;-116.415;-2.496;138.506;2.608;2.794;11.809
4755231.578;-24.475;-88.848;-123.866;-7.451;137.724;14.529;14.603;20.303
4755231.586;-38.557;-104.904;-137.575;-22.054;137.612;15.162;13.448;18.291
4755231.594;-49.882;-111.535;-148.751;-31.888;133.216;10.915;12.964;11.213
4755231.602;-62.361;-119.768;-158.437;-44.964;133.589;1.453;-1.341;0.112
4755231.610;-68.061;-128.895;-167.452;-52.564;126.921;-2.384;-7.674;-7.711
4755231.618;-64.895;-120.141;-164.770;-48.615;126.734;8.680;8.233;-2.161
4755231.626;-66.012;-124.350;-164.323;-53.160;139.289;7.525;4.508;-5.923
4755231.634;-69.030;-124.723;-167.638;-57.593;144.616;2.310;-2.645;-13.672
4755231.642;-77.486;-128.113;-177.510;-66.720;127.554;-3.502;-9.090;-23.320
4755231.650;-77.039;-129.715;-180.565;-64.634;118.613;-8.568;-10.617;-31.367
4755231.662;-65.342;-113.063;-166.595;-54.836;135.116;4.321;4.321;-22.277
4755231.670;-62.399;-111.051;-164.509;-53.979;137.351;9.760;8.568;-17.621
4755231.678;-62.622;-108.369;-163.205;-53.570;139.549;12.144;14.380;-16.131
4755231.686;-62.846;-101.440;-161.938;-50.850;136.793;14.156;17.695;-15.534
4755231.694;-64.895;-99.242;-168.048;-47.795;117.198;12.368;15.423;-15.050
4755231.702;-64.112;-88.997;-160.076;-48.317;130.534;20.601;30.920;-7.488
4755231.710;-69.290;-96.597;-164.583;-55.395;121.407;13.895;25.742;-17.062
4755231.718;-58.189;-88.289;-154.860;-46.082;130.869;19.036;24.736;-8.978
4755231.726;-63.218;-91.866;-161.231;-50.999;121.668;19.856;22.650;-5.923
4755231.734;-77.337;-111.870;-175.573;-67.279;111.610;14.454;20.340;-10.878
4755231.742;-79.721;-108.927;-174.195;-70.408;100.844;16.093;19.446;-9.499
4755231.750;-64.149;-95.144;-159.480;-53.979;111.014;16.540;29.542;-9.015
4755231.758;-65.714;-95.069;-163.801;-55.991;102.408;5.029;8.084;-13.523
4755231.766;-57.705;-84.639;-156.760;-47.311;101.589;1.825;2.310;-14.231
4755231.774;-45.225;-79.013;-148.527;-37.961;107.400;-1.751;-2.086;-16.876
4755231.782;-43.362;-72.755;-147.186;-38.221;106.916;1.602;6.147;-15.274
4755231.790;-51.633;-80.205;-155.531;-43.400;97.081;0.671;3.353;-16.503
4755231.798;-57.742;-83.037;-160.597;-48.466;86.315;-1.453;1.490;-18.887
4755231.806;-52.229;-77.076;-152.104;-42.506;89.481;2.794;6.780;-14.231
4755231.814;-47.907;-77.300;-148.639;-37.365;84.601;-1.453;-0.820;-17.211
4755231.822;-34.459;-59.940;-133.477;-23.060;88.289;6.147;9.313;-12.033
4755231.830;-30.249;-58.711;-127.517;-20.675;87.917;6.407;5.141;-11.958
4755231.838;-25.108;-52.713;-120.625;-16.578;84.713;13.188;11.474;-7.637
4755231.846;-27.567;-51.707;-120.215;-17.583;68.881;13.150;12.964;-8.941
4755231.842;-24.959;-54.911;-115.857;-16.764;70.781;11.697;9.052;-8.568
4755231.850;-20.526;-46.305;-109.859;-13.262;81.472;17.732;15.832;-3.614
4755231.858;-19.073;-49.062;-107.810;-12.405;90.897;18.217;17.472;-4.396
4755231.866;-17.174;-46.045;-104.718;-9.425;91.791;22.240;20.228;-0.484
4755231.874;-18.142;-43.847;-100.769;-10.207;92.685;26.040;25.705;1.676
4755231.882;-19.222;-48.317;-100.322;-11.362;93.170;25.369;24.959;3.055
4755231.890;-18.813;-43.027;-96.522;-11.325;91.083;26.748;29.020;2.906
4755231.898;-17.248;-44.629;-95.032;-10.803;89.929;20.340;22.650;-1.267
4755231.906;-16.354;-42.170;-91.270;-10.021;88.662;19.222;20.340;-1.118
4755231.914;-17.732;-38.929;-87.582;-12.331;86.799;17.956;18.626;-4.284
4755231.922;-14.603;-38.147;-83.409;-7.711;84.713;19.334;16.950;-1.416
4755231.930;-14.566;-30.883;-78.045;-6.184;80.802;26.599;27.977;2.384
4755231.938;-15.423;-34.533;-75.661;-7.674;73.127;30.957;39.488;6.780
4755231.946;-25.332;-41.947;-81.696;-16.317;52.936;24.475;22.613;0.522
4755231.954;-27.008;-39.041;-77.747;-18.179;39.488;21.942;16.764;-2.421
4755231.962;-23.507;-42.692;-69.551;-18.179;41.127;14.976;7.190;-7.227
4755231.970;-32.075;-46.045;-77.300;-26.934;-18.887;13.225;9.239;-9.649
4755231.978;-37.514;-54.836;-82.441;-29.430;-59.009;12.629;9.276;-6.780
4755231.986;-50.515;-67.092;-95.889;-39.376;-79.647;10.021;4.545;-7.339
4755231.994;-55.432;-69.737;-97.007;-42.282;-74.506;9.947;8.307;-9.984
4755232.002;-49.770;-69.216;-91.866;-35.241;-62.995;12.629;12.405;-9.723
4755232.010;-34.124;-49.211;-74.208;-18.626;-45.300;25.518;25.220;1.565
4755232.018;-38.929;-60.350;-81.062;-28.200;-47.348;17.397;15.534;-5.662
4755232.026;-37.923;-62.771;-81.882;-25.518;-50.142;20.266;20.452;-2.719
4755232.096;-30.287;-60.759;-70.222;-17.583;-29.244;26.636;27.344;0.931
4755232.104;-35.316;-76.443;-79.237;-21.718;-34.943;16.578;9.052;-5.476
4755232.112;-41.537;-79.237;-88.178;-26.971;-37.774;17.621;9.909;-6.557
4755232.120;-36.284;-80.690;-82.590;-21.309;-6.482;19.521;14.566;-6.035
4755232.128;-38.370;-81.062;-88.289;-19.595;-10.170;21.718;18.626;-2.533
4755232.136;-45.300;-84.937;-93.654;-24.661;-24.661;24.699;20.787;2.496
4755232.144;-65.342;-112.504;-111.274;-44.517;-35.390;17.770;12.517;-0.410
4755232.152;-79.498;-119.954;-123.829;-55.954;-46.678;17.770;17.509;-3.241
4755232.160;-84.899;-128.672;-129.528;-59.605;-27.940;14.827;11.697;-2.533
4755232.168;-83.372;-125.915;-129.938;-57.891;18.589;17.434;15.981;1.229
4755232.176;-91.717;-131.577;-139.363;-69.998;38.743;6.184;4.135;-12.480
4755232.184;-89.593;-133.216;-138.730;-69.775;47.274;3.204;-0.522;-14.976
4755232.192;-87.097;-124.089;-134.371;-70.892;56.699;9.499;0.335;-6.892
4755232.200;-85.607;-123.493;-133.477;-68.285;58.003;6.929;-1.080;-11.027
4755232.208;-84.229;-120.215;-132.248;-69.141;57.071;13.113;6.557;-8.531
4755232.216;-80.280;-111.908;-126.287;-68.024;63.032;19.521;16.913;-5.625
4755232.224;-80.839;-115.335;-129.119;-72.084;60.312;13.635;8.494;-9.313
4755232.232;-76.629;-105.426;-124.946;-69.998;60.797;18.738;10.319;-3.204
4755232.240;-77.561;-109.635;-126.213;-71.749;57.854;15.050;7.004;-6.221
4755232.248;-83.074;-114.478;-131.987;-77.970;49.733;12.554;5.998;-6.706
4755232.256;-86.091;-114.590;-131.465;-82.441;48.354;12.703;7.078;-7.711
4755232.264;-87.321;-119.172;-133.403;-84.229;44.405;12.442;8.270;-8.792
4755232.272;-78.678;-105.202;-120.886;-77.710;49.844;18.701;18.291;-3.725
4755232.280;-66.757;-94.548;-110.641;-65.826;51.409;20.862;17.472;-1.453
4755232.218;-60.014;-85.235;-103.787;-60.163;45.896;20.638;16.764;-0.596
4755232.226;-54.650;-76.965;-97.938;-56.699;38.110;19.819;18.291;-1.825
4755232.234;-51.856;-77.300;-95.107;-55.581;43.847;16.317;10.543;-3.949
4755232.242;-49.807;-67.875;-90.376;-53.383;55.544;29.206;22.687;8.829
4755232.250;-53.979;-74.208;-93.170;-57.258;59.679;25.705;18.030;7.898
4755232.258;-57.109;-73.314;-94.883;-58.636;65.118;16.987;12.033;-2.868
4755232.266;-65.789;-79.423;-101.849;-68.471;56.215;13.374;8.829;-8.419
4755232.274;-71.116;-89.295;-107.512;-74.767;53.234;7.004;2.608;-13.262
4755232.282;-69.812;-80.578;-103.302;-72.643;65.230;15.385;10.096;-4.582
4755232.290;-72.345;-85.421;-105.388;-75.623;67.428;15.162;7.898;-15.981
4755232.298;-92.201;-101.477;-124.797;-93.132;56.736;8.158;1.006;-42.357
4755232.306;-100.918;-101.775;-134.446;-95.554;40.270;-1.639;-5.551;-59.120
4755232.314;-88.923;-95.554;-125.319;-84.564;50.813;-1.416;-7.711;-57.183
4755232.322;-90.785;-89.891;-125.952;-83.372;39.376;0.820;-8.345;-54.948
4755232.330;-115.670;-116.117;-149.608;-106.320;7.674;-11.884;-24.959;-64.261
4755232.338;-121.556;-118.203;-156.462;-109.635;-4.880;-14.156;-21.830;-65.900
4755232.346;-115.670;-107.065;-149.049;-102.744;-0.596;-4.917;-12.890;-56.662
4755232.354;-110.082;-102.930;-144.020;-94.697;10.096;-5.402;-13.374;-57.705
4755232.362;-105.910;-92.797;-140.332;-90.152;18.179;7.302;2.868;-48.988
4755232.370;-110.716;-104.383;-147.223;-99.577;11.958;-4.433;-10.878;-58.264
4755232.378;-107.810;-101.887;-145.212;-96.634;11.846;-5.849;-8.829;-59.009
4755232.386;-103.787;-97.565;-141.300;-92.648;14.342;-1.490;-0.782;-56.289
4755232.394;-102.185;-102.893;-143.498;-92.462;11.176;-2.645;-7.674;-55.432
4755232.402;-104.159;-99.875;-143.722;-97.156;7.637;-3.539;-11.958;-54.762
4755232.428;-107.214;-107.661;-146.180;-104.494;3.912;-11.027;-25.220;-62.287
4755232.436;-104.867;-104.569;-144.131;-102.855;2.459;-5.513;-18.291;-56.662
4755232.444;-104.606;-101.477;-140.779;-103.712;0.186;-4.433;-15.981;-53.197
4755232.452;-106.581;-108.741;-142.902;-108.778;-5.700;-12.480;-27.455;-57.407
4755232.460;-99.838;-96.112;-133.514;-104.085;-2.235;-2.906;-12.442;-48.392
4755232.468;-98.087;-94.995;-131.465;-103.675;-4.955;-2.496;-7.078;-46.864
4755232.476;-97.454;-93.132;-130.907;-105.090;-7.190;-0.037;-2.161;-43.884
4755232.484;-90.972;-86.129;-123.568;-99.055;-5.141;3.166;-0.261;-38.221
4755232.492;-73.686;-75.698;-108.667;-84.713;10.282;2.272;-5.774;-36.433
4755232.500;-69.812;-65.416;-106.357;-81.807;11.623;2.012;-1.974;-37.886
4755232.508;-59.232;-57.295;-95.516;-71.116;35.465;-1.118;-4.657;-42.319
4755232.516;-54.911;-53.048;-93.095;-71.302;39.972;3.278;1.937;-46.492
4755232.524;-48.839;-44.107;-83.447;-65.267;55.842;7.115;4.098;-49.211
4755232.532;-48.392;-46.752;-83.484;-63.106;60.797;6.892;1.527;-49.919
4755232.540;-52.266;-41.761;-87.321;-61.952;55.209;14.789;10.617;-44.741
4755232.548;-65.528;-54.426;-103.787;-71.563;30.920;4.098;1.006;-55.432
4755232.556;-71.898;-58.785;-109.114;-75.214;30.771;2.235;0.559;-58.301
4755232.564;-68.322;-51.893;-102.036;-71.153;44.592;9.350;9.276;-51.744
4755232.572;-67.689;-55.172;-102.110;-70.706;48.690;5.700;2.012;-52.452
4755232.580;-69.961;-52.862;-99.838;-72.569;56.326;6.035;5.551;-54.203
4755232.588;-72.271;-55.172;-104.643;-72.345;39.265;-1.602;-4.619;-62.808
4755232.596;-72.457;-52.825;-101.924;-72.494;47.125;0.857;-4.359;-59.642
4755232.604;-68.992;-45.076;-97.156;-66.683;42.468;10.505;8.345;-51.819
4755232.612;-71.265;-50.515;-100.248;-65.789;31.181;4.321;-0.037;-57.407
4755232.591;-71.190;-45.262;-101.328;-64.783;24.028;6.184;5.066;-56.848
4755232.599;-62.548;-39.712;-93.505;-56.066;32.224;2.570;-2.608;-58.748
4755232.607;-62.399;-37.514;-95.256;-54.762;28.163;4.806;-1.527;-55.879
4755232.615;-65.975;-37.588;-96.597;-56.773;27.828;4.731;1.900;-56.699
4755232.623;-68.732;-45.262;-97.565;-60.871;31.218;2.608;-1.602;-55.470
4755232.631;-74.580;-44.145;-98.273;-64.224;38.669;9.798;5.811;-48.280
4755232.639;-82.627;-55.321;-109.263;-73.574;17.956;2.347;-1.602;-58.226
4755232.647;-89.742;-61.728;-119.284;-80.168;2.831;0.149;-3.949;-59.567
4755232.655;-87.060;-54.725;-115.745;-73.425;10.543;5.029;3.017;-55.283
4755232.663;-85.160;-55.730;-113.435;-70.632;14.454;0.969;-2.049;-56.550
4755232.671;-87.954;-52.154;-114.627;-72.159;11.437;6.258;7.041;-51.595
4755232.679;-91.195;-58.189;-119.321;-76.182;-0.112;-3.390;-8.717;-57.518
4755232.687;-88.066;-53.048;-114.143;-72.010;7.115;-0.298;-3.166;-55.060
4755232.695;-84.452;-44.964;-108.108;-64.522;9.313;2.496;2.123;-53.123
4755232.703;-84.452;-49.509;-108.518;-64.746;5.029;-4.359;-6.892;-58.375
4755232.711;-87.358;-47.646;-108.927;-69.514;1.863;-2.235;-1.043;-57.779
4755232.719;-80.131;-42.245;-101.030;-63.404;14.156;0.894;-1.639;-52.042
4755232.727;-82.254;-42.431;-106.357;-64.149;-0.075;-3.651;-4.843;-58.822
4755232.735;-80.392;-36.955;-103.340;-61.095;1.006;-0.112;0.298;-55.954
4755232.743;-77.747;-35.018;-99.838;-53.532;8.643;-3.874;-4.433;-55.991
4755232.751;-69.998;-24.140;-92.573;-46.603;-0.671;-3.390;-1.118;-55.395
4755232.759;-58.785;-13.709;-84.229;-33.043;-6.184;-6.892;-0.410;-62.138
4755232.767;-43.400;5.364;-65.789;-15.981;13.262;2.496;5.476;-50.254
4755232.775;-46.305;11.437;-71.600;-13.821;-5.625;4.098;7.190;-51.931
4755232.817;-51.074;3.166;-78.417;-19.036;-19.222;-7.860;-3.055;-63.553
4755232.825;-36.508;21.942;-57.705;-0.335;7.302;6.557;11.697;-47.088
4755232.833;-42.133;13.001;-63.479;-7.190;-6.668;6.184;11.921;-48.392
4755232.841;-56.550;0.112;-76.294;-17.360;-22.464;-9.835;-5.625;-65.416
4755232.849;-63.591;-5.327;-78.343;-21.085;-20.042;-9.201;-8.009;-63.889
4755232.857;-62.548;-8.121;-75.176;-18.775;-10.021;-13.039;-13.560;-63.516
4755232.865;-61.356;-1.788;-74.804;-15.721;-20.415;-8.866;-6.109;-60.163
4755232.873;-70.781;-12.517;-83.782;-21.830;-36.545;-24.885;-19.334;-77.449
4755232.881;-70.669;-9.537;-83.819;-18.477;-33.453;-12.703;-5.551;-64.634
4755232.889;-73.649;-11.586;-84.639;-23.730;-33.118;-15.683;-13.001;-67.316
4755232.897;-78.790;-20.303;-87.693;-28.349;-29.355;-22.203;-20.415;-70.073
4755232.905;-90.897;-28.573;-100.397;-38.184;-44.219;-22.091;-19.930;-69.775
4755232.913;-92.871;-33.751;-103.749;-40.159;-52.378;-28.908;-25.742;-75.549
4755232.921;-84.825;-27.716;-93.766;-33.602;-42.990;-26.189;-21.942;-72.159
4755232.929;-70.147;-10.803;-78.194;-18.328;-29.765;-16.764;-12.852;-63.218
4755232.937;-64.932;-11.362;-73.761;-16.093;-29.132;-22.613;-26.524;-66.124
4755232.945;-70.594;-13.895;-79.125;-22.277;-36.992;-26.263;-27.567;-66.981
4755232.953;-70.967;-16.354;-80.913;-22.613;-44.033;-35.577;-30.994;-78.678
4755232.961;-60.461;-3.502;-70.147;-9.835;-35.428;-28.685;-19.409;-70.706
4755232.969;-57.556;3.055;-65.044;-6.743;-31.441;-19.446;-10.096;-65.081
4755232.977;-59.679;-1.416;-66.198;-9.909;-30.622;-21.346;-14.156;-66.347
4755232.985;-65.751;-2.682;-69.924;-15.348;-35.018;-16.764;-10.952;-60.089
4755232.993;-69.477;-4.508;-72.718;-16.987;-33.639;-17.919;-15.385;-58.487
4755233.001;-70.184;-3.651;-73.425;-17.993;-19.744;-9.350;-11.697;-42.468
4755233.072;-70.259;-2.682;-71.637;-21.122;-12.442;-6.668;-6.966;-41.053
4755233.080;-77.933;-12.480;-73.649;-33.230;-16.317;-21.756;-14.491;-60.424
4755233.088;-82.925;-10.133;-72.382;-37.141;-26.971;-16.652;-8.047;-54.576
4755233.096;-73.537;-0.671;-59.158;-25.928;-26.673;-5.811;-6.519;-38.035
4755233.104;-65.379;9.015;-47.684;-16.801;-34.459;9.164;12.219;-23.805
4755233.112;-58.189;20.415;-33.677;-11.064;-34.608;18.515;29.542;-14.231
4755233.120;-59.381;19.409;-31.106;-12.815;-46.566;6.147;-4.917;-22.575
4755233.128;-54.911;31.963;-21.681;-4.806;-43.176;20.191;14.193;-10.915
4755233.136;-43.251;46.082;-6.072;9.350;-38.967;33.677;36.210;1.937
4755233.144;-45.821;42.990;-8.121;8.419;-59.642;34.384;40.643;2.272
4755233.152;-50.813;36.061;-10.803;2.906;-70.035;30.249;29.095;1.825
4755233.160;-56.624;24.810;-17.062;-0.484;-82.701;20.638;15.385;-2.719
4755233.168;-50.850;30.398;-7.823;5.215;-98.087;28.536;27.753;8.792
4755233.176;-53.309;25.369;-11.548;3.017;-139.810;15.795;19.856;-3.539
4755233.184;-45.151;31.590;-3.241;11.809;-131.465;19.148;23.060;-1.304
4755233.192;-47.497;25.220;-6.557;7.674;-131.167;16.056;12.033;-4.359
4755233.200;-40.829;26.487;-3.502;17.472;-117.905;13.970;16.540;-9.686
4755233.208;-42.692;26.897;-4.806;14.752;-122.115;21.383;24.065;-5.625
4755233.216;-38.743;31.181;0.522;21.085;-116.602;21.383;21.495;-5.253
4755233.224;-28.834;38.967;13.784;33.118;-93.915;27.977;29.691;3.092
4755233.232;-31.367;32.075;9.276;31.292;-98.944;23.209;23.097;0.894
4755233.240;-27.269;30.883;9.686;36.769;-89.258;14.566;16.354;-9.201
4755233.248;-20.117;39.786;13.039;48.280;-83.335;24.065;28.051;0.112
4755233.256;-34.980;18.142;-0.037;33.081;-83.633;17.434;23.209;-6.333
4755233.403;-67.241;-16.652;-29.653;2.570;-99.130;1.714;6.817;-19.036
4755233.411;-76.592;-24.848;-37.886;-3.166;-96.522;1.788;6.333;-17.211
4755233.419;-77.672;-30.249;-38.892;-4.172;-94.138;4.321;-0.261;-11.474
4755233.427;-84.527;-36.806;-45.858;-9.462;-114.925;1.714;2.049;-19.297
4755233.435;-82.590;-38.370;-44.517;-8.494;-120.029;-1.527;-1.043;-25.034
4755233.443;-78.268;-35.949;-40.531;-6.743;-118.725;-5.923;-8.196;-27.381
4755233.451;-68.694;-27.679;-30.361;1.155;-110.827;0.112;1.341;-20.899
4755233.459;-65.081;-27.493;-28.275;4.657;-111.535;-0.410;1.416;-21.309
4755233.467;-69.439;-30.212;-33.639;-1.080;-119.954;1.304;8.680;-23.060
4755233.475;-70.371;-35.167;-31.888;-6.445;-113.174;-3.800;1.192;-26.375
4755233.483;-64.410;-28.685;-27.306;-2.310;-117.198;0.037;1.751;-20.415
4755233.491;-55.507;-18.701;-18.328;4.806;-115.335;1.974;3.912;-20.117
4755233.499;-43.437;-10.580;-9.947;13.225;-108.778;-0.112;4.917;-22.985
4755233.507;-29.467;4.843;1.341;25.518;-102.110;6.370;13.560;-18.589
4755233.515;-27.344;5.737;3.763;26.450;-102.818;0.373;-0.633;-22.054
4755233.523;-25.146;6.817;6.855;26.040;-92.387;1.676;1.751;-19.558
4755233.531;-26.375;5.513;4.023;23.879;-98.869;2.459;4.768;-19.670
4755233.539;-30.585;-0.894;-3.986;18.626;-113.510;-2.198;0.745;-25.705
4755233.547;-26.748;3.837;2.235;21.234;-96.783;4.955;8.009;-18.552
4755233.555;-28.610;-0.335;-0.894;21.458;-99.652;1.602;-1.527;-17.509
4755233.563;-37.067;-11.250;-11.250;10.803;-111.237;-6.966;-8.494;-24.140
4755233.571;-35.726;-9.984;-9.723;11.176;-108.704;-1.192;0.633;-17.174
4755233.579;-41.127;-18.477;-16.727;3.427;-111.870;-5.625;-5.141;-22.911
4755233.587;-47.162;-24.177;-24.103;-4.917;-114.739;-4.880;-1.565;-24.624
4755233.568;-53.495;-27.940;-33.304;-4.023;-124.462;-13.970;-11.139;-31.888
4755233.576;-53.979;-28.685;-33.602;-4.433;-126.399;-18.366;-10.654;-36.396
4755233.584;-48.019;-22.240;-28.051;-0.335;-125.729;-24.848;-17.807;-44.033
4755233.592;-35.837;-11.511;-17.919;12.144;-119.954;-27.642;-28.573;-44.294
4755233.600;-23.805;2.719;-6.482;24.773;-111.237;-20.377;-17.919;-36.843
4755233.608;-20.079;5.588;-0.969;27.902;-107.586;-21.793;-18.999;-39.674
4755233.616;-18.775;5.290;3.204;24.848;-105.165;-24.252;-23.469;-41.127
4755233.624;-15.236;6.892;10.617;21.942;-83.186;-26.040;-22.352;-40.792
4755233.632;-7.227;14.007;20.526;31.479;-60.908;-22.277;-16.615;-35.949
4755233.640;-7.264;17.062;19.632;33.751;-68.024;-20.750;-16.429;-33.490
4755233.648;-9.127;13.821;18.589;27.046;-71.712;-27.120;-25.369;-39.525
4755233.656;-7.600;15.460;22.687;26.077;-64.187;-23.060;-22.240;-33.267
4755233.664;-3.651;21.048;26.189;32.149;-60.163;-18.552;-15.199;-33.975
4755233.672;4.433;25.146;34.720;37.476;-48.093;-17.732;-15.348;-32.708
4755233.680;7.004;30.175;34.533;41.462;-52.974;-13.374;-9.388;-27.195
4755233.688;3.316;24.773;32.261;35.763;-46.827;-19.558;-18.291;-32.037
4755233.696;-4.917;15.646;24.401;25.816;-50.776;-26.152;-25.928;-38.408
4755233.704;-9.835;12.815;23.395;22.277;-37.439;-20.154;-18.105;-32.261
4755233.712;-30.510;-7.153;-0.112;4.247;-59.642;-25.891;-22.575;-38.184
4755233.720;-47.423;-23.283;-16.056;-14.789;-67.018;-24.512;-16.429;-38.706
4755233.728;-55.917;-34.235;-24.363;-25.965;-66.981;-33.490;-26.450;-48.056
4755233.736;-57.220;-35.502;-26.785;-26.636;-60.201;-33.230;-31.628;-42.655
4755233.744;-64.783;-41.910;-37.812;-32.187;-80.913;-37.961;-36.024;-48.280
4755233.752;-71.451;-49.882;-46.268;-39.525;-100.099;-45.486;-42.431;-55.507
4755233.808;-73.723;-50.217;-46.715;-41.425;-97.156;-46.790;-42.170;-56.960
4755233.816;-68.247;-46.380;-43.884;-36.694;-89.891;-47.795;-43.325;-59.456
4755233.824;-66.236;-45.896;-46.045;-35.875;-80.690;-43.847;-44.629;-54.725
4755233.832;-64.820;-45.449;-45.933;-36.061;-59.716;-35.651;-38.445;-45.970
4755233.840;-68.992;-52.229;-49.509;-43.176;-31.702;-40.755;-45.039;-48.466
4755233.848;-67.726;-52.154;-47.833;-46.678;-12.703;-39.935;-42.729;-47.572
4755233.856;-68.210;-55.470;-48.317;-51.968;-12.182;-42.245;-45.002;-49.695
4755233.864;-64.410;-51.372;-44.964;-50.031;-10.431;-35.018;-31.628;-44.703
4755233.872;-63.181;-49.062;-42.543;-49.919;-10.356;-30.026;-25.034;-39.265
4755233.880;-70.892;-59.530;-48.652;-62.808;-17.770;-38.333;-37.439;-45.858
4755233.888;-70.445;-59.418;-46.268;-66.794;-12.442;-38.855;-40.270;-44.666
4755233.896;-74.469;-63.144;-49.658;-72.308;-14.193;-45.151;-47.795;-50.515
4755233.904;-70.222;-55.283;-47.162;-68.098;-8.643;-44.145;-40.643;-50.291
4755233.912;-54.576;-35.577;-26.599;-52.601;16.801;-35.949;-28.163;-42.282
4755233.920;-57.444;-35.800;-29.393;-55.172;1.937;-42.953;-40.270;-47.013
4755233.928;-60.089;-37.588;-26.524;-63.069;4.321;-37.588;-39.376;-44.182
4755233.936;-58.971;-29.318;-24.848;-51.931;7.041;-29.132;-30.175;-37.886
4755233.944;-62.212;-27.120;-28.014;-55.358;-7.488;-30.212;-27.306;-39.749
4755233.952;-55.619;-15.013;-19.409;-47.833;-0.894;-29.802;-24.475;-40.531
4755233.960;-55.470;-9.723;-22.873;-46.901;-15.870;-35.129;-26.971;-44.294
4755233.968;-47.125;0.112;-15.274;-40.270;-2.794;-32.857;-26.189;-40.345
4755233.976;-39.078;4.098;-10.803;-31.777;4.731;-38.818;-34.086;-48.876
4755233.984;-33.639;2.608;-12.964;-28.834;-0.112;-41.910;-38.743;-51.148
4755233.992;-28.685;3.688;-13.374;-22.426;5.066;-37.178;-30.287;-47.050
4755234.000;-29.989;-1.676;-19.632;-23.283;1.416;-42.506;-34.943;-53.570
4755234.008;-25.369;2.049;-20.377;-19.595;3.912;-43.772;-38.296;-53.719
4755234.016;-26.040;-1.341;-26.599;-19.446;2.980;-39.451;-38.072;-48.056
4755234.024;-25.854;-3.427;-29.095;-21.607;7.264;-33.639;-35.502;-41.053
4755234.032;-22.911;-3.539;-26.934;-25.108;5.774;-40.904;-42.431;-45.709
4755234.040;-26.263;-5.662;-32.373;-28.647;-6.184;-43.176;-47.237;-45.598
4755234.048;-34.608;-9.723;-41.611;-37.253;-13.858;-41.872;-45.970;-42.729
4755234.056;-37.812;-14.789;-46.231;-40.233;-10.319;-47.386;-51.111;-46.939
4755234.064;-41.984;-22.352;-51.856;-48.652;-12.182;-50.217;-56.513;-50.440
4755234.072;-48.056;-26.673;-58.264;-57.891;-23.469;-47.386;-56.773;-48.392
4755234.080;-42.282;-19.334;-50.776;-53.681;-14.864;-40.494;-50.291;-41.053
4755234.088;-39.190;-14.715;-45.858;-54.613;-7.376;-38.184;-48.764;-37.886
4755234.096;-45.486;-20.303;-50.850;-63.218;-12.405;-45.262;-52.750;-45.113
4755234.104;-50.999;-24.475;-55.954;-71.041;-21.942;-46.715;-54.166;-44.592
4755234.112;-47.162;-18.105;-49.286;-69.551;-14.938;-41.984;-51.595;-40.606
4755234.120;-47.460;-17.844;-48.541;-76.182;-12.517;-39.563;-49.807;-38.221
4755234.128;-53.868;-11.101;-56.885;-78.939;-21.346;-41.537;-48.727;-42.766
4755234.136;-44.815;8.307;-51.558;-62.697;-22.203;-40.717;-43.921;-43.586
4755234.144;-33.528;22.762;-44.890;-50.068;-22.650;-31.665;-31.367;-35.726
4755234.152;-25.555;32.671;-38.445;-40.233;-14.715;-30.808;-35.428;-32.410
4755234.160;-22.687;35.316;-39.600;-35.241;-20.638;-40.829;-51.223;-38.370
4755234.168;-18.701;42.394;-41.164;-29.504;-33.118;-42.096;-49.621;-42.804
4755234.176;-9.164;53.309;-32.261;-19.409;-24.401;-39.153;-41.313;-42.506
4755234.184;-4.880;60.350;-29.393;-10.692;-15.534;-32.559;-34.310;-34.831
4755234.153;-13.374;53.942;-39.898;-16.242;-26.561;-36.731;-40.084;-39.116
4755234.161;-12.368;54.576;-42.394;-13.188;-35.055;-40.568;-45.635;-39.116
4755234.169;-9.388;61.430;-40.568;-5.290;-32.112;-35.018;-39.414;-34.422
4755234.177;-14.119;59.046;-46.752;-5.551;-34.943;-37.663;-42.506;-36.769
4755234.185;-22.724;53.719;-58.189;-7.972;-48.503;-39.898;-40.010;-40.382
4755234.193;-32.261;44.629;-65.602;-16.950;-50.478;-37.402;-37.700;-38.892
4755234.201;-54.948;23.656;-88.736;-35.651;-74.320;-48.652;-54.799;-46.678
4755234.209;-51.968;26.412;-84.490;-34.310;-69.402;-44.741;-48.466;-44.741
4755234.217;-48.988;27.642;-77.337;-33.677;-59.307;-37.253;-44.331;-34.682
4755234.225;-70.296;9.276;-96.858;-52.825;-81.249;-48.578;-53.681;-44.107
4755234.233;-61.281;19.372;-86.054;-43.213;-68.024;-36.806;-41.649;-32.708
4755234.241;-63.665;14.268;-85.533;-49.137;-64.373;-43.325;-52.005;-40.159
4755234.249;-58.487;21.644;-77.151;-42.245;-48.988;-39.227;-45.970;-41.947
4755234.257;-56.066;23.432;-75.810;-40.159;-52.601;-39.339;-48.876;-40.010
4755234.265;-45.784;32.634;-63.702;-32.596;-43.437;-35.316;-41.649;-36.918
4755234.273;-40.904;38.147;-55.730;-27.940;-36.694;-36.955;-40.457;-38.780
4755234.281;-29.318;47.386;-45.076;-20.228;-32.485;-34.645;-44.182;-33.490
4755234.289;-18.664;59.269;-31.665;-12.852;-18.179;-24.810;-34.682;-22.873
4755234.297;-9.388;66.683;-19.670;-6.296;-4.917;-21.867;-30.249;-20.005
4755234.305;-12.591;62.585;-21.346;-11.958;-7.004;-33.304;-38.818;-29.951
4755234.313;-6.221;68.396;-12.890;-7.823;3.874;-35.465;-38.221;-31.441
4755234.321;4.992;79.051;-1.490;2.831;29.765;-25.295;-24.736;-20.228
4755234.329;7.376;82.552;2.384;6.184;37.625;-24.028;-20.489;-19.856
4755234.337;8.121;80.839;5.439;4.619;39.451;-24.326;-22.762;-18.366
4755234.346;13.262;85.123;11.995;6.929;43.102;-16.876;-16.317;-10.766
4755234.354;7.190;79.051;8.009;-1.155;38.147;-17.732;-18.999;-9.499
4755234.362;3.427;74.059;9.388;-6.929;38.892;-15.125;-20.564;-3.316
4755234.370;13.150;85.644;23.581;3.800;51.334;2.719;4.359;13.486
4755234.378;3.688;77.263;16.913;-4.917;41.276;-5.998;-6.855;4.433
4755234.386;1.080;76.406;16.913;-8.717;32.522;-9.127;-10.468;1.043
4755234.394;-4.247;72.718;14.231;-13.299;26.710;-10.617;-12.703;3.688
4755234.402;2.049;77.672;22.538;-5.141;33.975;-6.892;-12.219;9.313
4755234.410;6.557;80.280;32.671;-2.235;46.454;-0.745;-7.525;15.758
4755234.418;-3.986;70.184;23.730;-11.250;25.705;-6.370;-11.139;10.915
4755234.426;-13.337;60.722;17.844;-18.030;19.409;-17.248;-27.120;3.651
4755234.434;-16.838;55.656;17.546;-20.489;22.314;-13.411;-20.862;8.643
4755234.442;-28.796;42.096;7.488;-29.914;17.062;-16.652;-24.177;7.190
4755234.450;-32.671;39.898;7.600;-29.430;21.793;-11.362;-14.603;16.689
4755234.458;-37.216;35.353;4.098;-29.989;14.678;-14.491;-12.442;9.611
4755234.466;-36.210;36.471;7.972;-26.971;27.940;-10.803;-15.721;14.603
4755234.474;-34.533;37.327;11.064;-24.848;33.528;-6.966;-13.188;21.197
4755234.482;-45.411;24.028;-2.049;-39.451;13.076;-9.909;-15.870;16.429
4755234.490;-40.866;34.980;2.533;-25.444;22.165;3.166;-3.166;26.710
4755234.498;-24.363;50.217;18.328;-5.849;29.430;-1.453;-9.686;17.956
4755234.506;-15.236;57.742;25.555;3.316;34.571;1.565;-8.866;22.501
4755234.514;-8.531;63.442;33.602;13.560;45.225;8.382;-1.043;27.753
4755234.522;-17.993;51.968;24.289;10.431;43.809;3.316;-8.792;24.438
4755234.530;-20.079;50.366;23.395;12.405;47.982;-0.298;-4.284;19.968
4755234.527;-23.171;44.033;21.607;10.096;54.725;-4.284;-7.041;19.930
4755234.535;-40.494;22.762;2.719;-8.158;36.173;-15.162;-21.905;13.188
4755234.543;-45.970;15.758;-1.453;-12.815;24.363;-13.709;-22.873;16.578
4755234.551;-41.611;20.713;1.527;-7.749;19.111;-14.231;-26.003;15.311
4755234.559;-34.645;28.536;9.872;-3.688;23.544;-11.027;-24.028;17.211
4755234.567;-26.338;34.943;19.111;1.080;29.728;-8.643;-13.523;17.844
4755234.575;-18.589;42.208;28.685;5.364;37.439;-0.820;-9.798;29.020
4755234.583;-14.342;46.752;35.875;6.966;44.703;-4.731;-13.411;23.916
4755234.591;-8.270;51.856;38.669;13.523;39.637;-4.508;-11.288;25.779
4755234.599;-3.353;56.177;41.537;19.781;34.310;1.863;-2.272;29.206
4755234.607;5.253;59.903;52.005;21.197;48.093;2.868;-7.376;32.522
4755234.615;18.515;71.302;65.863;31.553;60.387;10.952;0.745;40.568
4755234.623;27.306;79.349;73.314;40.606;65.640;21.979;11.139;51.372
4755234.631;16.131;66.347;59.567;31.106;47.721;15.013;5.625;42.506
4755234.639;8.196;57.518;48.839;20.191;33.416;7.972;3.949;33.863
4755234.647;4.731;50.403;43.996;11.697;26.301;-5.849;-9.499;20.862
4755234.655;12.368;55.805;52.713;15.646;35.875;-2.272;-2.086;21.607
4755234.663;16.615;59.828;55.321;18.328;42.059;4.880;0.335;30.473
4755234.671;15.162;54.985;53.719;18.030;50.850;9.425;2.645;34.943
4755234.679;10.990;49.695;48.205;13.337;39.227;7.451;-6.035;31.739
4755234.687;13.523;48.876;52.191;12.778;47.423;10.915;-4.806;38.184
4755234.695;10.692;44.890;50.440;11.139;43.884;11.437;4.880;32.969
4755234.703;3.129;36.471;44.145;3.390;39.749;6.817;1.043;29.393
4755234.711;-1.900;31.032;39.339;-2.757;33.788;-0.484;-9.052;27.232
4755234.721;8.643;41.313;52.266;4.880;45.449;6.631;-0.931;33.267
4755234.729;0.820;35.539;43.325;-0.745;31.814;5.923;0.894;27.232
4755234.737;-3.539;34.608;37.476;-0.633;21.644;-0.037;-2.794;24.326
4755234.745;12.591;49.025;51.334;11.548;28.200;0.335;-2.682;28.871
4755234.753;39.041;77.635;71.339;42.282;39.712;11.660;16.689;38.818
4755234.761;44.554;86.091;76.145;52.564;42.580;5.886;4.619;32.224
4755234.769;55.544;97.938;88.736;65.044;58.636;9.723;10.356;35.651
4755234.777;71.488;116.378;104.867;80.839;65.416;17.397;20.042;45.411
4755234.785;81.696;128.709;115.782;89.258;66.794;15.199;8.941;42.543
4755234.793;82.441;130.460;117.980;89.929;61.505;18.440;17.770;44.852
4755234.801;90.823;139.736;130.869;93.989;63.963;20.787;21.644;45.411
4755234.809;90.487;140.928;133.254;93.989;58.301;19.595;13.672;45.374
4755234.817;90.301;141.971;141.114;92.648;58.636;22.501;19.334;51.372
4755234.825;93.356;147.149;154.451;91.530;62.510;26.859;25.630;58.077
4755234.833;94.697;149.533;164.360;91.903;63.479;29.281;29.802;60.238
4755234.841;96.112;155.047;174.344;93.244;66.906;25.183;26.599;53.309
4755234.849;100.248;160.448;185.370;97.416;68.173;23.469;25.593;55.060
4755234.857;99.279;160.746;189.207;95.107;49.993;25.816;26.338;56.736
4755234.865;91.679;152.886;186.451;84.527;45.151;23.656;21.420;51.260
4755234.873;84.303;145.249;181.124;77.598;38.706;26.263;19.670;52.713
4755234.881;85.942;146.776;187.419;77.002;44.778;34.757;27.269;60.424
4755234.889;87.805;144.839;192.299;72.047;42.319;35.465;29.728;59.605
4755234.897;93.803;148.974;199.564;74.580;12.070;35.465;27.902;56.960
4755234.905;97.752;150.800;205.785;73.649;-8.233;37.551;31.404;60.983
4755234.915;99.353;150.278;209.175;73.314;-3.353;36.061;30.287;63.404
4755234.923;97.565;149.049;206.716;70.371;-3.166;32.187;27.604;59.530
4755234.931;103.675;153.966;211.112;74.245;4.880;32.820;26.524;62.473
4755234.939;110.790;159.033;218.377;77.114;16.764;38.147;31.255;68.098
4755234.947;114.366;161.044;223.368;76.182;24.997;38.035;33.937;64.410
4755234.955;104.643;148.602;212.491;59.865;23.171;36.247;30.510;60.014
4755234.963;101.440;151.768;203.662;64.261;14.119;42.021;34.869;67.055
4755234.971;123.233;170.805;222.586;84.713;28.238;42.059;35.614;66.794
4755234.979;140.443;184.849;235.625;97.379;35.837;39.488;29.951;63.777
4755234.987;159.070;202.134;250.861;111.423;49.211;42.021;35.912;64.522
4755234.995;180.192;221.506;268.333;130.795;61.430;44.405;39.972;66.832
4755235.003;188.611;230.521;273.809;138.097;62.659;42.692;36.135;66.049
4755235.011;190.362;230.968;272.729;137.612;63.516;35.502;28.461;60.685
4755235.019;193.976;233.315;274.666;138.991;72.531;37.588;33.788;64.671
4755235.027;190.027;226.721;271.648;130.683;75.921;40.121;34.459;67.428
4755235.035;172.816;208.467;254.363;112.392;62.287;36.694;26.077;64.559
4755235.043;171.177;212.081;252.873;114.180;64.820;38.743;33.863;60.014
4755235.051;172.928;213.571;252.984;117.049;69.253;42.208;39.563;60.201
4755235.059;172.518;211.895;255.033;115.596;80.541;42.617;36.210;61.542
4755235.067;175.312;214.949;260.472;118.315;94.585;42.282;39.637;61.244
4755235.075;172.667;210.851;257.716;112.951;96.932;40.121;36.173;57.481
4755235.083;170.432;209.510;257.939;108.220;98.981;40.419;38.035;57.779
4755235.091;163.242;202.805;250.712;99.540;99.316;43.884;38.631;64.746
4755235.099;153.147;192.337;239.834;87.544;91.158;42.915;35.875;63.777
4755235.082;152.178;192.039;238.828;86.054;96.969;43.437;36.657;61.728
4755235.090;146.590;181.645;230.111;75.102;99.801;40.866;35.614;57.966
4755235.098;130.646;165.105;208.132;57.407;100.508;46.566;39.935;65.081
4755235.106;141.412;182.092;209.659;78.864;96.262;49.211;44.666;66.832
4755235.114;165.924;205.711;226.498;103.526;100.955;48.056;46.231;61.318
4755235.122;182.167;224.859;235.587;123.382;105.500;52.117;47.833;64.112
4755235.130;197.440;241.771;240.542;143.349;108.592;58.301;55.321;72.382
4755235.138;205.822;254.884;240.803;157.058;102.408;56.364;60.089;67.614
4755235.146;215.918;266.470;238.717;172.369;86.389;52.750;55.730;64.261
4755235.154;219.010;269.748;234.395;176.318;82.776;54.985;58.301;70.520
4755235.162;222.065;277.311;232.719;187.121;86.389;57.779;58.934;74.357
4755235.170;214.837;270.680;221.841;182.576;82.999;58.636;55.619;76.965
4755235.178;222.065;279.844;226.758;193.678;98.273;64.746;64.373;79.647
4755235.186;222.288;283.495;222.251;201.017;97.640;68.583;66.571;81.658
4755235.194;199.862;264.458;192.262;181.310;54.836;62.063;59.865;76.108
4755235.202;197.627;260.770;192.150;175.908;66.943;64.000;64.336;78.082
4755235.210;199.340;260.770;195.205;174.120;72.196;71.973;71.228;85.793
4755235.218;191.554;254.400;188.909;165.217;67.949;72.941;69.402;83.335
4755235.226;181.422;243.187;182.241;152.327;60.350;66.757;60.797;77.672
4755235.234;169.612;232.868;170.022;143.573;50.329;67.391;63.740;79.311
4755235.242;153.966;217.631;156.015;128.411;41.313;63.628;58.338;76.480
4755235.250;131.764;194.423;134.110;106.916;55.134;54.874;46.864;67.912
4755235.258;122.748;187.084;124.872;97.640;93.617;54.203;49.360;66.012
4755235.266;116.527;180.267;121.295;90.078;116.080;54.240;50.738;65.640
4755235.234;109.114;172.220;114.478;83.447;120.699;56.848;48.690;71.079
4755235.242;86.017;150.576;90.003;64.038;98.832;50.478;38.967;65.826
4755235.250;67.204;131.689;74.692;45.970;94.660;39.674;28.200;54.948
4755235.258;63.963;131.577;73.873;42.282;100.732;42.133;33.230;59.195
4755235.266;63.851;129.715;75.176;39.227;107.177;45.486;35.018;63.106
4755235.274;63.926;131.689;75.176;38.594;109.375;44.182;31.181;60.759
4755235.282;64.038;139.624;78.604;40.308;113.696;51.670;42.506;67.167
4755235.290;47.795;128.374;65.826;24.401;100.657;42.878;38.594;55.321
4755235.298;44.852;127.181;66.124;19.893;103.004;41.984;44.517;52.489
4755235.306;47.572;126.623;70.594;19.409;113.025;42.431;39.935;55.209
4755235.314;39.637;117.049;62.622;9.723;100.955;33.416;25.667;47.348
4755235.322;41.611;114.739;66.124;10.058;102.930;27.530;20.973;36.769
4755235.330;43.735;113.323;68.583;16.838;107.661;36.545;27.865;45.970
4755235.338;38.259;106.841;66.012;10.580;109.710;32.857;20.228;45.225
4755235.346;48.727;111.908;78.119;19.595;126.064;38.147;25.742;51.297
4755235.354;38.594;98.422;68.247;7.786;109.784;40.792;31.479;52.117
4755235.362;10.915;73.239;42.059;-12.591;87.358;30.585;15.013;46.082
4755235.370;24.475;88.178;54.762;10.505;98.646;32.783;13.784;54.017
4755235.378;31.553;98.646;59.605;22.836;95.963;27.753;14.380;46.268
4755235.386;31.441;98.534;53.607;29.393;81.956;23.954;8.158;42.841
4755235.394;28.424;94.548;42.282;36.471;63.069;23.060;7.302;44.703
4755235.402;21.942;89.109;32.634;41.015;53.830;21.569;8.382;43.102
4755235.410;17.360;81.845;25.705;36.620;50.180;24.177;6.147;50.068
4755235.418;18.962;85.309;25.705;42.021;48.839;21.383;9.388;42.282
4755235.427;15.162;81.547;24.214;43.437;51.446;19.856;13.225;38.892
4755235.435;4.508;71.302;16.578;35.390;45.896;20.266;13.225;41.686
4755235.443;-0.633;66.459;13.113;31.404;41.984;19.632;12.219;40.866
4755235.451;3.390;66.757;18.589;32.857;53.160;22.426;14.938;41.276
4755235.459;9.611;74.282;27.157;38.370;65.193;23.060;11.846;42.468
4755235.467;17.397;81.174;36.545;44.666;73.500;25.444;12.778;44.294
4755235.475;28.946;90.301;50.887;53.458;89.742;33.118;23.991;51.633
4755235.483;26.897;89.295;48.429;51.856;77.412;34.124;24.289;50.552
4755235.491;24.214;84.229;46.417;49.993;76.219;28.163;17.174;42.841
4755235.499;31.851;89.891;56.960;55.730;90.338;32.894;23.842;48.243
4755235.507;35.875;89.929;64.597;53.234;98.869;37.998;26.338;56.811
4755235.515;34.869;88.066;63.367;48.615;96.262;41.313;30.287;63.293
4755235.523;36.135;90.785;65.826;48.727;98.757;38.594;30.026;64.000
4755235.531;41.761;93.430;74.245;49.025;107.735;38.743;29.691;66.906
4755235.539;52.713;106.655;87.246;57.332;118.874;45.374;38.557;77.933
4755235.547;53.383;106.804;89.407;55.246;118.315;40.680;36.955;73.500
4755235.555;65.081;116.527;101.812;65.155;127.181;45.933;47.982;76.965
4755235.563;60.424;111.945;99.726;60.461;124.350;45.523;48.950;78.343
4755235.571;48.690;100.061;89.295;49.323;115.037;36.694;36.024;72.308
4755235.579;48.727;102.222;91.009;48.876;128.597;40.121;41.090;76.592
4755235.587;46.529;97.342;91.158;44.107;134.371;39.600;40.270;78.268
4755235.595;47.050;97.230;95.069;41.164;133.403;39.861;39.153;80.504
4755235.603;55.805;108.927;107.065;49.174;134.930;51.372;53.570;88.811
4755235.611;47.199;100.546;102.483;39.935;121.109;48.578;48.354;84.862
4755235.667;34.682;92.424;95.144;29.393;102.073;46.194;51.148;81.994
4755235.675;34.496;90.972;97.640;28.051;96.932;43.400;46.566;82.105
4755235.683;34.422;88.997;100.397;26.189;98.422;40.196;39.563;81.025
4755235.691;32.485;88.923;102.147;25.518;98.161;36.433;33.751;77.523
4755235.699;36.620;90.413;107.698;28.647;103.191;40.308;44.480;77.374
4755235.707;30.622;86.799;98.199;22.016;77.635;37.812;42.357;77.710
4755235.715;20.005;74.357;90.227;10.245;74.208;31.888;33.900;71.116
4755235.723;9.649;64.746;83.819;0.820;81.919;33.639;32.708;72.382
4755235.731;-0.186;58.450;73.500;-1.825;72.792;33.490;30.771;70.930
4755235.739;-5.737;48.876;67.577;-11.399;71.041;27.418;22.911;63.814
4755235.747;-9.425;46.827;64.708;-16.913;74.580;25.406;20.340;64.671
4755235.755;-2.161;53.495;71.824;-10.952;84.937;32.298;25.630;71.637
4755235.763;2.757;59.828;75.214;-4.470;92.722;36.955;31.628;73.910
4755235.771;5.923;66.794;76.294;3.241;91.158;43.958;41.761;78.268
4755235.779;3.576;63.367;73.463;-0.931;93.058;44.070;42.804;77.859
4755235.787;8.456;69.812;77.933;4.955;101.477;46.566;47.013;79.013
4755235.795;3.204;63.106;71.786;0.894;103.265;43.623;40.792;78.939
4755235.803;1.788;61.691;68.806;2.757;106.469;43.996;42.804;74.133
4755235.811;-3.763;56.140;63.814;-2.645;118.501;44.815;44.294;74.767
4755235.819;-17.285;40.159;49.435;-15.199;117.794;34.310;30.659;63.218
4755235.827;-21.569;37.216;44.629;-14.678;113.323;37.439;33.677;66.385
4755235.835;-30.473;27.157;35.465;-19.222;105.649;39.376;40.010;64.373
4755235.843;-51.782;6.706;16.615;-41.127;99.987;31.963;28.946;57.146
4755235.851;-66.236;-8.233;5.104;-60.387;95.777;24.103;17.025;50.478
4755235.816;-76.741;-20.936;-7.041;-71.563;89.109;25.518;12.740;53.793
4755235.824;-89.034;-26.599;-19.483;-76.778;75.810;18.217;5.476;47.460
4755235.832;-59.903;0.000;8.233;-46.827;91.344;30.845;20.079;57.332
4755235.840;-31.367;28.126;32.634;-16.652;106.245;33.863;25.928;54.985
4755235.848;-13.448;44.554;49.323;-1.900;114.962;33.900;27.269;56.364
4755235.856;9.574;64.522;71.600;17.732;136.085;41.984;30.696;66.683
4755235.864;14.566;72.345;74.916;21.718;134.893;41.910;30.249;66.012
4755235.872;1.565;62.734;59.828;16.317;110.567;35.986;25.891;58.077
4755235.880;4.210;66.385;64.224;21.048;110.604;39.525;30.026;62.063
4755235.888;-3.278;60.163;61.244;15.274;110.082;35.390;25.854;57.705
4755235.896;-0.410;62.920;65.006;22.389;117.049;39.972;31.628;59.679
4755235.904;-2.123;64.932;67.465;22.203;126.734;47.535;40.829;68.210
4755235.912;-8.866;60.536;60.797;17.732;111.498;55.246;47.162;76.592
4755235.920;-23.432;49.733;47.423;7.041;95.516;50.738;42.878;69.588
4755235.928;-38.333;36.769;34.720;-6.557;83.186;46.417;43.362;63.740
4755235.936;-30.659;41.761;39.339;2.831;83.558;54.687;47.497;72.420
4755235.944;-33.677;37.290;38.072;0.820;90.748;51.782;43.064;67.838
4755235.952;-33.267;34.794;36.582;6.258;93.021;53.607;43.362;67.316
4755235.960;-41.388;22.762;25.183;-2.608;65.789;43.958;30.696;58.450
4755235.968;-42.692;19.893;22.650;-4.917;65.491;41.686;28.424;58.003
4755235.976;-32.596;26.226;29.653;4.657;76.033;50.664;35.539;64.932
4755235.984;-31.888;30.957;30.585;5.178;74.282;53.644;38.259;68.247
4755235.992;-27.753;31.255;33.490;7.674;77.114;55.060;38.929;70.594
4755236.000;-23.134;34.012;36.471;13.746;80.876;58.934;40.717;76.145
4755235.968;-23.805;33.975;36.284;12.517;78.939;56.066;38.669;70.482
4755235.976;-30.138;25.742;31.181;5.625;75.214;47.758;30.808;64.895
4755235.984;-27.865;30.436;33.230;9.649;68.024;46.790;34.012;64.932
4755235.992;-19.819;34.459;42.431;15.199;74.729;44.554;36.545;58.897
4755236.000;-28.126;25.965;35.875;6.780;65.602;36.322;23.469;53.644
4755236.008;-31.553;22.277;34.422;1.937;64.224;36.620;24.028;54.613
4755236.016;-34.682;15.646;31.926;-2.086;62.473;32.820;16.876;49.993
4755236.024;-21.979;31.628;47.088;10.915;76.965;42.729;30.100;58.785
4755236.032;-29.430;21.271;39.339;0.559;60.610;38.035;25.071;53.644
4755236.040;-40.717;8.568;27.604;-11.846;48.913;29.691;18.254;45.858
4755236.048;-55.507;-4.880;13.448;-25.332;31.739;28.089;18.440;43.549
4755236.056;-41.164;8.270;27.828;-8.382;44.852;28.796;16.503;43.996
4755236.064;-19.558;31.404;46.566;11.437;55.358;33.528;25.965;49.397
4755236.072;-5.588;42.990;57.258;22.650;56.215;37.588;29.206;52.787
4755236.080;2.533;52.638;60.536;33.937;50.031;37.029;31.665;50.813
4755236.088;13.597;64.448;69.328;44.554;55.097;40.829;37.514;53.458
4755236.096;15.348;61.467;67.204;44.815;53.644;45.225;39.190;57.295
4755236.104;9.052;54.166;58.711;35.577;48.652;43.884;37.961;56.922
4755236.112;0.671;41.723;51.931;22.352;45.337;33.416;22.426;49.546
4755236.120;-4.470;36.769;47.646;14.082;39.600;30.845;18.775;49.882
4755236.128;1.229;44.517;52.974;22.240;44.294;38.110;31.106;56.326
4755236.136;3.017;42.245;55.023;22.091;51.148;37.104;26.412;56.140
4755236.144;-2.533;37.849;49.621;15.274;46.641;33.155;25.779;50.776
4755236.152;-5.402;34.235;45.635;15.311;43.176;28.349;18.738;47.088
4755236.177;2.533;43.176;53.048;25.146;49.956;34.124;24.699;51.782
4755236.185;5.290;45.933;56.438;27.306;56.289;39.786;24.810;57.481
4755236.193;1.192;39.674;52.378;23.358;57.630;40.457;18.738;57.518
4755236.201;-5.066;37.476;45.374;19.483;46.901;40.829;21.122;55.917
4755236.209;-8.605;32.485;41.835;17.248;47.572;39.488;21.458;55.768
4755236.217;-11.139;31.143;39.600;17.770;60.312;40.755;26.301;56.885
4755236.225;-17.136;25.965;35.204;10.468;62.510;40.494;28.647;56.997
4755236.233;-26.934;15.497;26.003;1.974;57.556;35.129;22.464;53.570
4755236.241;-31.479;13.001;24.661;-1.639;58.450;31.032;19.521;47.460
4755236.249;-32.000;9.872;23.954;-2.906;59.754;32.261;20.526;47.758
4755236.257;-27.679;15.385;27.455;1.639;66.385;38.259;24.065;56.922
4755236.265;-21.979;23.618;35.763;9.164;83.186;44.554;36.806;59.754
4755236.273;-28.722;12.368;29.691;-2.719;79.945;37.514;23.507;53.570
4755236.281;-31.441;13.374;23.171;-4.657;64.112;35.726;21.085;51.036
4755236.289;-32.261;10.990;24.438;-8.158;71.265;36.918;22.575;52.005
4755236.297;-36.284;6.407;21.532;-14.789;72.159;34.831;22.948;50.925
4755236.305;-42.990;-1.006;15.013;-22.724;66.347;32.298;20.340;48.392
4755236.313;-42.953;-5.476;17.658;-26.785;78.715;33.565;14.454;51.036
4755236.321;-59.344;-17.099;0.224;-43.437;55.358;26.375;10.654;41.686
4755236.329;-58.636;-16.615;-0.075;-41.872;53.830;30.622;15.274;45.039
4755236.337;-60.573;-17.732;-1.453;-41.910;53.346;34.384;16.540;49.621
4755236.345;-68.471;-26.487;-7.041;-51.297;53.607;32.149;14.715;46.976
4755236.353;-73.612;-32.522;-12.331;-54.017;47.684;29.616;11.586;46.156
4755236.361;-85.570;-40.159;-23.730;-67.241;34.757;29.579;14.342;44.256
4755236.343;-84.117;-40.606;-22.016;-66.757;38.333;33.639;20.042;45.747
4755236.351;-74.655;-32.783;-13.784;-56.475;53.495;39.041;27.232;52.005
4755236.359;-80.392;-40.941;-17.732;-65.714;54.948;28.089;16.242;43.176
4755236.367;-83.894;-48.764;-21.309;-70.482;51.111;20.601;0.969;38.855
4755236.375;-85.756;-47.386;-24.624;-69.588;48.764;24.438;4.433;42.245
4755236.383;-87.991;-53.048;-27.455;-72.494;46.566;23.879;4.247;40.270
4755236.391;-92.834;-57.742;-33.230;-78.715;39.935;19.073;-3.651;35.167
4755236.399;-101.924;-62.808;-42.357;-85.682;36.731;22.240;1.006;35.875
4755236.407;-89.183;-54.017;-27.269;-75.623;52.676;26.301;5.588;38.557
4755236.415;-67.241;-31.702;-4.470;-57.444;66.496;25.555;8.866;39.227
4755236.423;-53.681;-20.601;2.049;-43.772;55.470;21.011;1.341;33.341
4755236.431;-39.861;-8.233;14.044;-30.287;61.765;20.750;2.421;32.000
4755236.439;-29.579;1.416;23.358;-22.352;70.482;18.701;2.459;30.771
4755236.447;-29.467;-4.247;22.091;-28.573;71.898;4.694;-10.394;18.701
4755236.455;-18.515;10.841;31.777;-12.890;75.921;7.339;-7.562;21.681
4755236.463;-5.104;25.891;40.680;7.115;68.210;10.394;-5.402;23.656
4755236.471;-2.310;33.043;41.611;15.721;62.697;11.250;-3.316;24.252
4755236.479;-0.373;37.216;44.070;18.552;60.424;1.639;-14.268;17.211
4755236.487;14.976;52.452;57.556;37.327;61.281;11.511;-8.680;27.902
4755236.495;32.596;78.529;73.090;60.685;57.518;23.469;14.454;38.072
4755236.503;37.886;86.054;77.449;70.184;52.229;20.154;16.727;34.459
4755236.511;44.554;94.809;83.037;79.907;53.197;14.193;11.176;29.244
4755236.519;59.791;107.698;95.107;97.342;60.983;13.039;9.127;29.132
4755236.527;72.941;113.435;102.930;111.237;71.265;19.222;13.262;34.645
4755236.510;65.602;105.202;93.952;101.849;65.155;13.113;7.674;28.126
4755236.518;59.605;93.877;83.894;90.376;47.274;5.066;-3.949;21.048
4755236.526;64.187;95.367;86.315;94.473;51.446;12.219;6.184;30.324
4755236.534;53.607;83.074;75.065;82.701;42.915;8.456;2.570;25.257
4755236.542;47.982;72.680;68.508;77.710;41.127;8.456;-5.998;27.642
4755236.550;41.239;70.073;61.952;69.402;28.126;7.786;-2.012;25.593
4755236.558;35.353;63.591;57.928;64.149;25.257;7.227;-0.969;24.736
4755236.566;39.712;64.932;64.000;68.508;34.831;9.015;4.396;24.885
4755236.574;42.394;64.187;65.453;67.577;35.092;12.331;2.831;30.547
4755236.582;32.596;50.329;53.570;55.097;25.183;4.433;-7.004;25.444
4755236.590;40.792;60.126;63.330;63.330;34.571;13.895;8.419;34.533
4755236.598;26.971;43.921;53.085;48.354;30.957;10.431;-1.527;32.075
4755236.606;12.964;32.261;41.947;36.657;24.773;10.058;-1.378;30.138
4755236.614;-3.725;18.664;23.656;24.065;2.608;4.321;2.421;23.022
4755236.622;-7.674;9.872;21.234;17.993;8.866;2.757;2.868;24.773
4755236.630;-17.099;3.017;11.623;7.860;-2.757;-4.247;-11.213;19.446
4755236.638;-17.434;0.969;10.729;8.792;0.261;-6.370;-12.107;17.434
4755236.646;-15.832;3.800;12.331;14.193;8.605;-4.061;-6.855;20.154
4755236.654;-23.134;-1.416;4.806;6.855;-4.731;-4.247;-6.780;19.334
4755236.662;-21.793;-5.625;5.998;5.253;-3.278;-3.055;-7.339;19.968
4755236.670;-18.738;-1.863;8.605;9.872;-2.012;5.588;3.725;26.375
4755236.678;-19.185;-5.625;6.966;7.562;-4.880;7.302;2.980;27.269
4755236.686;-10.431;2.608;18.179;15.721;7.488;13.597;9.127;33.416
4755236.694;-10.766;1.602;16.764;12.629;3.055;8.382;1.974;28.051
4755236.746;-0.745;9.909;23.991;24.065;6.482;14.417;4.359;34.608
4755236.754;5.253;17.621;32.373;30.585;12.740;22.314;14.864;42.319
4755236.762;2.049;10.356;28.908;25.667;6.035;18.664;9.574;38.445
4755236.770;3.576;11.101;30.063;26.301;2.049;18.999;8.792;35.502
4755236.778;10.952;17.062;38.482;32.149;9.686;21.681;11.809;36.508
4755236.786;11.437;15.460;37.551;32.969;11.288;17.397;8.829;32.373
4755236.794;10.766;19.222;37.476;33.788;8.903;16.540;13.560;32.149
4755236.802;9.760;16.727;37.029;33.453;8.270;17.062;9.798;33.863
4755236.810;6.184;12.666;33.826;30.734;4.955;17.807;10.356;32.857
4755236.818;3.763;12.405;30.212;29.430;4.955;19.893;13.746;31.702
4755236.826;3.427;8.792;29.542;28.461;18.999;19.558;9.760;34.273
4755236.834;2.272;9.313;29.951;27.195;21.569;19.632;14.417;33.751
4755236.842;2.161;7.302;31.479;26.114;23.134;18.477;14.454;31.143
4755236.850;2.496;7.227;33.341;24.401;25.854;19.595;23.395;32.000
4755236.858;4.508;11.064;35.129;29.169;21.458;15.199;14.864;28.387
4755236.866;5.141;10.915;35.129;31.702;17.546;12.442;5.551;24.401
4755236.874;1.490;12.219;34.459;30.212;14.864;18.664;15.795;29.057
4755236.882;-1.676;7.488;34.384;27.083;15.832;22.613;19.297;34.422
4755236.890;-8.494;0.633;29.802;19.781;10.654;17.248;6.333;30.175
4755236.898;-11.213;-3.874;30.994;10.915;12.182;10.282;-0.261;23.283
4755236.906;-5.886;-1.714;35.278;16.093;13.225;9.201;0.149;20.638
4755236.914;-2.794;4.917;38.594;23.805;13.188;12.554;8.307;25.295
4755236.922;-0.782;5.402;40.159;25.518;14.268;14.268;13.486;26.673
4755236.930;-1.453;4.359;39.972;26.971;15.572;15.646;14.454;29.132
4755236.943;-12.070;-7.637;27.046;15.236;-3.017;6.929;4.321;22.016
4755236.951;-12.182;-13.821;25.816;11.101;5.551;8.382;-0.224;24.512
4755236.959;-15.870;-16.913;18.962;10.096;2.086;8.531;-0.522;21.644
4755236.967;-16.652;-21.569;18.626;8.419;12.331;8.531;-3.166;20.117
4755236.975;-22.277;-27.493;11.697;7.041;13.299;10.394;1.229;20.638
4755236.983;-21.048;-26.748;7.339;9.835;5.029;13.225;10.990;21.011
4755236.991;-16.578;-27.046;10.617;12.591;25.555;11.027;4.806;20.303
4755236.999;-11.586;-21.271;17.919;16.093;48.801;10.058;1.490;21.420
4755237.007;-19.893;-30.585;5.402;8.941;37.961;6.333;-0.857;18.366
4755237.015;-40.680;-50.031;-13.188;-8.531;19.073;0.335;-5.253;12.852
4755237.023;-69.849;-80.429;-36.806;-39.078;-4.545;-9.239;-16.354;3.837
4755237.031;-82.478;-102.185;-47.721;-52.117;-15.460;-14.491;-22.762;-0.894
4755237.039;-85.272;-107.400;-49.174;-57.071;-9.984;-17.732;-30.696;-1.192
4755237.047;-90.674;-116.341;-52.638;-64.969;-7.078;-23.544;-30.994;-5.327
4755237.055;-97.565;-121.966;-59.046;-67.875;-13.486;-26.338;-32.373;-6.892
4755237.063;-99.428;-123.270;-59.754;-70.892;-13.523;-22.911;-28.983;-1.751
4755237.071;-95.628;-125.132;-59.046;-70.184;-12.107;-16.615;-21.793;2.943
4755237.079;-96.820;-125.207;-62.473;-70.818;-19.148;-19.372;-25.406;-3.129
4755237.087;-98.906;-130.273;-63.218;-74.431;-22.352;-24.140;-33.230;-4.359
4755237.095;-76.704;-105.649;-39.563;-52.303;-6.407;-7.264;-10.878;12.033
4755237.103;-66.012;-89.407;-30.249;-40.978;-14.380;-9.611;-8.754;6.333
4755237.111;-66.236;-86.911;-29.244;-43.511;-22.501;-15.795;-13.299;1.341
4755237.119;-55.917;-69.439;-15.907;-30.138;-1.043;-6.929;3.800;8.233
4755237.127;-50.217;-67.316;-7.711;-23.879;10.170;-4.433;0.224;12.293
4755237.196;-47.162;-66.273;-4.992;-19.893;9.723;-3.241;-5.178;15.385
4755237.204;-49.584;-72.159;-9.649;-22.538;0.335;-5.476;-10.878;9.798
4755237.212;-42.841;-71.339;-4.321;-16.391;4.768;3.278;-7.078;19.819
4755237.220;-29.542;-54.426;8.382;-3.278;12.368;16.280;7.227;34.310
4755237.228;-26.710;-55.768;11.064;-1.118;14.789;14.044;7.711;34.049
4755237.236;-18.850;-51.819;13.523;5.513;13.188;15.572;11.250;33.379
4755237.244;-20.526;-52.005;11.288;3.092;0.633;12.331;14.342;27.977
4755237.252;-21.309;-54.948;10.394;0.298;-8.345;6.445;4.433;24.363
4755237.260;-18.328;-45.635;14.044;4.359;-13.635;13.374;11.884;27.940
4755237.268;-20.154;-45.560;15.497;2.123;-16.838;16.987;13.188;32.783
4755237.276;-22.054;-48.541;14.603;1.006;-20.750;16.801;13.635;33.975
4755237.284;-24.177;-50.813;12.591;-1.900;-25.481;14.752;5.700;36.508
4755237.292;-13.933;-41.910;22.613;8.494;-18.813;22.277;14.864;44.182
4755237.300;-21.867;-44.666;17.770;1.974;-27.232;11.809;11.586;30.063
4755237.308;-16.317;-40.159;23.656;7.115;-24.140;7.525;4.955;29.951
4755237.316;-16.093;-41.090;26.301;4.768;-22.128;-0.820;-13.001;27.530
4755237.324;-20.266;-46.790;21.234;1.341;-41.462;-1.453;-10.394;23.134
4755237.332;-18.179;-46.082;24.326;8.866;-46.454;4.396;-4.731;31.553
4755237.340;-19.409;-42.096;27.157;12.070;-39.525;11.809;11.064;39.339
4755237.348;-21.942;-44.815;25.146;13.784;-45.672;10.058;10.729;38.818
4755237.356;-16.056;-39.451;32.969;22.575;-38.706;11.660;15.497;40.792
4755237.364;-19.930;-41.611;32.298;24.438;-43.958;6.743;14.231;34.869
4755237.372;-16.801;-43.698;38.482;24.512;-33.826;6.147;8.196;36.359
4755237.380;-19.893;-43.511;35.316;25.593;-38.520;5.029;8.382;33.192
4755237.392;-19.856;-49.099;37.141;23.209;-25.332;1.043;1.006;28.089
4755237.400;-25.220;-57.891;30.473;16.838;-33.192;-0.298;-1.602;26.859
4755237.408;-22.538;-57.556;33.379;20.079;-27.791;5.923;7.488;30.100
4755237.416;-23.432;-65.416;30.100;16.578;-23.805;5.215;3.166;27.269
4755237.424;-21.905;-65.155;31.739;19.111;-19.036;5.513;5.923;22.762
4755237.432;-21.793;-70.184;26.636;14.678;-16.615;2.161;1.751;17.881
4755237.440;-16.280;-65.230;28.461;20.415;4.619;3.204;4.359;19.148
4755237.448;-26.971;-74.394;17.583;15.013;14.827;-0.298;4.843;15.870
4755237.456;-39.525;-90.413;3.874;4.731;11.437;-6.855;-4.843;12.629
4755237.464;-43.027;-91.642;-3.204;0.857;-6.147;-11.437;-6.147;9.164
4755237.472;-41.574;-93.244;-1.416;-0.298;7.041;-14.156;-9.313;5.439
4755237.480;-33.304;-86.501;2.198;2.794;4.433;-12.517;-6.668;2.533
4755237.488;-32.261;-84.974;1.341;1.378;4.247;-14.603;-5.439;-2.049
4755237.496;-31.628;-88.140;-0.335;-0.671;11.250;-13.933;-5.588;-1.714
4755237.504;-33.565;-89.668;-2.421;-4.508;12.293;-13.076;-3.353;-1.192
4755237.512;-30.845;-87.433;-1.490;-2.421;9.313;-9.127;-0.671;2.608
4755237.520;-35.428;-92.611;-8.233;-10.692;2.980;-10.729;-7.190;0.000
4755237.528;-40.047;-95.703;-13.895;-15.050;-4.768;-10.170;-5.141;-0.931
4755237.536;-33.043;-89.370;-8.009;-8.866;1.900;-4.433;-2.943;6.817
4755237.544;-28.163;-82.888;-3.651;-6.557;2.608;-2.608;-0.671;9.649
4755237.552;-16.503;-72.643;5.439;2.198;5.402;3.949;6.072;15.311
4755237.560;-7.451;-61.765;14.305;9.947;10.952;4.098;8.158;12.219
4755237.568;2.831;-49.956;23.954;19.744;10.282;4.992;9.462;10.766
4755237.576;6.631;-49.025;28.014;18.105;8.866;4.619;7.227;9.015
4755237.616;2.868;-50.925;24.661;13.560;4.508;1.788;4.992;8.009
4755237.624;3.651;-51.074;24.997;9.276;-0.298;1.416;3.017;8.829
4755237.632;1.006;-51.223;20.564;5.402;-7.339;-1.676;0.373;5.029
4755237.640;-0.298;-50.701;21.607;2.831;14.715;-2.012;-0.820;3.949
4755237.648;4.731;-46.156;26.561;5.625;22.464;-2.012;1.714;2.943
4755237.656;4.582;-44.890;23.507;2.421;10.543;-4.135;-3.017;2.794
4755237.664;9.015;-41.015;26.375;6.631;19.111;-8.084;-6.706;-0.335
4755237.672;15.348;-33.937;33.416;14.603;39.004;-4.508;-2.347;0.708
4755237.680;12.070;-38.147;30.249;6.780;36.657;-4.619;-0.373;-1.602
4755237.688;1.937;-48.578;15.087;-3.539;13.635;-13.970;-7.227;-9.798
4755237.696;2.384;-47.162;13.858;-4.843;19.930;-11.548;-0.410;-9.686
4755237.704;-2.272;-55.693;8.829;-15.795;20.042;-6.296;-4.023;-6.817
4755237.712;-10.207;-60.424;-1.304;-22.203;17.583;-10.356;-18.179;-8.270
4755237.720;-5.253;-50.776;1.080;-12.182;21.644;-15.199;-22.538;-13.001
4755237.728;-2.347;-48.578;-2.794;-8.158;12.033;-7.451;-8.680;-3.651
4755237.736;2.161;-42.282;-2.272;0.782;14.603;3.017;9.388;4.992
4755237.744;-0.745;-44.778;-11.623;0.969;-0.373;-2.272;3.539;-4.657
4755237.752;-8.978;-49.844;-26.040;-6.184;-30.249;-8.605;-5.476;-10.915
4755237.760;-2.868;-39.674;-18.477;1.118;-23.954;-7.078;-0.149;-11.846
4755237.768;-4.359;-36.769;-25.183;4.992;-37.327;-9.164;-5.178;-13.895
4755237.776;5.439;-23.358;-16.391;14.342;-26.561;-4.768;4.694;-10.505
4755237.784;-0.522;-25.593;-23.171;10.803;-35.241;-8.829;-3.241;-10.356
4755237.792;-17.546;-36.508;-41.686;1.155;-57.928;-7.860;-3.874;-8.345
4755237.800;-17.509;-32.969;-41.723;9.350;-52.825;-6.855;0.708;-9.872
4755237.886;-17.919;-32.224;-41.910;10.692;-52.191;-3.353;4.619;-6.258
4755237.894;-17.025;-25.816;-38.482;11.660;-47.460;-5.141;1.453;-7.749
4755237.902;-26.673;-29.914;-49.099;5.364;-61.579;-9.909;-0.522;-11.772
4755237.910;-35.390;-33.528;-59.791;-3.017;-74.878;-10.468;2.831;-14.678
4755237.918;-30.696;-29.504;-53.868;0.112;-66.236;-12.703;8.382;-19.744
4755237.926;-27.418;-32.596;-52.862;1.304;-62.622;-13.970;5.290;-21.644
4755237.934;-26.673;-34.235;-55.544;3.651;-64.671;-10.766;3.278;-15.236
4755237.942;-37.141;-47.609;-69.030;-6.892;-73.984;-24.401;-15.311;-25.481
4755237.950;-28.387;-40.084;-62.250;0.969;-61.318;-20.266;-8.754;-23.469
4755237.958;-14.417;-27.493;-47.982;9.388;-42.878;-15.460;-0.373;-20.191
4755237.966;-15.609;-28.536;-52.229;5.737;-49.695;-26.524;-13.225;-27.642
4755237.974;-7.711;-15.870;-43.996;12.293;-38.520;-21.160;-8.270;-18.701
4755237.982;-6.519;-15.646;-44.107;10.878;-42.096;-20.564;-6.482;-17.658
4755237.990;-1.714;-15.385;-40.270;10.245;-36.284;-21.048;-10.617;-18.142
4755237.998;0.298;-14.342;-39.637;4.582;-37.029;-17.546;-5.998;-14.268
4755238.006;3.986;-11.027;-35.055;2.570;-29.132;-8.903;-4.359;-0.969
4755238.014;15.981;4.955;-20.973;12.666;-11.139;4.247;6.184;13.597
4755238.022;-0.261;-11.995;-38.296;-5.998;-33.379;-12.927;-7.711;-7.898
4755238.030;-2.198;-14.268;-37.588;-13.411;-26.673;-12.144;-6.892;-4.247
4755238.038;-13.225;-20.675;-48.093;-21.905;-41.462;-14.380;-3.614;-7.078
4755238.046;-10.245;-18.626;-42.878;-18.850;-32.596;-3.055;5.327;3.390
4755238.054;-11.027;-18.366;-39.861;-22.613;-24.959;-3.800;4.470;3.017
4755238.062;-24.401;-31.777;-51.446;-37.365;-32.000;-10.766;-1.565;-2.831
4755238.070;-26.748;-32.820;-53.085;-40.121;-32.112;-12.852;-2.757;-4.768
4755238.141;-26.152;-30.957;-51.819;-40.941;-34.720;-10.617;1.565;-2.682
4755238.149;-20.675;-26.748;-45.188;-37.588;-24.177;-8.643;5.849;-2.310
4755238.157;-25.146;-29.840;-47.870;-42.543;-27.530;-13.150;-0.075;-6.892
4755238.165;-26.897;-35.055;-46.678;-49.807;-23.991;-14.156;-3.576;-3.949
4755238.173;-25.518;-32.745;-43.809;-49.174;-20.266;-14.380;-3.278;-4.470
4755238.181;-28.126;-34.794;-45.076;-57.444;-21.197;-17.360;-4.508;-7.935
4755238.189;-13.486;-22.091;-30.473;-40.606;-7.786;-6.855;5.513;2.682
4755238.197;-0.224;-8.158;-16.280;-32.447;2.757;2.608;9.537;14.715
4755238.205;0.186;-9.090;-13.262;-38.669;2.570;-3.502;5.849;8.531
4755238.213;5.960;-2.533;-6.929;-35.390;6.333;-0.820;8.307;6.892
4755238.221;10.841;3.055;-0.931;-31.367;19.036;1.229;10.431;11.921
4755238.229;4.843;-4.061;-7.898;-39.078;29.616;1.006;10.319;14.007
4755238.237;11.064;11.139;-1.527;-21.718;37.961;-4.098;10.170;8.792
4755238.245;9.127;6.929;-3.055;-25.630;34.757;-11.809;-4.508;8.307
4755238.253;8.196;6.594;-8.531;-23.134;26.226;-13.411;-4.023;6.333
4755238.261;13.225;14.789;-3.725;-14.044;28.238;-8.605;6.594;9.872
