Timestamp,AFz,AF3,AF4,AF7,AF8,Pz,P3,P4,2024-04-10 13:13:40.847,fs=125
2339937.240;-9.909;-11.064;-3.837;-11.735;-0.410;-7.562;-11.288;-2.868
2339937.248;-12.852;-13.635;-6.631;-14.342;-2.235;-5.662;-9.090;-2.943
2339937.256;-16.466;-17.695;-11.474;-16.913;-6.519;-2.459;-5.662;-3.017
2339937.264;-18.328;-20.675;-13.933;-20.005;-7.041;-1.267;-4.359;-2.161
2339937.272;-19.595;-22.687;-16.056;-22.016;-9.723;-1.788;-5.737;-1.825
2339937.280;-21.718;-23.618;-18.701;-22.128;-12.815;-1.080;-6.147;-1.080
2339937.288;-25.667;-25.928;-23.544;-25.481;-18.179;1.751;-1.937;1.714
2339937.296;-28.759;-28.983;-27.269;-30.287;-22.128;2.384;-2.421;1.229
2339937.304;-25.332;-25.220;-22.873;-26.487;-16.242;5.141;0.261;2.272
2339937.312;-23.507;-24.214;-21.309;-24.922;-15.572;3.763;-1.639;-1.006
2339937.320;-23.022;-23.842;-21.420;-23.618;-17.062;4.321;-1.118;-0.633
2339937.328;-23.246;-23.395;-22.501;-23.060;-18.366;8.158;3.316;2.384
2339937.336;-25.518;-24.401;-24.997;-24.438;-19.856;6.594;4.247;1.006
2339937.344;-29.989;-29.951;-28.312;-29.765;-22.240;2.757;1.453;-1.639
2339937.352;-29.206;-29.877;-27.269;-29.728;-21.979;2.086;1.304;-1.080
2339937.360;-29.765;-29.765;-29.095;-29.728;-25.295;0.820;0.000;-1.825
2339937.368;-33.081;-33.788;-32.820;-33.341;-27.046;-2.012;-2.608;-2.980
2339937.376;-32.932;-34.869;-31.479;-33.751;-23.730;-4.508;-5.104;-3.465
2339937.384;-29.430;-31.777;-26.748;-31.143;-19.185;-4.210;-4.098;-3.576
2339937.392;-21.160;-24.438;-19.856;-24.997;-12.964;-1.043;-0.708;-1.192
2339937.400;-20.824;-24.289;-20.601;-25.518;-13.858;-1.155;-1.453;-2.757
2339937.408;-28.163;-30.920;-28.834;-31.143;-22.426;-4.731;-5.700;-6.594
2339937.416;-29.728;-31.441;-29.765;-31.330;-21.942;-1.080;-2.831;-4.321
2339937.424;-29.244;-31.479;-30.957;-31.181;-22.389;0.708;-0.335;-4.694
2339937.467;-28.908;-31.963;-30.175;-30.659;-23.060;-1.378;-1.565;-5.588
2339937.475;-30.436;-34.235;-31.888;-33.081;-25.742;-2.123;-3.614;-5.513
2339937.483;-29.132;-33.565;-30.473;-32.410;-23.507;2.794;-0.112;-0.596
2339937.491;-29.281;-34.347;-29.802;-32.596;-22.985;3.874;0.931;2.272
2339937.499;-32.149;-36.694;-32.336;-36.396;-24.661;2.570;0.075;1.974
2339937.507;-33.565;-37.961;-33.900;-37.365;-27.120;1.527;-1.341;1.341
2339937.515;-32.708;-37.402;-31.404;-35.688;-26.859;4.359;2.347;3.688
2339937.523;-34.682;-39.190;-33.043;-36.843;-27.977;4.321;4.247;2.831
2339937.531;-39.488;-44.256;-37.998;-41.276;-32.857;0.820;1.565;0.447
2339937.539;-38.184;-44.368;-35.204;-42.133;-28.275;-2.682;-3.316;-1.863
2339937.547;-36.284;-42.059;-34.459;-40.568;-29.169;-3.763;-5.066;-3.278
2339937.555;-36.322;-41.351;-34.608;-39.712;-29.244;-5.886;-8.084;-4.992
2339937.563;-37.514;-43.735;-35.502;-41.351;-27.157;-7.674;-10.133;-5.215
2339937.571;-37.737;-43.362;-36.471;-41.947;-28.349;-10.394;-12.740;-5.662
2339937.579;-35.278;-39.153;-34.496;-37.923;-27.157;-11.399;-13.709;-6.407
2339937.587;-32.745;-37.476;-32.224;-36.843;-24.736;-12.442;-13.784;-8.158
2339937.595;-32.261;-37.067;-31.814;-37.029;-22.911;-13.262;-14.491;-9.015
2339937.603;-27.604;-31.814;-28.163;-31.665;-21.085;-7.153;-8.084;-3.427
2339937.611;-29.095;-32.932;-30.659;-33.639;-22.687;-7.413;-8.009;-3.278
2339937.619;-33.788;-36.769;-36.620;-36.396;-28.759;-10.096;-10.803;-5.588
2339937.627;-35.167;-37.961;-38.594;-36.955;-30.771;-8.494;-9.313;-5.104
2339937.635;-34.757;-38.259;-37.588;-36.433;-28.871;-6.519;-6.855;-5.700
2339937.643;-39.116;-42.766;-40.904;-40.270;-32.261;-9.760;-9.127;-8.121
2339937.651;-45.262;-49.621;-46.194;-46.678;-36.731;-17.323;-16.242;-13.933
2339937.631;-43.251;-48.168;-42.692;-46.939;-31.702;-19.036;-18.179;-15.646
2339937.639;-40.606;-45.896;-40.047;-45.970;-29.095;-17.434;-15.274;-13.784
2339937.647;-34.384;-38.594;-35.502;-37.886;-25.891;-9.201;-5.886;-8.494
2339937.655;-29.616;-31.926;-32.261;-29.504;-22.650;-3.204;0.782;-5.513
2339937.663;-27.753;-29.616;-29.616;-24.959;-21.234;0.186;3.539;-3.353
2339937.671;-29.728;-31.218;-31.032;-26.263;-21.942;0.484;2.868;-1.974
2339937.679;-32.373;-33.304;-33.528;-28.834;-24.401;-1.602;-0.112;-2.235
2339937.687;-37.849;-38.333;-37.625;-35.018;-29.095;-5.625;-4.247;-3.465
2339937.695;-42.096;-43.847;-41.611;-39.227;-31.218;-12.368;-10.729;-8.196
2339937.703;-41.537;-44.666;-38.818;-39.972;-26.859;-14.566;-11.772;-9.388
2339937.711;-40.717;-43.176;-37.365;-39.525;-24.699;-15.423;-12.182;-11.623
2339937.719;-40.643;-41.313;-37.327;-36.396;-25.406;-14.082;-10.990;-11.548
2339937.727;-42.915;-42.431;-39.861;-37.290;-28.536;-13.672;-11.399;-10.952
2339937.735;-41.723;-40.568;-38.110;-35.428;-27.679;-12.033;-9.611;-10.952
2339937.743;-39.637;-40.010;-35.204;-34.273;-24.512;-11.064;-8.866;-9.872
2339937.751;-32.336;-33.639;-27.530;-29.020;-16.056;-7.488;-7.935;-5.700
2339937.759;-27.604;-30.324;-24.401;-26.599;-12.740;-5.290;-8.084;-3.800
2339937.767;-22.948;-26.673;-19.968;-23.246;-9.350;-0.447;-5.551;-0.522
2339937.775;-21.607;-25.369;-18.924;-22.054;-9.015;2.086;-4.061;0.186
2339937.783;-19.744;-24.624;-16.578;-21.160;-7.264;0.075;-5.588;-0.745
2339937.791;-19.595;-23.618;-16.056;-19.856;-7.004;-0.224;-5.327;-0.596
2339937.799;-26.263;-29.393;-23.618;-24.959;-14.640;-7.339;-10.468;-6.519
2339937.807;-29.542;-32.522;-28.163;-28.834;-20.005;-11.250;-12.293;-9.015
2339937.815;-30.547;-34.161;-28.126;-30.324;-20.042;-14.156;-13.709;-9.872
2339937.812;-32.075;-35.614;-28.722;-30.249;-21.011;-18.515;-16.987;-13.001
2339937.820;-26.114;-29.057;-22.575;-22.538;-15.534;-17.546;-15.646;-13.225
2339937.828;-18.738;-22.165;-14.827;-15.646;-9.015;-14.976;-15.572;-10.915
2339937.836;-11.995;-16.131;-7.264;-11.325;-1.118;-11.809;-15.087;-5.737
2339937.844;-6.743;-11.176;-2.012;-7.488;2.757;-8.084;-13.709;-1.043
2339937.852;-5.215;-10.133;0.224;-5.774;4.545;-8.754;-15.497;-1.527
2339937.860;-3.465;-8.680;1.937;-5.327;5.662;-10.878;-17.621;-5.923
2339937.868;0.037;-4.768;5.700;-1.937;7.488;-13.821;-18.924;-11.064
2339937.876;11.101;8.717;17.546;11.735;16.280;-14.827;-18.328;-12.368
2339937.884;21.532;19.073;27.902;21.271;22.948;-17.285;-20.154;-15.087
2339937.892;31.814;29.020;38.035;31.069;31.404;-16.093;-17.993;-13.150
2339937.900;52.154;50.887;60.275;54.501;50.962;-11.623;-12.442;-9.127
2339937.908;67.130;65.230;77.114;67.987;64.000;-9.388;-10.245;-6.333
2339937.916;77.896;77.486;88.662;81.137;71.824;-8.941;-10.058;-5.849
2339937.924;87.172;86.464;99.614;90.636;79.758;-6.370;-7.562;-3.353
2339937.932;92.164;90.562;105.314;94.324;84.490;-3.800;-5.364;-0.335
2339937.940;93.132;92.089;106.432;94.771;85.384;-5.774;-6.482;-0.484
2339937.948;89.481;88.960;103.749;91.381;82.776;-8.233;-9.127;-0.857
2339937.956;93.691;93.654;106.618;95.218;85.570;-6.072;-6.258;1.267
2339937.964;90.078;90.934;100.657;93.319;80.913;-4.992;-4.545;1.565
2339937.972;81.807;80.541;91.828;82.403;75.512;-1.527;-1.118;2.496
2339937.980;71.488;70.296;80.466;71.488;67.800;3.055;3.055;4.284
2339937.988;62.548;60.499;69.588;60.089;57.556;5.402;4.508;3.278
2339937.996;58.003;55.619;63.181;53.458;52.974;3.204;0.633;0.969
2339938.037;48.615;46.901;52.191;45.113;44.741;-1.490;-6.445;-1.639
2339938.045;37.141;34.906;40.084;33.751;33.565;-6.929;-12.852;-3.502
2339938.053;26.859;25.928;28.312;25.779;23.693;-9.909;-16.578;-2.868
2339938.061;17.323;17.881;16.540;18.552;14.566;-11.027;-15.981;-4.880
2339938.069;7.041;8.643;5.327;9.798;4.508;-12.815;-15.274;-10.245
2339938.077;6.929;8.605;4.247;8.941;3.465;-10.170;-9.052;-10.915
2339938.085;12.591;12.666;9.052;12.070;8.680;-8.158;-6.743;-8.605
2339938.093;16.093;15.050;12.107;14.566;11.139;-6.557;-5.998;-7.190
2339938.101;12.405;11.437;7.637;11.958;8.158;-2.868;-3.800;-6.072
2339938.109;6.482;6.333;2.049;5.998;4.731;0.112;-1.751;-3.204
2339938.117;-1.006;-1.378;-5.141;-2.272;-2.235;-1.080;-3.800;-2.980
2339938.125;-4.694;-5.886;-9.574;-7.972;-7.972;-2.310;-6.296;-4.023
2339938.133;-4.172;-6.482;-9.015;-9.276;-5.998;-3.204;-7.562;-3.092
2339938.141;-6.817;-10.468;-11.884;-11.735;-8.419;-7.935;-11.288;-5.960
2339938.149;-9.872;-12.740;-15.534;-13.448;-10.766;-9.052;-12.368;-7.562
2339938.157;-9.499;-12.219;-15.534;-12.666;-9.798;-7.525;-9.760;-6.668
2339938.165;-12.554;-13.225;-18.887;-13.299;-13.933;-7.190;-8.084;-7.674
2339938.173;-17.919;-16.987;-25.295;-16.615;-20.713;-9.127;-9.313;-10.803
2339938.181;-20.452;-20.415;-27.604;-18.626;-24.512;-10.580;-10.356;-12.331
2339938.189;-22.426;-21.122;-29.057;-18.105;-25.667;-9.909;-9.127;-12.256
2339938.197;-20.079;-20.489;-26.114;-18.254;-20.191;-7.711;-7.264;-10.990
2339938.205;-13.374;-15.274;-19.111;-14.342;-12.442;-6.929;-6.966;-9.537
2339938.213;-10.207;-12.107;-14.491;-12.927;-8.494;-7.600;-6.519;-10.096
2339938.221;-9.686;-12.293;-14.342;-14.566;-9.499;-7.637;-4.880;-12.070
2339938.246;-14.007;-17.099;-18.664;-18.962;-13.039;-10.282;-7.451;-15.162
2339938.254;-12.405;-15.423;-17.881;-17.695;-12.554;-8.307;-6.109;-12.852
2339938.262;-14.454;-16.578;-20.675;-19.111;-16.242;-6.855;-5.774;-10.580
2339938.270;-19.222;-21.346;-26.487;-23.693;-21.979;-5.849;-5.178;-8.605
2339938.278;-27.083;-29.691;-34.831;-32.075;-28.722;-5.998;-4.545;-9.052
2339938.286;-31.851;-35.912;-39.153;-38.818;-30.100;-8.941;-5.886;-12.293
2339938.294;-32.336;-37.514;-38.072;-41.798;-26.077;-8.345;-5.215;-13.672
2339938.302;-32.410;-38.818;-38.557;-43.549;-26.152;-10.170;-9.499;-14.342
2339938.310;-31.516;-38.743;-38.594;-44.256;-27.381;-9.537;-10.580;-12.033
2339938.318;-29.616;-36.508;-38.482;-41.910;-27.083;-6.407;-7.004;-7.786
2339938.326;-30.212;-36.508;-41.351;-42.953;-30.063;0.186;-1.192;-2.906
2339938.334;-35.055;-40.084;-45.709;-46.566;-35.726;6.184;3.949;-0.186
2339938.342;-26.487;-30.883;-37.402;-36.061;-28.685;10.543;6.929;1.341
2339938.350;-29.467;-31.777;-40.941;-35.129;-31.628;12.405;9.276;-0.373
2339938.358;-31.032;-31.404;-43.139;-31.851;-32.671;17.621;14.566;3.092
2339938.366;-25.928;-24.699;-37.923;-24.959;-25.593;20.601;17.993;7.562
2339938.374;-22.762;-21.420;-33.006;-22.687;-21.495;17.956;17.211;6.072
2339938.382;-16.503;-16.354;-25.705;-18.030;-15.460;13.746;16.019;4.508
2339938.390;-17.248;-18.813;-25.965;-21.458;-15.609;6.109;8.717;0.931
2339938.398;-19.781;-21.830;-28.163;-25.630;-17.472;-0.522;0.708;0.075
2339938.406;-24.959;-25.965;-32.075;-29.206;-19.856;-4.359;-6.221;-0.373
2339938.414;-33.192;-33.528;-39.749;-36.545;-28.051;-3.763;-8.270;0.633
2339938.422;-36.769;-35.986;-43.325;-37.774;-31.702;-1.788;-4.880;0.671
2339938.430;-38.370;-37.104;-45.486;-37.216;-32.447;1.490;-0.037;0.224
2339938.399;-40.643;-38.445;-47.386;-37.216;-33.565;1.714;2.906;-1.080
2339938.407;-42.096;-38.594;-48.764;-37.067;-35.688;1.341;2.533;-3.055
2339938.415;-35.986;-32.261;-42.543;-31.590;-29.467;5.811;6.445;-0.708
2339938.423;-28.796;-23.991;-33.379;-23.171;-19.670;10.580;11.697;1.676
2339938.431;-28.685;-25.146;-30.585;-24.028;-15.572;9.798;11.288;-0.522
2339938.439;-29.840;-28.014;-30.734;-28.722;-16.466;10.319;8.754;-0.186
2339938.447;-27.381;-27.157;-30.175;-29.430;-15.870;13.560;9.872;2.235
2339938.455;-28.424;-28.536;-33.081;-32.187;-19.744;11.288;7.562;1.267
2339938.463;-28.685;-28.722;-34.645;-31.404;-20.452;14.603;11.511;5.476
2339938.471;-33.118;-33.490;-37.625;-35.241;-22.165;13.933;10.058;6.072
2339938.479;-31.181;-31.888;-34.459;-33.155;-19.036;13.113;8.792;8.568
2339938.487;-32.932;-35.278;-33.788;-36.322;-18.626;10.133;4.433;6.072
2339938.495;-33.416;-37.625;-32.224;-39.339;-15.795;8.456;1.900;4.582
2339938.503;-33.900;-38.818;-32.187;-39.563;-16.168;9.052;1.974;3.651
2339938.511;-38.706;-42.133;-37.067;-41.910;-20.638;9.350;3.278;1.118
2339938.519;-43.474;-44.703;-41.910;-42.543;-26.263;8.829;4.023;-0.596
2339938.527;-43.698;-44.778;-43.251;-41.872;-27.157;6.147;2.012;-1.788
2339938.535;-43.772;-45.151;-44.294;-42.878;-27.344;1.490;-3.353;-4.210
2339938.543;-44.331;-45.970;-44.815;-44.070;-27.828;-4.396;-10.096;-8.121
2339938.551;-44.405;-47.572;-44.107;-45.374;-26.524;-7.115;-12.480;-9.090
2339938.559;-43.362;-46.454;-43.251;-44.741;-23.730;-7.600;-12.629;-8.605
2339938.567;-45.188;-47.311;-45.560;-45.709;-27.381;-9.723;-14.044;-11.213
2339938.575;-44.703;-46.492;-46.007;-43.474;-29.504;-8.382;-13.001;-11.213
2339938.583;-43.213;-44.703;-44.033;-39.898;-27.604;-7.935;-10.990;-9.723
2339938.561;-42.729;-42.915;-42.394;-37.737;-25.481;-5.141;-7.786;-8.792
2339938.569;-39.861;-39.637;-40.084;-34.496;-21.234;0.335;-0.708;-5.364
2339938.577;-36.359;-36.545;-36.918;-31.590;-19.632;3.166;3.278;-3.427
2339938.585;-34.273;-33.453;-34.496;-28.312;-18.850;5.141;3.576;-1.453
2339938.593;-28.014;-28.014;-28.796;-23.097;-12.107;6.557;3.241;1.192
2339938.601;-23.767;-23.991;-26.040;-18.850;-10.319;4.768;1.043;-0.410
2339938.609;-29.281;-29.132;-31.814;-24.810;-15.497;-1.453;-3.539;-5.513
2339938.617;-34.571;-34.906;-36.955;-31.926;-18.328;-2.943;-5.141;-6.780
2339938.625;-36.508;-37.774;-37.849;-36.098;-20.154;-2.757;-5.476;-7.115
2339938.633;-31.665;-33.639;-32.894;-32.485;-15.646;0.596;-2.123;-5.700
2339938.641;-28.685;-30.473;-30.063;-29.914;-14.640;2.831;0.596;-3.166
2339938.649;-33.155;-33.416;-34.012;-32.745;-17.732;-0.671;-1.378;-4.880
2339938.657;-37.737;-38.035;-38.929;-36.620;-23.283;-5.513;-5.811;-7.786
2339938.665;-37.104;-38.669;-38.445;-36.135;-21.383;-3.539;-3.837;-5.662
2339938.673;-39.525;-42.766;-40.121;-40.419;-23.581;-6.370;-6.631;-6.594
2339938.681;-42.729;-46.492;-42.431;-43.996;-25.816;-9.574;-10.245;-7.264
2339938.689;-41.015;-43.251;-41.127;-40.270;-24.922;-7.041;-8.754;-5.886
2339938.697;-38.780;-39.563;-40.233;-37.067;-25.705;-8.456;-9.276;-8.233
2339938.705;-34.794;-35.465;-36.471;-32.894;-21.234;-8.270;-7.227;-9.052
2339938.713;-34.831;-35.353;-36.508;-32.820;-21.197;-11.362;-9.574;-12.368
2339938.721;-36.508;-38.520;-37.849;-36.657;-24.140;-12.442;-11.623;-13.523
2339938.729;-37.402;-40.084;-38.557;-38.072;-24.810;-11.101;-10.431;-10.282
2339938.737;-37.253;-38.818;-39.227;-36.620;-23.991;-11.772;-10.133;-8.866
2339938.745;-32.671;-34.049;-34.384;-32.336;-19.819;-11.623;-8.605;-7.302
2339938.757;-29.877;-31.404;-32.932;-29.691;-19.483;-12.070;-9.872;-7.525
2339938.765;-28.647;-31.516;-32.037;-29.430;-18.887;-12.480;-11.921;-9.015
2339938.773;-26.822;-29.355;-31.628;-26.710;-18.924;-9.276;-8.382;-7.637
2339938.781;-25.705;-27.083;-30.212;-24.214;-18.105;-8.680;-6.817;-8.419
2339938.789;-21.122;-22.352;-25.332;-18.515;-12.554;-5.923;-3.837;-6.221
2339938.797;-18.887;-19.930;-24.214;-14.938;-11.139;-7.115;-4.917;-7.264
2339938.805;-16.838;-18.030;-22.277;-13.560;-10.058;-9.611;-8.121;-9.276
2339938.813;-17.695;-18.068;-22.687;-13.523;-11.809;-10.654;-9.686;-10.207
2339938.821;-21.867;-22.389;-26.897;-17.807;-16.764;-14.715;-14.640;-14.342
2339938.829;-21.309;-22.091;-27.157;-17.211;-16.764;-14.938;-12.852;-13.895
2339938.837;-21.867;-22.948;-28.685;-18.924;-16.801;-18.850;-15.125;-16.205
2339938.845;-18.366;-18.477;-25.965;-15.013;-15.944;-17.434;-13.672;-14.603
2339938.853;-17.211;-16.838;-24.959;-13.858;-14.938;-16.131;-13.448;-14.119
2339938.861;-17.881;-17.956;-26.524;-16.168;-15.795;-13.635;-11.250;-14.342
2339938.869;-12.554;-12.442;-20.862;-10.841;-11.660;-7.786;-4.098;-11.958
2339938.877;-11.735;-11.288;-20.117;-9.611;-10.207;-8.047;-3.614;-13.225
2339938.885;-15.274;-15.050;-23.283;-13.113;-13.374;-10.505;-7.972;-13.709
2339938.893;-17.695;-18.179;-24.699;-17.211;-15.274;-13.076;-12.405;-13.933
2339938.901;-14.827;-16.689;-20.824;-17.770;-12.517;-14.529;-15.534;-14.193
2339938.909;-10.841;-13.039;-16.503;-14.007;-9.164;-14.491;-14.491;-14.044
2339938.917;-7.711;-8.792;-14.491;-8.009;-7.227;-10.021;-9.611;-8.941
2339938.925;-7.600;-8.643;-14.342;-8.121;-6.258;-9.611;-8.941;-7.227
2339938.933;-10.505;-11.437;-15.795;-11.399;-8.568;-13.970;-12.815;-10.729
2339938.941;-9.760;-10.394;-14.380;-10.207;-6.184;-14.305;-14.454;-13.076
2339939.042;-2.012;-3.204;-6.966;-1.416;1.676;-11.474;-11.027;-12.033
2339939.050;1.416;2.049;-2.235;5.662;4.657;-9.611;-8.568;-11.772
2339939.058;0.410;2.831;-3.055;5.886;3.092;-9.462;-9.350;-12.033
2339939.066;1.155;4.545;-2.272;6.855;4.433;-5.029;-5.923;-8.121
2339939.074;-0.484;4.135;-2.496;6.445;6.296;-3.576;-4.768;-5.625
2339939.082;-2.906;2.570;-4.545;5.662;5.551;-5.029;-5.737;-5.290
2339939.090;-2.719;3.055;-3.539;6.445;4.098;-8.978;-9.164;-8.158
2339939.098;3.129;8.680;3.316;11.548;9.388;-12.815;-13.150;-11.884
2339939.106;11.846;16.093;12.368;18.366;15.311;-14.491;-14.715;-14.007
2339939.114;20.042;26.412;21.532;29.355;22.240;-8.829;-10.170;-10.580
2339939.122;33.751;41.574;36.843;44.107;35.502;-6.594;-7.749;-8.568
2339939.130;46.343;53.495;50.180;55.730;45.113;-5.737;-7.004;-9.015
2339939.138;60.163;68.769;63.367;71.228;54.501;-1.900;-2.868;-7.339
2339939.146;77.114;84.676;82.143;86.240;68.285;2.086;-0.261;-4.955
2339939.154;95.405;102.818;103.638;105.463;85.980;5.662;3.502;-2.198
2339939.162;111.125;119.209;120.029;123.940;98.310;10.170;10.170;1.416
2339939.170;124.425;133.701;133.924;139.102;111.163;12.219;13.709;2.533
2339939.178;137.500;147.969;147.820;152.960;121.593;11.735;12.852;3.688
2339939.186;139.326;149.757;150.874;156.388;123.084;7.413;6.929;2.310
2339939.194;142.865;154.302;155.196;162.758;125.729;4.917;2.943;2.570
2339939.202;139.140;149.943;152.513;159.256;122.748;3.912;-0.335;3.017
2339939.210;141.449;152.066;153.780;160.933;123.121;4.433;-0.224;3.427
2339939.218;147.745;159.182;160.187;167.005;129.081;8.754;4.545;5.402
2339939.226;145.510;156.946;157.543;165.738;127.405;10.990;8.196;7.153
2339939.161;147.633;159.629;157.580;169.761;126.660;15.274;12.852;10.394
2339939.169;142.753;153.482;152.662;163.354;123.568;16.056;13.225;9.686
2339939.177;141.524;151.657;150.576;159.331;121.370;14.715;12.107;7.264
2339939.185;136.048;145.845;145.361;153.109;117.384;9.798;8.568;3.353
2339939.193;132.658;142.455;140.965;150.502;115.559;11.921;11.064;4.172
2339939.201;121.258;132.881;128.224;140.220;105.873;12.182;9.984;2.980
2339939.209;107.028;118.837;111.349;125.244;90.674;12.256;9.201;3.129
2339939.217;93.728;104.494;96.336;110.269;79.274;10.207;6.258;2.161
2339939.225;84.192;92.946;86.948;95.628;73.425;6.892;2.012;0.410
2339939.233;68.806;75.139;72.680;76.219;62.697;2.757;-3.204;-0.410
2339939.241;54.017;59.530;58.077;60.312;51.148;-0.335;-7.078;-1.937
2339939.249;42.766;47.646;47.944;47.274;42.282;0.447;-7.972;-0.782
2339939.257;37.402;42.729;41.910;41.761;36.359;1.118;-7.227;0.447
2339939.265;33.788;37.961;38.110;35.577;34.124;-0.782;-8.419;-0.522
2339939.273;29.728;32.112;34.347;28.722;32.522;-3.502;-10.543;-1.527
2339939.281;23.097;24.363;28.051;21.458;27.604;-1.341;-8.307;-0.447
2339939.289;14.715;15.236;20.489;13.821;22.799;-2.719;-8.456;-1.341
2339939.297;11.250;11.958;17.211;11.474;20.601;-5.886;-10.543;-4.135
2339939.305;7.898;8.643;11.660;7.413;16.503;-8.382;-14.007;-7.562
2339939.313;2.123;1.937;4.917;0.186;11.548;-8.866;-14.901;-5.551
2339939.321;-2.049;-2.347;0.373;-4.433;8.903;-2.608;-10.207;0.224
2339939.329;-4.806;-5.402;-3.166;-6.780;5.029;2.868;-5.923;3.278
2339939.337;-7.898;-7.935;-6.445;-7.860;-0.298;4.880;-3.055;3.390
2339939.345;-8.382;-8.494;-7.376;-7.600;-1.006;6.407;0.596;2.682
2339939.353;-10.468;-10.021;-10.915;-8.382;-3.800;2.980;-0.447;-3.129
2339939.361;-16.689;-14.715;-16.354;-12.331;-9.015;1.974;-1.118;-4.731
2339939.369;-19.930;-17.397;-19.781;-14.827;-12.033;2.533;0.410;-4.023
2339939.377;-22.352;-20.117;-24.140;-18.105;-15.981;1.863;-0.782;-5.886
2339939.341;-22.948;-20.675;-25.518;-19.372;-15.832;0.894;-2.235;-6.109
2339939.349;-26.673;-24.661;-30.249;-23.507;-18.887;0.820;-3.017;-5.625
2339939.357;-29.169;-27.493;-34.310;-25.816;-23.730;5.104;0.484;-0.857
2339939.365;-30.957;-30.324;-37.253;-28.349;-26.897;6.035;1.267;0.633
2339939.373;-34.049;-33.490;-39.414;-31.255;-28.685;3.278;-0.633;-2.459
2339939.381;-28.871;-27.642;-33.900;-26.189;-23.581;7.004;3.688;0.037
2339939.389;-28.946;-27.120;-34.384;-26.263;-25.705;6.557;1.565;0.224
2339939.397;-28.834;-27.344;-34.384;-27.828;-24.848;6.892;1.043;0.633
2339939.405;-27.567;-26.785;-33.230;-28.983;-22.501;6.035;-0.820;-0.857
2339939.413;-24.699;-24.177;-29.877;-25.779;-19.968;3.316;-3.688;-2.645
2339939.421;-26.375;-24.810;-30.138;-26.338;-18.775;-3.166;-8.307;-8.717
2339939.429;-29.430;-28.498;-33.006;-28.536;-20.377;-7.823;-12.182;-12.256
2339939.437;-31.292;-31.218;-36.061;-32.149;-25.108;-7.823;-12.070;-11.437
2339939.445;-34.049;-32.671;-39.153;-34.384;-29.728;-7.078;-10.580;-10.207
2339939.453;-35.428;-33.304;-40.978;-34.645;-31.553;-7.823;-12.256;-10.468
2339939.461;-29.840;-27.157;-35.129;-27.977;-24.401;-2.980;-7.972;-6.333
2339939.469;-26.561;-25.295;-31.814;-25.220;-20.973;1.602;-3.204;-4.247
2339939.477;-29.877;-29.579;-35.018;-28.461;-24.401;1.118;-4.284;-4.768
2339939.485;-33.490;-32.261;-39.227;-31.143;-29.393;0.037;-5.662;-5.029
2339939.493;-35.428;-33.826;-42.208;-33.528;-31.665;-1.900;-7.413;-8.531
2339939.501;-35.577;-35.502;-42.282;-36.210;-32.410;-2.496;-7.898;-10.692
2339939.509;-32.932;-33.714;-39.488;-35.092;-30.845;-5.327;-10.803;-10.543
2339939.517;-27.493;-28.759;-31.702;-30.547;-23.656;-11.697;-18.515;-13.672
2339939.525;-28.834;-29.802;-31.404;-30.845;-23.097;-12.442;-20.638;-12.703
2339939.552;-32.298;-33.118;-34.831;-34.906;-26.524;-10.766;-18.701;-11.139
2339939.560;-27.791;-28.275;-30.994;-31.218;-21.569;-4.806;-12.778;-8.196
2339939.568;-25.257;-24.699;-29.728;-28.126;-22.799;-2.496;-9.388;-7.041
2339939.576;-23.320;-23.134;-29.244;-25.667;-23.097;-2.645;-7.190;-8.382
2339939.584;-22.799;-23.246;-29.244;-24.401;-22.985;-1.416;-4.061;-8.307
2339939.592;-26.599;-27.791;-33.379;-29.095;-26.710;-4.023;-5.066;-10.505
2339939.600;-29.318;-31.330;-36.843;-33.192;-29.244;-9.537;-8.792;-16.727
2339939.608;-31.516;-32.596;-38.855;-34.124;-31.181;-9.723;-10.692;-16.987
2339939.616;-34.831;-35.241;-41.053;-36.620;-33.975;-10.133;-13.113;-13.635
2339939.624;-36.024;-35.949;-42.021;-37.998;-34.161;-9.909;-15.423;-10.878
2339939.632;-32.820;-34.682;-38.482;-36.620;-31.181;-6.072;-12.517;-4.955
2339939.640;-32.932;-35.129;-38.818;-36.098;-33.006;-6.519;-12.591;-4.843
2339939.648;-26.524;-27.381;-32.410;-26.822;-27.530;-1.825;-7.898;-2.570
2339939.656;-24.214;-23.916;-30.547;-23.432;-25.965;-0.037;-6.855;-1.416
2339939.664;-29.467;-28.946;-34.124;-29.579;-29.542;-3.278;-10.431;-3.614
2339939.672;-36.843;-35.502;-40.047;-34.906;-34.757;-7.451;-14.231;-8.121
2339939.680;-38.967;-36.582;-41.127;-36.061;-34.943;-10.282;-15.721;-11.995
2339939.688;-34.198;-30.696;-36.918;-29.169;-32.671;-8.419;-11.399;-14.640
2339939.696;-29.728;-25.555;-32.596;-23.171;-27.381;-2.533;-4.023;-10.915
2339939.704;-31.628;-27.716;-32.522;-26.226;-25.481;0.037;-0.931;-6.184
2339939.712;-35.837;-33.155;-36.955;-32.969;-28.946;-2.533;-4.172;-6.072
2339939.720;-37.588;-35.875;-39.451;-36.322;-32.112;-4.433;-7.451;-5.774
2339939.728;-35.353;-33.453;-38.370;-34.235;-31.888;-3.986;-5.998;-7.153
2339939.736;-30.063;-28.536;-34.012;-30.324;-26.859;-2.161;-3.502;-7.153
2339939.807;-31.628;-29.691;-35.577;-32.149;-27.977;-0.373;-1.714;-7.004
2339939.815;-25.071;-23.283;-29.244;-26.673;-21.644;2.310;-0.447;-4.731
2339939.823;-16.652;-14.678;-21.569;-18.701;-15.534;1.825;-1.639;-5.923
2339939.831;-15.423;-13.672;-22.724;-16.168;-17.956;-0.261;-1.825;-7.786
2339939.839;-13.337;-11.697;-21.905;-13.672;-17.323;2.012;0.000;-5.625
2339939.847;-14.417;-12.368;-22.128;-15.013;-16.727;2.421;-0.149;-4.880
2339939.855;-17.434;-16.205;-23.395;-18.068;-18.105;-2.161;-4.582;-8.792
2339939.863;-17.025;-15.497;-20.936;-17.136;-14.789;-5.402;-7.898;-10.245
2339939.871;-16.503;-15.795;-17.993;-17.285;-11.474;-8.233;-10.543;-10.282
2339939.879;-17.583;-17.807;-17.695;-19.111;-11.139;-11.548;-13.970;-11.586
2339939.887;-17.397;-16.950;-18.589;-18.403;-11.437;-7.786;-10.021;-7.451
2339939.895;-22.799;-22.128;-24.512;-22.575;-16.578;-6.557;-8.903;-8.009
2339939.903;-25.257;-24.661;-25.928;-24.959;-16.987;-4.731;-8.345;-7.413
2339939.911;-26.785;-26.226;-27.157;-26.859;-18.440;-8.643;-10.915;-9.798
2339939.919;-25.742;-24.661;-26.450;-25.444;-18.813;-10.505;-12.703;-10.543
2339939.927;-20.862;-19.558;-22.277;-20.564;-14.640;-7.600;-10.356;-8.754
2339939.935;-14.082;-11.325;-15.534;-11.995;-9.201;-3.688;-5.588;-5.588
2339939.943;-11.325;-7.749;-10.990;-8.717;-6.594;-2.123;-3.427;-3.725
2339939.951;-15.274;-11.139;-15.087;-11.362;-10.282;-6.557;-7.711;-6.594
2339939.959;-20.415;-15.907;-19.893;-15.907;-14.789;-8.084;-10.170;-8.158
2339939.967;-18.701;-15.385;-17.248;-16.280;-11.958;-6.296;-8.717;-5.998
2339939.975;-17.472;-14.417;-15.646;-15.348;-10.803;-4.098;-6.855;-3.204
2339939.983;-18.217;-15.497;-14.715;-15.646;-9.947;-1.565;-5.104;-0.112
2339939.991;-21.681;-19.036;-16.876;-19.670;-10.468;-2.496;-5.811;-2.049
2339940.092;-22.911;-19.856;-18.068;-19.446;-11.958;-0.708;-4.023;-1.453
2339940.100;-21.495;-20.228;-16.466;-18.552;-11.474;0.708;-3.129;-1.378
2339940.108;-21.867;-20.899;-17.211;-19.148;-12.331;-3.725;-6.780;-4.470
2339940.116;-20.526;-19.409;-15.274;-18.813;-10.245;-5.700;-6.855;-4.135
2339940.124;-22.724;-20.675;-17.732;-19.819;-12.293;-8.270;-8.419;-6.072
2339940.132;-24.550;-22.538;-18.366;-22.426;-11.995;-11.101;-12.591;-8.792
2339940.140;-21.271;-20.675;-15.050;-21.793;-9.350;-9.499;-11.325;-8.047
2339940.148;-18.589;-18.962;-13.672;-20.824;-9.313;-7.078;-9.686;-7.115
2339940.156;-13.821;-12.815;-8.829;-15.311;-4.433;-4.880;-9.499;-5.029
2339940.164;-9.909;-8.792;-5.662;-10.990;-2.012;-4.210;-8.978;-4.731
2339940.172;-10.245;-8.903;-6.184;-11.288;-2.831;-0.522;-5.364;-4.247
2339940.180;-13.672;-12.405;-9.947;-13.821;-6.109;1.714;-2.757;-4.321
2339940.188;-11.921;-9.723;-8.456;-10.654;-5.923;5.253;2.049;-1.527
2339940.196;-14.640;-12.554;-10.766;-14.044;-8.307;6.929;3.837;0.261
2339940.204;-15.572;-13.933;-11.139;-15.497;-8.792;9.164;5.253;2.980
2339940.212;-16.242;-14.789;-11.660;-16.615;-7.935;10.841;5.588;5.662
2339940.220;-15.497;-13.672;-11.511;-15.348;-7.786;10.990;5.551;5.402
2339940.228;-13.411;-11.362;-10.319;-12.293;-5.476;11.064;6.631;5.960
2339940.236;-11.958;-9.090;-10.245;-10.952;-5.998;9.798;5.923;5.104
2339940.244;-13.150;-10.729;-12.480;-13.039;-9.350;5.141;2.161;1.602
2339940.252;-13.448;-10.990;-13.262;-13.784;-10.543;3.166;-0.149;-1.304
2339940.260;-14.491;-12.144;-15.423;-14.976;-12.852;1.676;-1.006;-4.284
2339940.268;-14.603;-11.399;-15.385;-13.486;-13.374;1.863;-0.745;-3.129
2339940.276;-11.958;-8.419;-12.964;-8.382;-9.835;4.284;0.708;0.224
2339940.317;-7.227;-4.284;-8.978;-3.874;-6.370;6.109;2.943;1.788
2339940.325;-6.296;-2.496;-8.084;-2.943;-5.886;3.763;2.123;-0.075
2339940.333;-4.694;-1.043;-6.892;-2.347;-3.278;5.402;4.619;1.341
2339940.341;-6.296;-2.906;-9.201;-3.204;-6.817;5.253;3.427;1.453
2339940.349;-8.717;-4.470;-12.219;-4.508;-9.313;7.600;5.439;2.384
2339940.357;-13.039;-9.201;-16.727;-9.947;-13.486;7.190;5.923;1.490
2339940.365;-16.131;-12.890;-18.515;-14.752;-13.448;7.562;6.519;2.608
2339940.373;-14.305;-12.442;-15.683;-13.299;-11.027;7.823;6.258;2.570
2339940.381;-13.858;-11.399;-15.087;-11.288;-11.437;6.407;6.743;1.490
2339940.389;-10.692;-8.009;-11.809;-8.121;-8.456;10.096;9.611;5.104
2339940.397;-10.915;-9.201;-12.554;-10.207;-9.686;8.270;6.445;3.092
2339940.405;-12.927;-10.654;-15.087;-13.262;-10.803;7.451;5.662;2.384
2339940.413;-10.617;-7.972;-12.331;-10.133;-7.674;9.537;6.892;4.023
2339940.421;-5.960;-2.943;-8.456;-4.470;-5.253;10.468;8.941;4.657
2339940.429;-4.731;-2.608;-7.562;-5.625;-5.476;8.866;6.929;4.880
2339940.437;-7.488;-5.737;-10.543;-9.723;-9.201;5.364;2.459;3.166
2339940.445;-11.958;-9.760;-13.672;-14.901;-12.107;6.109;2.161;3.651
2339940.453;-19.148;-16.578;-20.750;-21.458;-17.919;3.688;0.298;1.825
2339940.461;-17.248;-15.087;-19.707;-17.695;-16.503;0.447;-1.118;-2.496
2339940.469;-13.411;-12.480;-16.466;-15.497;-13.933;-1.416;-2.906;-6.594
2339940.477;-11.697;-12.368;-14.417;-17.025;-11.660;-4.433;-5.998;-8.307
2339940.485;-7.935;-7.711;-10.580;-13.039;-7.153;-1.676;-3.055;-4.582
2339940.493;-10.058;-9.239;-13.523;-13.709;-10.207;-2.198;-4.061;-6.184
2339940.501;-14.231;-13.299;-18.440;-16.838;-16.168;-1.900;-4.470;-5.364
2339940.511;-12.629;-12.033;-17.397;-15.274;-14.454;-0.224;-4.619;-2.421
2339940.519;-10.468;-9.574;-15.423;-13.188;-12.070;2.049;-1.304;-0.112
2339940.527;-14.827;-14.044;-19.930;-17.583;-17.658;2.235;1.192;0.596
2339940.535;-17.956;-18.403;-21.048;-22.240;-18.701;2.608;3.576;0.373
2339940.543;-18.217;-18.850;-21.718;-23.022;-21.756;0.037;1.267;-2.161
2339940.551;-13.560;-13.486;-17.434;-17.285;-17.807;3.763;4.247;0.484
2339940.559;-14.678;-14.305;-18.515;-17.844;-17.248;5.662;5.066;2.570
2339940.567;-19.819;-19.409;-24.773;-23.358;-22.613;2.943;1.788;1.043
2339940.575;-21.420;-22.836;-26.114;-26.859;-24.550;3.912;1.341;2.235
2339940.583;-19.297;-22.352;-23.022;-27.306;-22.501;4.061;1.714;4.210
2339940.591;-17.881;-21.979;-20.415;-28.498;-19.446;0.596;-2.980;2.459
2339940.599;-20.340;-23.246;-23.097;-29.951;-22.389;-4.470;-8.605;-1.788
2339940.607;-21.309;-23.767;-24.848;-29.802;-24.773;-5.290;-10.207;-3.204
2339940.615;-18.515;-20.117;-22.165;-25.667;-20.638;-0.335;-7.004;0.335
2339940.623;-20.489;-21.420;-23.618;-26.152;-20.526;-0.894;-6.743;-1.527
2339940.631;-21.309;-20.266;-23.209;-24.177;-19.707;1.378;-2.831;-1.490
2339940.639;-22.277;-19.893;-24.550;-22.873;-20.899;5.178;1.788;0.298
2339940.647;-20.526;-18.105;-22.464;-20.713;-19.334;6.035;3.353;1.416
2339940.655;-21.160;-18.217;-24.065;-20.638;-21.346;3.390;2.570;-1.043
2339940.663;-21.718;-18.179;-24.438;-21.346;-19.856;3.763;2.943;-0.708
2339940.671;-23.656;-20.601;-25.034;-25.146;-18.142;3.055;0.224;-1.118
2339940.679;-22.054;-19.521;-22.203;-24.289;-15.050;1.602;-1.527;-1.416
2339940.687;-17.546;-15.721;-17.285;-19.930;-11.548;4.172;0.708;1.527
2339940.695;-15.050;-13.970;-15.162;-16.317;-9.350;8.270;4.061;4.508
2339940.661;-17.732;-16.354;-17.136;-18.626;-11.325;3.651;-0.373;-1.490
2339940.669;-17.136;-15.683;-16.168;-18.701;-10.245;-0.633;-3.949;-5.849
2339940.677;-14.082;-13.746;-14.827;-17.136;-8.307;-3.055;-5.327;-7.376
2339940.685;-20.266;-19.148;-21.756;-22.054;-15.460;-4.545;-8.047;-9.686
2339940.693;-23.022;-19.632;-25.108;-21.160;-17.881;2.347;-3.576;-4.545
2339940.701;-24.252;-19.073;-26.003;-18.850;-17.881;9.276;2.198;2.719
2339940.709;-24.438;-18.254;-25.518;-17.285;-16.727;9.052;1.900;3.800
2339940.717;-21.011;-16.093;-21.867;-15.981;-13.672;8.792;0.708;3.539
2339940.725;-18.626;-14.454;-18.552;-15.572;-11.250;4.321;-2.459;-1.341
2339940.733;-16.391;-13.299;-16.615;-13.299;-9.499;0.559;-2.682;-4.508
2339940.741;-12.070;-9.537;-12.405;-10.468;-4.768;2.868;2.570;-5.253
2339940.749;-6.370;-4.731;-6.147;-6.147;2.272;5.923;6.668;-2.794
2339940.757;-7.004;-6.370;-6.743;-7.264;1.974;7.488;6.668;0.224
2339940.765;-6.557;-4.508;-6.892;-5.104;2.459;11.623;8.121;4.396
2339940.773;-15.348;-12.703;-15.683;-12.703;-5.588;8.829;3.241;1.192
2339940.781;-23.432;-21.160;-23.171;-20.936;-13.076;3.763;-3.241;-3.688
2339940.789;-27.791;-26.040;-26.077;-25.481;-15.423;-1.565;-7.823;-9.462
2339940.797;-28.908;-26.599;-29.057;-26.114;-19.260;-6.892;-10.394;-13.225
2339940.805;-26.785;-22.203;-28.834;-20.973;-20.675;-6.072;-7.078;-13.486
2339940.813;-12.591;-6.594;-16.987;-3.427;-11.213;2.012;3.576;-9.052
2339940.821;2.272;7.674;-2.310;10.617;2.012;11.511;11.921;-0.894
2339940.829;6.184;10.170;4.880;12.368;11.325;17.434;14.491;7.823
2339940.837;-1.043;1.527;1.490;2.198;9.015;13.113;8.084;6.631
2339940.845;-7.525;-6.370;-3.353;-7.339;3.427;10.878;3.017;5.327
2339940.871;-9.947;-9.015;-5.960;-10.394;1.043;9.649;1.900;2.496
2339940.879;-11.474;-8.419;-9.052;-9.537;-2.012;5.364;-0.522;-2.123
2339940.887;-13.895;-8.568;-11.735;-9.052;-4.694;0.969;-3.576;-6.445
2339940.895;-13.337;-7.674;-13.635;-6.482;-5.774;-1.974;-4.359;-9.723
2339940.903;-9.462;-3.502;-10.394;-0.931;-1.900;-2.906;-4.321;-12.182
2339940.911;-4.731;0.969;-5.253;4.247;1.192;-0.112;-0.820;-12.852
2339940.919;5.104;9.127;6.147;11.213;11.958;5.253;5.551;-9.052
2339940.927;11.325;13.821;13.858;14.380;19.521;11.623;8.866;-0.671
2339940.935;8.829;11.437;11.548;9.872;17.770;9.909;3.427;1.155
2339940.943;-4.619;-2.272;-2.310;-5.439;3.055;-1.416;-10.133;-5.215
2339940.951;-19.148;-16.466;-16.838;-19.521;-12.256;-10.878;-21.346;-11.399
2339940.959;-22.985;-20.377;-23.060;-22.240;-17.434;-8.754;-20.266;-10.207
2339940.967;-23.991;-21.048;-26.226;-22.128;-20.154;-5.476;-17.695;-8.345
2339940.975;-24.587;-20.601;-26.599;-21.644;-19.781;-6.147;-18.366;-9.947
2339940.983;-20.675;-16.056;-21.830;-16.987;-14.603;-0.298;-11.250;-7.525
2339940.991;-13.970;-10.133;-14.305;-9.798;-8.084;3.800;-4.210;-5.439
2339940.999;-5.625;-2.086;-5.253;-1.229;0.671;5.513;-0.149;-3.502
2339941.007;-0.596;3.055;0.000;2.272;5.215;6.706;2.868;-2.868
2339941.015;-2.868;0.633;-1.527;-0.149;4.359;0.224;-1.118;-9.425
2339941.023;-1.490;0.782;-0.671;-0.298;5.960;-4.843;-4.955;-14.156
2339941.031;12.591;12.703;11.511;12.107;18.030;3.502;4.135;-7.339
2339941.039;24.736;25.183;21.160;25.220;24.624;13.262;11.772;0.037
2339941.047;35.167;34.645;29.989;33.714;31.441;23.283;17.583;10.133
2339941.055;42.990;40.978;37.663;39.376;38.706;32.932;26.003;22.389
2339941.037;44.033;41.835;40.084;39.153;41.276;37.327;30.845;29.206
2339941.045;31.851;29.206;29.728;27.120;30.845;31.143;25.555;22.426
2339941.053;20.862;18.887;18.254;17.695;19.521;22.575;16.689;12.182
2339941.061;12.442;11.921;9.313;9.723;11.325;8.568;4.172;-1.863
2339941.069;9.760;8.643;6.668;4.619;9.835;-0.075;-3.427;-10.207
2339941.077;7.600;6.445;4.992;2.459;8.009;-3.241;-4.992;-13.262
2339941.085;11.437;8.941;9.388;6.035;12.703;1.788;-0.484;-7.451
2339941.093;16.540;15.348;13.784;13.560;15.087;5.886;2.272;0.633
2339941.101;22.389;22.464;18.664;21.718;19.521;10.133;4.731;5.886
2339941.109;24.289;23.842;19.930;22.538;18.887;6.966;0.298;2.421
2339941.117;26.859;27.269;22.836;24.773;20.340;4.284;-3.241;-1.676
2339941.125;28.834;28.908;24.736;27.567;19.409;3.316;-3.427;-4.359
2339941.133;30.771;31.032;25.369;29.989;18.477;1.825;-2.868;-6.966
2339941.141;38.706;42.319;34.384;43.996;24.997;3.017;0.261;-6.743
2339941.149;53.383;58.338;51.558;61.691;37.625;-0.335;-1.676;-8.345
2339941.157;62.361;67.912;61.654;71.377;45.635;-0.261;-1.341;-8.009
2339941.165;73.239;77.970;72.978;80.839;54.501;1.937;-0.112;-5.960
2339941.173;88.140;92.909;88.774;95.703;66.571;1.080;-1.676;-7.637
2339941.181;103.004;108.257;103.451;110.343;78.678;8.754;6.929;-1.863
2339941.189;110.306;115.633;111.610;117.868;84.303;14.082;13.486;1.602
2339941.197;117.458;122.823;120.737;123.158;93.505;11.139;11.362;-0.298
2339941.205;120.886;126.436;124.127;125.393;96.858;9.760;9.239;0.745
2339941.213;115.409;119.209;118.427;116.453;91.568;7.749;5.737;1.751
2339941.221;105.165;108.257;108.965;104.234;84.341;11.437;6.780;6.966
2339941.231;91.530;93.877;95.442;90.711;72.196;13.523;6.668;10.692
2339941.239;77.412;77.374;81.398;73.239;62.361;10.356;2.831;9.798
2339941.247;59.791;58.971;63.777;54.762;48.764;5.998;0.410;6.184
2339941.255;47.125;45.858;50.068;41.835;36.173;1.527;-4.098;2.719
2339941.263;42.170;41.202;42.655;36.769;29.951;2.421;-4.210;2.235
2339941.271;40.010;39.712;38.855;33.639;27.642;5.551;-1.155;4.172
2339941.279;39.637;40.084;36.731;34.124;26.748;9.499;4.135;6.109
2339941.287;36.694;37.365;31.777;32.522;22.724;7.972;4.210;5.066
2339941.295;35.055;34.459;28.200;29.840;19.409;6.370;2.272;5.476
2339941.303;29.840;28.796;24.401;24.550;15.199;3.353;-0.857;3.614
2339941.311;19.260;18.291;15.162;14.231;7.749;0.633;-2.347;0.559
2339941.319;17.583;17.509;13.374;12.666;7.078;3.539;1.974;2.421
2339941.327;18.589;17.248;14.491;12.815;10.319;7.972;5.215;6.519
2339941.335;15.274;14.231;11.586;10.654;9.276;9.201;6.296;6.668
2339941.343;17.919;17.956;14.566;14.715;11.995;13.262;10.505;8.196
2339941.351;13.970;12.778;12.591;9.723;10.692;12.405;10.617;7.488
2339941.359;9.947;8.345;9.835;4.433;9.388;10.431;9.425;5.327
2339941.367;6.147;5.700;7.562;2.086;10.505;10.841;9.313;4.843
2339941.375;0.186;0.708;0.373;-2.272;3.465;10.096;8.419;4.284
2339941.383;-0.224;0.671;-1.080;-2.161;1.490;11.437;10.654;6.147
2339941.391;3.986;7.376;1.341;4.247;3.129;14.156;14.827;8.419
2339941.399;5.066;9.723;2.123;7.749;3.986;15.497;17.658;7.413
2339941.407;-3.241;0.149;-4.657;-0.298;-0.894;10.803;13.299;1.453
2339941.415;-9.835;-7.525;-10.543;-8.754;-6.594;5.998;9.350;-2.459
2339941.486;-10.170;-7.749;-11.735;-10.058;-8.717;5.066;7.749;-2.272
2339941.494;-6.333;-2.794;-9.909;-3.912;-8.307;9.052;10.580;2.123
2339941.502;-10.245;-4.508;-15.795;-3.651;-14.007;6.631;7.786;0.298
2339941.510;-16.242;-9.425;-23.358;-9.015;-19.372;1.192;2.570;-3.651
2339941.518;-18.328;-12.256;-24.065;-11.101;-19.521;-2.161;-0.447;-6.407
2339941.526;-18.738;-13.970;-22.501;-12.107;-18.440;-3.055;-1.229;-6.109
2339941.534;-21.979;-17.621;-25.928;-15.870;-21.756;-4.768;-3.390;-7.413
2339941.542;-24.699;-19.744;-28.424;-18.142;-22.575;-4.992;-4.843;-7.562
2339941.550;-26.412;-22.762;-28.946;-20.042;-21.942;-7.413;-7.264;-9.984
2339941.558;-23.544;-19.222;-25.742;-16.205;-19.111;-9.239;-8.196;-12.070
2339941.566;-20.415;-15.870;-22.538;-13.225;-15.832;-7.972;-7.451;-11.064
2339941.574;-15.497;-11.772;-18.179;-9.164;-11.586;-2.794;-2.161;-5.178
2339941.582;-16.429;-13.113;-18.515;-10.468;-12.107;-0.373;-0.410;-0.559
2339941.590;-19.930;-18.105;-20.377;-16.540;-13.337;0.447;-1.006;1.900
2339941.598;-20.601;-18.924;-19.260;-19.632;-12.070;-2.533;-4.694;-2.682
2339941.606;-14.566;-14.007;-14.901;-15.050;-8.866;-0.931;-3.353;-2.906
2339941.614;-16.466;-15.832;-18.179;-16.466;-12.331;0.112;-2.123;-2.868
2339941.622;-14.901;-13.299;-17.509;-14.715;-11.437;2.570;-0.037;-0.633
2339941.630;-11.362;-10.617;-14.193;-12.405;-7.264;3.390;1.304;0.224
2339941.638;-11.548;-13.001;-14.305;-14.789;-8.680;0.112;-1.304;-2.831
2339941.646;-13.262;-14.715;-14.752;-17.472;-9.611;-1.378;-2.906;-2.943
2339941.654;-12.815;-13.672;-14.342;-15.795;-8.866;-1.863;-2.123;-2.161
2339941.662;-12.703;-13.933;-14.305;-15.721;-8.047;-4.321;-4.470;-4.210
2339941.670;-12.107;-12.964;-13.262;-14.044;-6.557;-6.817;-5.253;-4.694
2339941.712;-14.864;-15.199;-16.615;-15.423;-9.984;-9.537;-7.711;-5.662
2339941.720;-15.646;-15.385;-16.280;-16.429;-7.451;-9.052;-8.643;-5.178
2339941.728;-13.635;-13.448;-13.597;-14.640;-5.625;-7.749;-7.860;-4.433
2339941.736;-11.213;-11.809;-12.778;-12.033;-6.482;-5.215;-5.476;-4.508
2339941.744;-11.362;-12.107;-14.044;-11.697;-7.115;-3.614;-3.017;-4.657
2339941.752;-14.976;-15.609;-18.626;-14.380;-10.245;-7.041;-4.210;-7.413
2339941.760;-15.572;-16.168;-18.887;-15.609;-9.798;-9.388;-6.407;-8.605
2339941.768;-12.740;-13.895;-15.162;-14.119;-7.860;-6.519;-3.763;-6.109
2339941.776;-7.451;-9.909;-8.829;-10.096;-2.272;1.229;2.645;0.447
2339941.784;-8.307;-11.250;-9.686;-11.064;-1.863;1.900;1.043;1.527
2339941.792;-10.058;-12.033;-11.809;-11.772;-3.651;-2.347;-4.470;-1.006
2339941.800;-8.605;-10.431;-9.462;-10.952;-1.043;-5.253;-7.525;-1.527
2339941.808;-11.139;-16.280;-11.325;-17.993;-0.596;-10.654;-13.858;-4.694
2339941.816;-6.519;-14.193;-6.147;-16.727;5.029;-10.133;-13.225;-5.960
2339941.824;-4.396;-11.846;-5.141;-14.305;6.519;-6.855;-8.531;-6.258
2339941.832;-3.614;-9.723;-5.588;-11.325;5.513;-3.502;-4.619;-3.614
2339941.840;-9.425;-14.901;-11.958;-15.832;-1.788;-6.519;-6.929;-5.662
2339941.848;-16.205;-22.687;-17.434;-23.283;-6.594;-9.350;-11.176;-7.786
2339941.856;-21.830;-28.424;-22.054;-28.387;-11.250;-11.660;-15.944;-9.425
2339941.864;-19.558;-26.077;-19.446;-25.593;-8.792;-9.015;-14.752;-6.184
2339941.872;-11.995;-17.546;-12.591;-16.764;-1.937;-3.651;-10.133;0.037
2339941.880;-4.880;-10.282;-7.153;-9.984;1.378;0.708;-6.817;3.725
2339941.888;-6.147;-13.076;-8.158;-13.001;-0.410;-0.484;-7.004;3.874
2339941.896;-5.327;-11.437;-5.998;-13.039;2.608;-1.192;-5.811;3.912
2339941.906;-7.413;-12.554;-8.345;-14.193;0.931;-5.253;-7.935;-0.075
2339941.914;-9.239;-13.709;-10.841;-15.460;-3.166;-6.296;-7.860;-1.751
2339941.922;-13.858;-18.254;-16.540;-19.446;-8.792;-6.668;-7.860;-2.943
2339941.930;-17.472;-22.277;-20.266;-23.767;-11.399;-5.029;-6.072;-1.639
2339941.938;-17.323;-22.687;-19.334;-23.991;-9.760;-5.625;-6.780;-1.341
2339941.946;-11.809;-16.391;-13.523;-17.993;-4.731;-4.992;-7.004;0.075
2339941.954;-7.786;-12.033;-10.356;-13.225;-1.155;-5.215;-7.339;-0.335
2339941.962;-9.052;-13.076;-11.921;-13.746;-3.725;-7.860;-9.388;-3.390
2339941.970;-10.952;-15.870;-13.858;-17.323;-5.476;-7.488;-9.574;-2.570
2339941.978;-8.233;-13.150;-11.027;-14.417;-2.049;-5.439;-7.302;-0.186
2339941.986;-9.835;-15.162;-12.331;-16.280;-4.470;-4.768;-5.513;0.857
2339941.994;-9.313;-13.821;-11.958;-16.205;-4.694;-2.198;-2.086;4.061
2339942.002;-7.376;-10.990;-9.164;-13.597;-1.229;-0.522;0.112;6.035
2339942.010;-10.841;-14.342;-12.815;-15.609;-4.917;-4.098;-3.316;0.782
2339942.018;-7.749;-10.580;-10.133;-11.399;-2.943;-5.141;-3.912;-0.037
2339942.026;1.676;-1.751;-0.931;-3.614;4.731;-0.298;1.527;4.061
2339942.034;-0.559;-4.955;-3.055;-7.376;2.496;0.149;0.373;4.806
2339942.042;-1.490;-5.886;-4.359;-7.749;1.937;4.657;4.470;7.376
2339942.050;-7.413;-12.033;-10.990;-13.635;-5.886;5.141;5.029;5.998
2339942.058;-11.586;-15.944;-15.199;-17.993;-11.027;5.364;5.364;6.892
2339942.066;-11.437;-16.615;-13.821;-19.222;-10.058;5.923;4.768;8.345
2339942.074;-8.009;-14.529;-9.388;-17.472;-4.843;2.123;0.298;5.960
2339942.082;-8.605;-14.752;-10.692;-18.328;-7.115;-3.055;-4.210;0.894
2339942.090;-8.717;-15.087;-11.101;-18.701;-7.637;-2.719;-3.614;0.559
2339942.013;-12.219;-19.632;-15.274;-23.320;-12.033;-0.633;-1.118;2.831
2339942.021;-10.952;-19.036;-13.635;-24.959;-10.207;0.559;-0.186;5.625
2339942.029;-11.809;-19.930;-15.460;-26.934;-12.368;-4.172;-5.290;1.527
2339942.037;-11.325;-19.260;-15.683;-25.854;-12.256;-6.743;-7.749;-0.298
2339942.045;-10.021;-16.764;-15.274;-21.569;-11.809;-7.227;-6.557;-0.708
2339942.053;-9.686;-15.125;-14.305;-19.111;-11.772;-6.221;-3.502;-0.149
2339942.061;-9.947;-15.497;-14.491;-19.036;-11.697;-7.004;-3.017;-3.241
2339942.069;-6.631;-11.697;-12.852;-14.901;-10.580;-2.682;1.490;-1.863
2339942.077;-9.388;-13.933;-15.125;-17.695;-12.740;1.825;3.949;2.868
2339942.085;-5.998;-9.984;-12.554;-14.007;-11.213;0.335;1.825;3.688
2339942.093;-1.751;-5.513;-9.611;-9.649;-8.270;2.570;3.725;6.184
2339942.101;-6.743;-11.660;-14.901;-15.274;-13.486;2.012;4.731;3.874
2339942.109;-8.531;-13.933;-16.429;-18.105;-13.039;-3.241;1.565;-0.671
2339942.117;-10.654;-15.758;-18.999;-19.707;-16.689;-8.531;-4.284;-4.806
2339942.125;-8.158;-11.697;-17.397;-13.784;-15.125;-9.313;-4.768;-5.960
2339942.133;-7.674;-9.462;-16.764;-12.033;-14.305;-6.929;-2.570;-3.912
2339942.141;-11.660;-14.752;-19.968;-16.689;-18.105;-6.892;-2.235;-2.645
2339942.149;-12.293;-15.683;-19.073;-17.583;-16.429;-6.557;-3.353;-1.267
2339942.157;-7.264;-9.350;-13.374;-11.511;-10.245;-1.006;1.304;2.198
2339942.165;-5.774;-7.749;-11.660;-9.462;-9.313;0.559;4.768;1.490
2339942.173;-9.984;-11.325;-14.342;-12.815;-12.815;-1.639;5.029;-2.794
2339942.181;-12.778;-13.523;-16.317;-15.534;-12.852;-0.671;8.009;-3.092
2339942.189;-7.674;-9.537;-10.990;-11.474;-6.631;0.373;8.233;-1.378
2339942.197;0.671;-0.596;-2.980;-1.267;1.751;3.353;10.133;0.559
2339942.177;-0.261;-1.267;-4.545;-1.900;1.043;5.215;11.213;2.235
2339942.185;-4.098;-4.955;-7.562;-5.886;-1.490;4.657;10.058;3.912
2339942.193;-9.723;-9.872;-13.076;-11.623;-6.631;1.267;5.327;2.161
2339942.201;-12.629;-10.915;-15.683;-11.697;-9.574;-1.378;1.602;-0.484
2339942.209;-13.188;-10.654;-16.801;-10.766;-9.499;-0.037;3.353;1.267
2339942.217;-13.411;-11.213;-16.764;-9.798;-8.978;1.453;5.700;3.092
2339942.225;-14.454;-12.070;-17.546;-10.952;-10.319;1.155;5.029;4.210
2339942.233;-11.586;-8.792;-14.678;-8.047;-8.605;-1.155;4.619;2.310
2339942.241;-9.760;-7.451;-11.586;-6.743;-5.253;-3.129;4.247;0.894
2339942.249;-10.692;-9.872;-12.070;-8.009;-3.166;-1.080;6.035;2.198
2339942.257;-7.637;-6.631;-10.058;-2.757;-0.373;6.445;13.858;7.227
2339942.265;-9.686;-8.158;-12.629;-5.476;-2.645;9.537;15.050;9.350
2339942.273;-11.958;-10.058;-16.131;-8.158;-6.631;8.903;12.852;9.164
2339942.281;-7.451;-6.184;-12.331;-3.316;-3.465;10.245;12.070;10.915
2339942.289;-5.700;-3.651;-10.096;-1.304;-0.671;6.966;7.935;8.047
2339942.297;-5.066;-3.390;-9.947;-0.931;-0.969;6.743;8.494;6.109
2339942.305;-12.331;-10.580;-15.981;-9.388;-7.004;2.533;4.433;3.353
2339942.313;-17.472;-16.280;-20.042;-15.572;-10.841;0.000;1.155;1.863
2339942.321;-15.683;-14.231;-18.030;-12.107;-9.798;2.459;4.545;2.272
2339942.329;-11.772;-10.356;-14.715;-9.090;-7.451;4.619;6.668;2.868
2339942.337;-6.557;-5.029;-10.356;-3.837;-4.619;9.574;11.176;6.445
2339942.345;-6.147;-4.172;-12.331;-1.825;-5.774;10.952;12.331;7.004
2339942.353;-5.104;-2.682;-11.288;0.820;-3.763;10.394;12.666;7.562
2339942.361;-5.402;-3.986;-9.313;-0.931;-2.570;9.313;9.164;8.643
2339942.387;-4.731;-4.023;-8.009;-1.639;-1.676;8.307;7.376;9.723
2339942.395;-4.955;-4.172;-9.649;-0.969;-3.502;6.519;7.413;9.350
2339942.403;-8.009;-4.768;-11.921;-1.490;-6.035;4.321;5.998;6.072
2339942.411;-8.307;-5.402;-12.442;-1.900;-4.992;4.917;6.072;5.551
2339942.419;-5.104;-2.198;-8.829;1.006;-2.272;7.749;8.307;7.600
2339942.427;3.390;5.700;-0.410;8.196;4.843;10.431;11.288;10.803
2339942.435;10.803;11.958;8.009;13.933;11.772;8.605;10.692;7.860
2339942.443;17.062;17.807;15.609;18.626;18.552;5.923;8.084;3.800
2339942.451;21.607;22.277;21.979;24.028;22.352;4.284;4.768;2.161
2339942.459;23.656;25.444;25.705;27.716;24.848;4.917;1.006;3.390
2339942.467;29.504;32.224;30.063;33.602;25.742;9.015;2.645;7.935
2339942.475;34.347;38.892;33.528;40.270;25.593;10.654;4.284;10.990
2339942.483;49.993;56.401;50.887;58.338;39.786;8.382;4.247;9.947
2339942.491;62.473;69.775;64.448;71.339;50.887;6.109;3.949;8.643
2339942.499;72.904;80.727;74.767;83.223;59.679;5.923;5.960;7.674
2339942.507;91.754;99.018;95.256;100.918;78.045;8.494;10.394;9.723
2339942.515;108.369;116.378;110.194;118.315;88.103;10.915;14.640;9.909
2339942.523;118.874;127.032;120.476;127.889;95.367;16.391;20.787;13.262
2339942.531;126.436;136.197;128.336;137.314;102.334;14.380;19.409;12.591
2339942.539;128.821;138.730;129.193;141.785;101.551;8.009;12.256;7.376
2339942.547;128.597;138.208;129.454;140.667;98.981;8.717;11.437;6.594
2339942.555;129.007;137.463;130.348;139.102;97.752;9.723;12.927;7.078
2339942.563;120.774;126.585;124.425;126.809;93.728;9.872;12.070;6.892
2339942.571;118.352;122.525;122.264;121.854;94.324;12.964;14.231;10.096
2339942.628;111.982;116.527;115.521;115.447;89.109;13.262;14.380;10.394
2339942.636;106.581;111.908;108.480;110.641;84.415;15.758;17.583;12.331
2339942.644;93.840;97.454;93.244;96.746;71.302;13.411;16.317;8.978
2339942.652;83.260;86.688;82.739;85.272;62.436;12.591;15.348;8.643
2339942.660;72.792;74.804;71.675;73.574;53.681;8.345;10.096;6.929
2339942.668;67.502;67.949;65.528;65.155;49.844;2.980;4.135;3.166
2339942.676;63.814;64.187;62.697;59.493;49.919;5.104;6.072;5.290
2339942.684;52.750;52.527;51.819;47.572;40.233;6.557;6.557;5.998
2339942.692;38.482;37.365;37.737;30.585;28.312;6.445;5.513;8.270
2339942.700;30.249;27.977;28.424;20.899;19.260;8.382;6.519;9.872
2339942.708;31.069;28.275;29.057;20.787;20.973;9.574;7.488;11.064
2339942.716;30.287;28.089;27.195;20.191;18.962;7.972;6.147;8.307
2339942.724;29.095;26.003;24.401;18.962;16.652;8.196;7.004;7.637
2339942.732;28.051;26.003;21.569;19.185;13.262;10.058;9.127;7.115
2339942.740;30.212;28.908;23.097;23.171;15.013;17.695;15.385;13.150
2339942.748;31.590;30.734;25.034;25.854;16.280;22.985;21.197;16.429
2339942.756;30.585;29.802;23.916;25.183;15.609;26.226;25.816;16.987
2339942.764;23.581;22.687;16.615;17.956;8.345;22.724;23.097;14.305
2339942.772;14.789;14.640;8.605;10.692;0.671;17.285;17.323;9.611
2339942.780;9.015;9.276;2.943;5.253;-4.582;13.225;12.591;7.302
2339942.788;5.662;5.737;-1.043;2.161;-8.643;8.382;7.153;4.023
2339942.796;6.557;7.078;-0.373;2.794;-8.494;9.462;8.978;5.774
2339942.804;2.980;3.576;-5.402;0.335;-14.901;5.141;6.743;1.974
2339942.812;0.335;1.267;-8.345;-0.969;-16.652;3.874;7.823;1.341
2339942.822;1.378;3.390;-7.898;1.229;-15.721;7.153;11.250;3.241
2339942.830;-4.508;-2.272;-15.162;-3.912;-23.879;3.092;7.153;-2.235
2339942.838;-4.843;-2.943;-15.087;-4.806;-23.544;2.831;6.147;-2.235
2339942.846;-7.227;-7.190;-17.211;-9.984;-23.097;-0.186;1.714;-2.347
2339942.854;-7.078;-8.531;-17.397;-12.368;-24.065;2.123;1.490;0.820
2339942.862;-3.986;-7.227;-14.268;-13.486;-20.750;7.674;5.141;6.631
2339942.870;-2.645;-6.109;-12.666;-12.890;-17.546;10.878;7.860;11.511
2339942.878;-1.937;-5.998;-11.437;-12.666;-14.976;13.784;9.984;14.119
2339942.886;-5.290;-9.164;-14.082;-15.385;-17.174;12.517;9.201;11.697
2339942.894;-10.133;-13.635;-18.179;-19.595;-21.532;11.027;9.835;7.898
2339942.902;-11.846;-13.635;-19.222;-18.068;-23.395;11.474;12.629;7.190
2339942.910;-12.815;-12.442;-19.930;-15.572;-23.320;6.258;9.760;2.794
2339942.918;-12.144;-11.809;-19.297;-14.342;-22.277;3.874;8.680;1.416
2339942.926;-17.881;-18.924;-24.252;-21.122;-25.332;-1.565;3.651;-0.820
2339942.934;-20.713;-21.532;-27.008;-23.469;-26.375;-1.751;3.390;2.459
2339942.942;-25.630;-27.083;-30.622;-28.722;-28.983;-1.155;2.049;3.949
2339942.950;-25.257;-26.301;-28.573;-27.902;-27.604;3.241;5.141;5.774
2339942.958;-21.867;-23.544;-24.885;-25.891;-22.799;3.651;6.221;5.476
2339942.966;-17.099;-19.036;-19.148;-21.681;-17.248;2.608;7.227;3.017
2339942.974;-9.388;-12.107;-10.617;-14.901;-9.164;4.098;9.164;2.757
2339942.982;-4.619;-6.184;-4.470;-8.531;-1.080;5.178;11.027;2.980
2339942.990;-5.402;-5.774;-4.955;-5.737;-1.378;1.714;7.711;-1.118
2339942.998;-5.811;-4.992;-5.998;-4.433;-2.310;3.129;9.015;-0.522
2339943.006;-9.760;-8.903;-11.288;-8.754;-6.557;1.155;7.190;-2.682
2339942.927;-12.368;-10.915;-14.827;-12.591;-9.723;1.229;6.966;-1.229
2339942.935;-12.442;-11.660;-15.646;-13.784;-10.282;3.539;8.903;2.682
2339942.943;-12.144;-12.293;-16.131;-13.150;-11.399;4.135;9.276;3.874
2339942.951;-12.107;-12.293;-15.758;-13.299;-11.027;2.645;7.190;3.390
2339942.959;-16.093;-16.131;-19.409;-16.354;-15.162;-0.894;2.757;-0.820
2339942.967;-16.801;-16.838;-19.521;-16.913;-16.354;0.261;2.198;-0.708
2339942.975;-10.990;-11.884;-14.231;-13.039;-9.909;5.215;5.513;4.992
2339942.983;-11.176;-12.182;-13.411;-13.970;-9.723;5.513;5.662;5.104
2339942.991;-14.268;-15.460;-15.423;-16.354;-11.027;5.066;4.694;6.072
2339942.999;-16.578;-18.254;-17.248;-19.409;-12.740;1.900;1.416;4.917
2339943.007;-16.391;-18.440;-18.142;-19.521;-14.417;1.155;-0.261;4.955
2339943.015;-17.472;-19.893;-20.377;-20.526;-16.764;-2.049;-2.943;2.049
2339943.023;-22.016;-24.103;-25.518;-24.065;-22.687;-6.668;-6.296;-2.794
2339943.031;-15.609;-16.652;-18.328;-16.987;-16.689;-2.272;-1.304;1.080
2339943.039;-13.039;-14.529;-15.981;-15.311;-13.784;-3.241;-1.341;0.149
2339943.047;-16.578;-18.515;-20.042;-20.079;-17.323;-6.370;-4.806;-2.608
2339943.055;-18.030;-22.389;-20.489;-23.991;-17.844;-7.823;-5.811;-2.943
2339943.063;-15.907;-20.638;-19.185;-21.011;-16.689;-6.407;-3.837;-1.416
2339943.071;-16.950;-20.266;-21.495;-18.589;-20.750;-3.614;-1.006;0.373
2339943.079;-18.999;-21.383;-25.332;-17.658;-25.481;-1.602;2.198;1.676
2339943.087;-19.372;-19.968;-25.891;-15.497;-27.642;3.241;7.823;4.321
2339943.095;-18.775;-18.366;-25.257;-13.039;-24.959;8.494;11.846;6.445
2339943.103;-13.523;-13.821;-20.340;-7.935;-18.962;12.964;14.566;9.872
2339943.111;-8.605;-9.015;-15.087;-2.682;-14.193;13.933;14.156;10.803
2339943.106;-6.519;-9.015;-12.666;-2.421;-10.766;10.058;11.139;7.376
2339943.114;-5.178;-7.488;-9.723;-0.671;-7.153;12.144;14.156;9.499
2339943.122;-4.992;-6.519;-9.127;-0.261;-6.966;14.454;17.099;11.288
2339943.130;-9.537;-10.952;-14.193;-4.210;-13.821;8.456;12.219;7.339
2339943.138;-8.903;-11.250;-12.480;-4.582;-11.921;6.743;10.096;6.519
2339943.146;-10.319;-14.566;-13.299;-8.233;-12.293;4.470;5.662;4.657
2339943.154;-11.735;-15.236;-14.082;-10.692;-12.778;4.508;4.359;5.253
2339943.162;-8.121;-11.586;-9.313;-7.339;-9.201;4.545;5.811;7.972
2339943.170;-2.086;-5.513;-3.241;-1.006;-2.943;6.445;7.600;11.660
2339943.178;-0.559;-3.949;-1.229;-0.075;-1.341;5.886;8.568;8.792
2339943.186;0.298;-3.129;0.484;0.186;0.373;5.327;10.133;7.488
2339943.194;-4.098;-7.562;-5.029;-4.619;-5.178;3.427;7.898;6.407
2339943.202;-7.898;-11.660;-10.282;-9.537;-10.617;0.708;4.321;3.129
2339943.210;-11.213;-15.423;-14.454;-11.884;-15.981;-3.092;-0.373;-0.596
2339943.218;-15.125;-20.489;-17.062;-16.652;-18.179;-7.488;-5.327;-3.800
2339943.226;-19.148;-26.040;-20.266;-21.718;-19.260;-11.064;-9.537;-6.407
2339943.234;-21.346;-28.275;-21.644;-24.773;-20.415;-10.878;-10.207;-6.407
2339943.242;-22.352;-28.387;-22.501;-25.705;-22.538;-10.952;-11.139;-6.184
2339943.250;-20.303;-25.816;-21.495;-22.091;-21.048;-10.207;-8.978;-5.104
2339943.258;-12.666;-17.732;-13.337;-13.411;-13.597;-5.737;-2.682;-2.459
2339943.266;-6.109;-10.617;-7.935;-6.445;-9.425;-3.129;0.410;-2.272
2339943.274;0.075;-4.210;-3.353;0.149;-5.290;0.745;4.806;-1.639
2339943.282;3.688;-2.012;-0.149;1.565;-1.714;0.186;6.631;-3.204
2339943.290;3.129;-1.974;-0.447;0.447;-2.496;-4.135;2.868;-6.221
2339943.330;5.513;0.037;3.465;2.086;0.745;-6.221;0.224;-6.668
2339943.338;7.972;-0.410;6.817;2.235;4.470;-8.456;-2.980;-6.706
2339943.346;7.823;-0.820;8.196;0.857;5.662;-9.649;-4.992;-5.737
2339943.354;2.794;-4.955;5.178;-4.284;3.316;-9.686;-6.855;-4.061
2339943.362;-1.192;-7.935;0.373;-6.221;-2.086;-9.499;-8.717;-3.278
2339943.370;-1.453;-7.600;-0.075;-5.104;-2.608;-8.494;-7.600;-3.651
2339943.378;-1.863;-7.860;-0.671;-5.104;-4.135;-8.345;-5.737;-4.619
2339943.386;-0.373;-5.998;-0.037;-2.496;-4.992;-9.052;-4.359;-7.041
2339943.394;3.874;-1.006;2.459;2.533;-4.210;-8.494;-0.112;-7.413
2339943.402;6.855;1.527;4.955;4.508;-0.708;-8.680;0.112;-7.637
2339943.410;7.339;2.421;5.737;4.582;0.671;-8.270;-0.671;-6.258
2339943.418;5.774;0.931;4.582;2.868;1.267;-10.356;-3.278;-4.321
2339943.426;1.490;-3.427;0.522;-1.043;-1.602;-10.841;-5.998;-2.682
2339943.434;0.894;-3.166;0.820;-0.894;-1.304;-7.786;-5.737;0.969
2339943.442;2.347;-2.012;2.123;0.894;-1.118;-9.649;-7.413;-0.894
2339943.450;4.247;-1.453;4.321;1.118;0.671;-9.835;-6.594;-4.135
2339943.458;3.278;-1.900;2.682;0.708;0.931;-6.109;-2.608;-2.198
2339943.466;0.969;-3.614;0.149;-0.894;-0.782;-7.227;-1.825;-3.427
2339943.474;0.261;-2.943;-0.298;-0.708;-0.931;-9.611;-2.459;-6.407
2339943.482;-0.894;-3.949;-1.602;-1.900;-2.049;-12.890;-3.800;-9.239
2339943.490;0.075;-4.582;-0.708;-2.570;-0.969;-10.990;-2.645;-7.302
2339943.498;0.969;-3.651;1.229;-1.565;0.410;-11.958;-3.874;-5.774
2339943.506;0.522;-2.272;-0.149;-0.596;-1.937;-13.448;-6.743;-5.141
2339943.514;1.118;-1.527;-0.112;-1.267;-2.980;-10.021;-5.662;-1.267
2339943.632;1.341;-2.272;0.522;-4.321;-2.645;-10.394;-6.258;-0.857
2339943.640;4.284;0.075;3.502;-2.719;1.006;-5.998;-1.267;1.900
2339943.648;9.201;5.588;7.823;3.539;4.768;2.086;7.600;5.774
2339943.656;10.170;8.233;7.935;6.855;3.576;5.253;11.437;6.221
2339943.664;10.058;8.047;8.047;7.786;4.396;4.731;13.150;5.215
2339943.672;8.978;6.072;7.600;5.960;5.327;-0.410;9.052;1.155
2339943.680;6.184;2.831;6.072;2.496;3.427;-5.998;3.129;-1.341
2339943.688;3.204;0.186;3.725;0.186;1.453;-9.537;-2.310;-2.198
2339943.696;1.825;-0.373;2.123;0.447;1.080;-9.239;-3.166;-1.788
2339943.704;-3.614;-4.284;-3.800;-2.496;-3.092;-9.723;-4.657;-2.235
2339943.712;-11.288;-9.537;-10.878;-7.190;-9.611;-12.927;-10.319;-4.247
2339943.720;-12.331;-9.686;-10.841;-6.594;-9.574;-13.486;-11.474;-4.210
2339943.728;-12.033;-9.649;-10.580;-6.519;-9.537;-14.082;-9.499;-5.290
2339943.736;-12.182;-11.176;-10.356;-8.345;-9.574;-13.337;-7.823;-6.668
2339943.744;-10.207;-9.127;-9.052;-6.668;-8.605;-9.537;-2.533;-6.519
2339943.752;-5.439;-3.614;-4.545;-0.894;-5.439;-8.307;-0.484;-6.370
2339943.760;-3.465;-1.639;-2.161;0.261;-3.353;-8.494;-0.671;-4.917
2339943.768;-8.345;-7.413;-7.562;-5.774;-7.227;-11.511;-4.247;-5.886
2339943.776;-13.597;-13.262;-12.368;-12.554;-11.511;-13.746;-7.525;-7.153
2339943.784;-14.901;-15.609;-12.107;-15.683;-11.660;-14.827;-9.723;-6.743
2339943.792;-11.846;-13.784;-8.494;-14.789;-7.935;-12.107;-8.717;-2.868
2339943.800;-5.066;-8.047;-4.023;-8.196;-2.682;-4.508;-2.235;3.017
2339943.808;-7.302;-9.611;-6.855;-9.574;-5.886;-2.570;0.373;2.906
2339943.816;-11.362;-12.480;-9.499;-10.580;-9.350;-5.551;-2.198;-0.522
2339943.946;-13.672;-14.789;-11.362;-11.586;-12.219;-10.021;-7.227;-4.768
2339943.954;-11.586;-12.815;-8.531;-8.717;-11.213;-10.319;-7.674;-3.874
2339943.962;-10.058;-9.909;-7.041;-5.551;-9.201;-8.233;-5.551;-1.900
2339943.970;-9.909;-9.276;-8.009;-3.427;-9.723;-9.052;-5.737;-2.757
2339943.978;-8.047;-7.562;-6.482;-1.267;-8.456;-11.399;-8.270;-5.253
2339943.986;-7.749;-7.078;-5.178;-1.863;-8.009;-11.511;-7.153;-5.700
2339943.994;-8.158;-7.302;-5.290;-2.384;-7.376;-9.015;-3.465;-4.061
2339944.002;-7.972;-7.153;-5.215;-2.757;-6.482;-8.233;-2.272;-3.353
2339944.010;-3.614;-3.614;-1.863;0.373;-4.433;-7.786;-0.894;-2.943
2339944.018;0.931;0.112;1.676;3.353;-2.645;-5.886;0.261;-1.378
2339944.026;-1.267;-2.868;0.075;-0.447;-4.210;-9.984;-3.688;-3.166
2339944.034;-5.737;-9.052;-4.061;-6.817;-7.376;-11.735;-7.451;-3.912
2339944.042;-5.662;-10.170;-3.241;-8.456;-5.253;-9.164;-6.258;-2.310
2339944.050;-6.184;-10.543;-3.614;-8.792;-4.061;-6.631;-2.570;-1.378
2339944.058;-9.611;-13.486;-6.668;-11.846;-7.227;-7.302;-3.129;-3.278
2339944.066;-13.523;-16.987;-10.617;-15.944;-12.033;-9.872;-6.557;-6.594
2339944.074;-12.405;-16.168;-9.723;-14.752;-10.729;-10.803;-8.494;-5.141
2339944.082;-9.723;-13.821;-6.035;-12.107;-5.327;-11.548;-9.947;-4.061
2339944.090;-7.004;-11.325;-4.433;-9.164;-3.576;-10.990;-9.239;-5.290
2339944.098;-5.141;-8.903;-4.210;-7.227;-4.470;-8.903;-6.817;-5.476
2339944.106;-5.066;-8.568;-4.172;-7.376;-5.662;-6.221;-4.508;-3.166
2339944.114;-3.688;-5.774;-3.241;-4.917;-4.955;-2.757;-1.527;-0.112
2339944.122;-2.794;-5.513;-1.788;-4.247;-3.017;-1.751;0.447;1.490
2339944.130;-2.086;-6.109;-0.410;-3.278;-1.192;0.261;5.104;3.539
2339944.157;-4.061;-8.605;-1.900;-5.774;-1.155;-0.335;5.327;1.676
2339944.165;-2.831;-9.537;-0.447;-8.345;0.596;-1.788;2.123;0.335
2339944.173;-7.488;-14.864;-6.221;-14.640;-6.519;-5.253;-3.278;-0.931
2339944.181;-10.803;-17.621;-9.835;-18.775;-9.760;-6.594;-5.066;-0.894
2339944.189;-14.044;-21.271;-14.119;-21.607;-16.317;-11.064;-9.388;-4.210
2339944.197;-11.399;-16.764;-12.293;-17.099;-15.981;-12.852;-11.139;-5.700
2339944.205;-10.878;-14.417;-12.368;-15.981;-15.311;-11.213;-9.350;-3.800
2339944.213;-14.789;-17.285;-16.950;-18.291;-20.117;-8.680;-6.892;-1.937
2339944.221;-15.236;-16.652;-18.962;-17.062;-21.122;-4.098;-1.565;-0.708
2339944.229;-15.199;-16.205;-19.930;-16.429;-22.799;-2.794;1.304;-1.863
2339944.237;-11.399;-12.070;-15.013;-13.523;-16.503;-0.745;3.465;0.708
2339944.245;-8.978;-11.288;-11.548;-12.964;-12.778;-3.390;0.894;1.006
2339944.253;-6.594;-9.872;-9.723;-10.766;-11.586;-7.749;-2.757;-2.645
2339944.261;-6.706;-10.431;-10.058;-12.144;-12.033;-7.525;-3.725;-4.657
2339944.269;-7.227;-11.399;-11.548;-14.305;-14.044;-5.476;-2.645;-1.341
2339944.277;-7.488;-10.841;-11.362;-14.491;-12.666;-2.719;-2.310;3.800
2339944.285;-11.027;-14.231;-12.778;-17.695;-12.964;-2.459;-2.906;5.141
2339944.293;-13.746;-16.578;-15.236;-19.185;-14.417;-3.316;-1.937;4.396
2339944.301;-12.331;-15.385;-15.236;-17.583;-14.603;-3.353;0.000;3.316
2339944.309;-13.299;-16.429;-16.689;-18.850;-17.211;-1.267;3.353;3.241
2339944.317;-13.635;-16.578;-17.285;-18.850;-19.073;0.149;5.327;3.316
2339944.325;-11.288;-14.082;-15.609;-15.758;-17.621;-2.161;3.949;0.559
2339944.333;-7.674;-10.207;-12.331;-11.437;-15.125;-4.657;1.825;-0.596
2339944.341;-5.104;-8.345;-9.947;-10.282;-11.809;-5.513;-0.410;-1.825
2339944.441;-7.078;-10.915;-10.990;-13.039;-14.044;-9.313;-4.359;-5.476
2339944.449;-5.364;-9.127;-9.425;-12.964;-12.256;-7.004;-2.831;-3.241
2339944.457;-3.912;-7.227;-7.525;-13.113;-10.580;-6.519;-3.241;-2.198
2339944.465;-3.688;-7.302;-8.121;-13.188;-10.617;-8.233;-4.657;-2.645
2339944.473;-1.267;-4.619;-5.215;-10.170;-7.376;-6.557;-3.092;-1.304
2339944.481;-1.900;-6.184;-6.184;-11.399;-8.419;-6.817;-3.055;-2.310
2339944.489;-4.694;-9.611;-8.270;-15.981;-10.319;-10.915;-6.817;-6.482
2339944.497;-3.204;-8.754;-6.370;-15.683;-8.717;-8.456;-3.837;-5.849
2339944.505;-3.539;-8.941;-6.221;-14.752;-8.792;-9.462;-5.290;-6.743
2339944.513;-6.109;-10.282;-7.972;-14.976;-8.941;-10.654;-7.153;-5.476
2339944.521;-7.711;-12.144;-8.829;-16.801;-8.196;-12.033;-8.382;-4.917
2339944.529;-10.915;-14.938;-12.740;-19.781;-13.076;-14.603;-9.723;-7.898
2339944.537;-5.364;-9.798;-7.711;-14.529;-7.525;-11.548;-6.333;-5.588
2339944.545;-0.447;-4.470;-4.359;-8.754;-3.241;-12.331;-5.290;-6.445
2339944.553;2.123;0.522;-1.527;-3.725;-1.155;-6.184;1.341;-2.906
2339944.561;1.974;2.123;-1.676;0.149;-1.304;2.198;9.611;1.304
2339944.569;-3.316;-3.316;-6.184;-4.433;-4.917;0.373;8.270;-1.118
2339944.577;-5.290;-5.215;-7.264;-6.817;-4.917;-2.868;5.960;-3.427
2339944.585;-3.241;-3.166;-5.588;-4.657;-1.229;-3.166;5.849;-2.123
2339944.593;-3.017;-1.937;-5.215;-2.272;0.298;-3.502;3.986;-0.447
2339944.601;-5.998;-4.768;-7.488;-4.619;-0.522;-4.321;2.310;-0.522
2339944.609;-5.662;-6.072;-7.227;-5.588;-0.671;-2.123;4.843;0.112
2339944.617;-1.974;-4.433;-3.725;-3.316;3.055;3.316;10.356;4.955
2339944.625;-0.186;-1.378;-2.608;-0.745;3.427;3.725;10.692;4.135
2339944.711;-1.080;-1.080;-4.619;-0.373;1.416;5.774;12.442;4.694
2339944.719;-4.582;-3.912;-7.302;-2.161;1.341;5.178;11.548;4.098
2339944.727;-8.792;-8.270;-10.729;-6.370;-1.863;-0.447;5.625;-0.112
2339944.735;-6.966;-6.966;-8.009;-6.147;-0.186;-4.098;1.304;-2.198
2339944.743;-7.078;-8.270;-8.196;-8.307;-0.186;-8.196;-4.396;-3.353
2339944.751;-8.680;-9.425;-8.196;-10.505;-1.006;-9.649;-8.605;-2.198
2339944.759;-7.302;-7.935;-7.376;-8.270;-0.335;-9.574;-8.568;-1.192
2339944.767;-3.241;-4.619;-4.061;-3.427;4.172;-8.754;-5.364;-0.782
2339944.775;0.149;-1.714;-0.261;0.782;7.600;-4.992;1.565;1.080
2339944.783;2.049;-0.745;1.937;0.559;9.798;-5.066;2.012;0.037
2339944.791;1.080;-2.086;-0.261;-0.820;5.960;-5.439;1.416;-2.012
2339944.799;-1.714;-3.837;-4.619;-1.229;2.235;-7.786;0.410;-3.539
2339944.807;-6.594;-7.227;-9.649;-4.582;-1.676;-12.964;-4.098;-7.004
2339944.815;-10.319;-11.176;-11.399;-9.462;-3.204;-17.732;-9.052;-10.170
2339944.823;-14.715;-16.242;-13.448;-14.789;-4.247;-19.036;-12.591;-9.686
2339944.831;-18.142;-19.446;-16.131;-18.068;-7.935;-17.732;-13.411;-8.829
2339944.839;-18.626;-20.042;-18.068;-18.328;-10.915;-17.434;-11.921;-10.096
2339944.847;-16.466;-17.881;-17.844;-15.311;-9.909;-14.566;-7.451;-8.903
2339944.855;-17.919;-19.297;-19.446;-16.131;-9.611;-11.474;-5.141;-6.482
2339944.863;-19.558;-20.489;-21.309;-16.354;-12.442;-12.554;-5.327;-7.190
2339944.871;-19.893;-20.191;-19.930;-16.354;-12.107;-13.933;-5.476;-7.860
2339944.879;-17.025;-18.217;-15.907;-15.087;-7.525;-10.021;-3.837;-4.098
2339944.887;-11.027;-13.672;-9.760;-11.623;-1.676;-8.754;-4.284;-3.241
2339944.895;-7.339;-10.468;-6.631;-7.786;1.118;-9.462;-4.359;-3.800
2339944.890;-6.109;-8.270;-6.631;-5.588;1.118;-9.909;-4.470;-3.800
2339944.898;-5.923;-7.153;-6.780;-4.470;0.522;-7.823;-4.172;-2.161
2339944.906;-8.382;-9.872;-9.164;-7.153;-0.037;-7.898;-4.619;-1.527
2339944.914;-15.125;-17.062;-15.534;-13.076;-5.662;-9.574;-4.284;-3.725
2339944.922;-18.515;-20.489;-18.626;-14.603;-9.984;-9.052;-2.831;-4.657
2339944.930;-20.452;-22.277;-21.495;-16.317;-14.640;-7.376;-1.676;-6.370
2339944.938;-17.919;-20.005;-19.819;-14.752;-12.890;-6.594;-1.304;-5.662
2339944.946;-15.795;-17.397;-17.434;-12.927;-10.729;-7.860;-4.843;-4.768
2339944.954;-11.958;-13.635;-13.486;-10.915;-6.072;-9.276;-7.525;-3.725
2339944.962;-7.413;-9.798;-9.239;-8.903;-1.788;-9.388;-9.947;-1.900
2339944.970;-7.711;-11.958;-9.537;-10.990;-2.608;-11.958;-14.603;-1.639
2339944.978;-10.319;-15.050;-10.617;-15.311;-4.061;-11.474;-16.950;-0.671
2339944.986;-10.058;-15.758;-10.468;-16.950;-3.986;-7.190;-13.635;2.868
2339944.994;-10.617;-15.572;-12.815;-17.360;-4.359;0.820;-6.482;8.978
2339945.002;-13.113;-17.993;-15.385;-20.452;-5.327;5.029;-2.384;11.660
2339945.010;-5.327;-8.754;-7.600;-10.170;1.118;4.806;0.745;9.909
2339945.018;-4.806;-7.786;-6.817;-7.376;0.894;4.917;4.843;7.637
2339945.026;-7.972;-11.586;-10.245;-10.915;-1.974;4.396;7.004;7.302
2339945.034;-10.468;-14.193;-11.809;-14.305;-2.645;2.384;5.364;6.631
2339945.042;-11.288;-16.019;-13.001;-17.434;-3.278;-0.224;1.118;5.439
2339945.050;-10.245;-15.609;-12.629;-18.179;-4.098;-4.433;-4.210;2.719
2339945.058;-14.305;-19.744;-16.689;-23.507;-7.339;-6.296;-6.557;2.459
2339945.066;-22.501;-27.530;-24.550;-30.734;-15.609;-7.674;-6.519;-0.410
2339945.074;-23.767;-28.908;-26.412;-30.696;-18.440;-7.302;-4.433;-1.900
2339945.044;-17.397;-22.762;-21.160;-24.140;-13.933;-3.278;0.075;-1.490
2339945.052;-12.144;-17.285;-16.838;-18.440;-12.107;-1.341;2.719;-3.502
2339945.060;-8.829;-14.082;-13.784;-15.572;-9.313;-2.049;3.986;-3.874
2339945.068;-9.499;-15.795;-14.417;-17.956;-8.270;-3.316;2.310;-3.651
2339945.076;-9.052;-16.131;-14.231;-19.707;-7.376;-3.092;0.000;-1.267
2339945.084;-8.717;-16.242;-13.784;-19.893;-8.419;-2.496;-2.012;0.820
2339945.092;-9.798;-17.993;-14.342;-22.203;-10.170;-3.912;-4.210;0.298
2339945.100;-9.462;-17.248;-13.821;-21.011;-8.084;-1.639;-1.788;2.347
2339945.108;-9.909;-16.913;-13.858;-18.701;-7.413;-0.335;1.602;2.943
2339945.116;-13.299;-19.670;-16.615;-19.111;-9.239;1.006;3.390;2.682
2339945.124;-14.715;-20.303;-17.881;-17.546;-9.164;1.676;5.849;2.980
2339945.132;-14.566;-18.664;-17.099;-15.870;-8.494;1.453;8.158;1.825
2339945.140;-11.735;-15.274;-13.635;-11.958;-5.402;4.061;11.325;3.427
2339945.148;-14.603;-18.477;-16.801;-15.572;-9.350;3.129;9.574;1.863
2339945.156;-22.426;-26.189;-23.842;-23.544;-16.503;-0.969;4.508;0.596
2339945.164;-30.287;-33.975;-30.957;-31.926;-23.581;-3.502;-0.224;0.522
2339945.172;-34.571;-39.376;-35.092;-37.290;-28.685;-7.451;-4.731;-2.310
2339945.180;-32.224;-35.949;-32.671;-33.900;-27.157;-5.923;-2.086;-1.490
2339945.188;-27.567;-28.647;-28.796;-25.108;-22.575;-1.900;3.465;2.012
2339945.196;-25.332;-25.406;-28.275;-20.005;-20.228;-2.012;3.874;1.453
2339945.204;-21.756;-22.240;-26.077;-16.205;-18.142;0.596;6.482;2.608
2339945.212;-19.707;-20.750;-23.320;-14.827;-15.385;5.029;11.027;5.290
2339945.220;-19.446;-20.526;-23.022;-15.162;-14.640;5.849;10.803;5.849
2339945.228;-17.770;-18.552;-21.011;-11.437;-12.740;8.084;12.480;8.941
2339945.223;-20.489;-19.036;-22.799;-11.548;-14.491;7.488;12.368;8.568
2339945.231;-22.203;-20.340;-23.507;-13.858;-15.050;3.725;8.233;5.588
2339945.239;-24.624;-23.171;-26.189;-17.397;-17.732;-3.055;0.820;1.341
2339945.247;-22.464;-21.458;-23.730;-15.870;-15.683;-2.123;-1.043;2.049
2339945.255;-19.707;-18.552;-20.489;-12.964;-13.635;1.900;1.825;5.849
2339945.263;-17.807;-16.280;-19.036;-10.021;-10.990;3.055;3.129;7.823
2339945.271;-18.328;-17.248;-19.483;-10.766;-11.101;2.049;2.123;5.960
2339945.279;-20.117;-18.366;-20.675;-11.623;-12.629;-1.490;0.224;0.820
2339945.287;-21.197;-18.217;-21.122;-10.580;-12.815;-3.949;0.149;-1.453
2339945.295;-25.257;-21.607;-23.805;-12.405;-14.417;-5.998;-1.565;-3.949
2339945.303;-28.312;-23.954;-24.550;-13.411;-15.050;-7.823;-3.465;-5.364
2339945.311;-29.244;-24.885;-25.295;-13.299;-16.205;-6.966;-1.714;-4.768
2339945.319;-30.026;-25.369;-26.785;-14.156;-18.030;-8.158;-1.639;-5.551
2339945.327;-21.905;-19.111;-18.887;-9.164;-10.990;-7.302;-0.820;-3.502
2339945.335;-16.280;-13.672;-13.597;-3.763;-5.439;-8.121;-2.570;-3.017
2339945.343;-16.093;-13.672;-13.784;-3.763;-4.210;-8.270;-3.949;-3.316
2339945.351;-18.664;-15.646;-16.354;-5.700;-7.227;-7.302;-2.868;-3.502
2339945.359;-17.881;-15.050;-14.417;-4.880;-7.153;-6.817;-2.906;-4.172
2339945.367;-15.981;-14.529;-12.852;-4.806;-5.178;-7.860;-5.513;-4.806
2339945.375;-13.299;-12.964;-10.990;-3.465;-4.321;-6.743;-5.700;-3.092
2339945.383;-6.706;-6.966;-4.992;1.639;0.596;-4.992;-3.986;-0.931
2339945.391;-7.153;-7.600;-7.264;0.261;-1.118;-5.215;-3.651;-2.608
2339945.399;-10.356;-10.468;-11.511;-2.831;-3.949;-8.792;-7.190;-5.625
2339945.407;-8.456;-6.966;-11.660;1.155;-4.210;-10.170;-7.711;-7.711
2339945.462;-7.339;-5.849;-11.176;3.092;-3.316;-10.766;-7.153;-8.605
2339945.470;-12.107;-10.990;-14.268;-1.267;-5.253;-16.242;-10.915;-11.660
2339945.478;-19.111;-16.764;-19.372;-7.637;-10.133;-19.297;-13.113;-14.640
2339945.486;-20.452;-17.360;-20.824;-8.009;-11.586;-19.930;-14.454;-16.876
2339945.494;-14.342;-10.505;-15.832;-1.192;-7.562;-15.236;-9.723;-13.560
2339945.502;-12.591;-8.345;-16.205;1.341;-7.860;-16.317;-9.164;-13.933
2339945.510;-16.093;-11.660;-20.452;-3.017;-12.070;-18.813;-12.964;-15.348
2339945.518;-14.007;-9.760;-17.323;-1.229;-9.723;-16.764;-12.927;-13.150
2339945.526;-9.239;-5.178;-13.039;3.465;-4.508;-15.348;-11.586;-12.890
2339945.534;-3.278;-0.075;-7.488;7.749;1.006;-10.654;-6.482;-8.456
2339945.542;1.378;3.539;-1.974;11.437;5.737;-8.345;-3.651;-5.774
2339945.550;3.688;6.594;2.161;14.007;9.537;-8.084;-3.278;-5.662
2339945.558;2.719;4.955;2.272;12.033;11.064;-10.841;-6.370;-8.456
2339945.566;2.421;4.247;1.118;11.101;10.990;-13.411;-9.276;-9.388
2339945.574;4.992;7.711;3.763;14.268;13.858;-11.958;-8.941;-6.221
2339945.582;6.333;8.047;5.253;14.901;14.566;-10.841;-7.823;-6.035
2339945.590;7.898;8.345;6.109;14.305;15.646;-10.058;-6.296;-5.476
2339945.598;7.935;7.749;5.141;12.778;14.342;-9.574;-5.476;-4.694
2339945.606;6.370;6.631;2.794;12.480;12.629;-9.015;-5.700;-4.098
2339945.614;6.594;7.972;2.421;13.411;12.852;-5.886;-2.943;-2.012
2339945.622;3.837;4.321;-0.522;9.798;9.388;-4.321;-1.304;-0.894
2339945.630;-1.453;-2.123;-4.917;2.496;4.917;-5.551;-4.284;-1.751
2339945.638;-1.453;-3.129;-4.247;0.969;4.694;-6.966;-5.625;-2.868
2339945.646;0.037;-0.820;-2.831;2.794;5.662;-7.115;-7.227;-2.757
2339945.687;4.396;3.837;0.857;8.456;9.686;-3.986;-4.806;-1.006
2339945.695;5.215;5.141;1.863;11.101;9.276;-2.012;-2.533;0.186
2339945.703;4.657;5.886;0.894;11.809;7.004;-1.006;-1.080;-0.484
2339945.711;4.582;5.439;0.522;9.201;5.849;-3.427;-4.172;-3.465
2339945.719;2.235;2.123;-1.378;5.290;3.874;-6.072;-7.637;-3.800
2339945.727;2.310;3.204;-1.341;6.370;4.917;-4.619;-6.557;-0.522
2339945.735;0.149;1.565;-3.465;5.290;2.645;-5.066;-5.662;0.373
2339945.743;1.378;1.863;-2.049;6.147;3.539;-7.674;-5.923;-2.347
2339945.751;1.490;1.602;-0.931;5.737;4.992;-10.394;-6.407;-5.513
2339945.759;3.055;2.719;0.633;6.557;6.743;-10.729;-5.960;-7.227
2339945.767;3.874;5.104;-0.112;9.462;5.700;-9.276;-4.768;-6.370
2339945.775;6.743;8.680;2.123;13.746;4.917;-5.290;-2.384;-2.459
2339945.783;9.201;11.511;4.694;16.429;7.041;-1.714;0.037;0.261
2339945.791;12.964;14.044;8.121;18.068;11.511;-0.484;2.310;2.123
2339945.799;13.560;13.337;9.499;16.354;14.380;-1.639;0.186;1.602
2339945.807;13.635;13.225;9.649;15.125;14.044;-2.980;-2.161;0.671
2339945.815;18.142;18.366;13.746;19.483;17.025;-1.267;-0.559;1.676
2339945.823;20.042;20.042;15.423;20.862;17.956;-2.421;-0.298;0.000
2339945.831;23.656;22.724;18.254;23.656;18.813;-3.017;1.490;-0.857
2339945.839;21.420;19.632;17.248;21.905;17.211;-4.135;0.298;-0.745
2339945.847;16.429;15.087;11.995;17.248;11.846;-4.657;-0.969;0.633
2339945.855;10.990;10.394;4.806;11.846;4.284;-5.849;-3.278;1.341
2339945.863;11.735;11.250;5.811;12.293;5.886;-5.364;-4.359;1.378
2339945.871;16.876;16.503;11.809;17.397;11.660;-1.490;1.267;3.055
2339945.835;19.036;17.658;13.970;17.770;13.523;-0.894;3.465;2.757
2339945.843;16.615;15.125;11.213;14.938;11.288;-1.341;4.321;2.161
2339945.851;10.990;9.611;5.066;10.282;5.327;-3.576;2.161;0.857
2339945.859;10.505;8.754;4.508;8.792;4.470;-4.023;0.894;-0.894
2339945.867;16.056;14.827;11.511;14.678;9.798;-1.341;3.278;0.149
2339945.875;17.695;16.242;13.821;15.870;11.139;-3.725;1.490;-2.533
2339945.883;17.881;15.199;15.348;14.938;12.368;-3.763;0.745;-2.235
2339945.891;19.707;16.727;17.397;16.093;12.703;-2.049;0.931;0.820
2339945.899;28.946;27.083;26.748;26.524;19.930;0.000;1.714;1.043
2339945.907;43.660;43.698;42.915;44.107;34.049;2.235;4.992;2.310
2339945.915;59.381;61.467;59.120;63.106;47.274;6.072;11.027;6.892
2339945.923;72.345;77.747;73.612;82.180;59.418;9.499;15.236;10.319
2339945.931;92.201;99.242;95.591;103.712;75.847;8.009;14.678;9.127
2339945.939;113.025;121.444;117.011;125.803;92.722;9.798;17.136;10.319
2339945.947;131.130;140.108;137.649;144.504;110.194;13.150;19.632;13.001
2339945.955;139.810;149.235;148.900;153.482;118.874;10.282;15.311;9.313
2339945.963;142.604;152.737;152.774;155.829;121.407;11.213;16.391;8.717
2339945.971;141.822;151.396;152.253;154.227;120.886;13.374;17.360;11.250
2339945.979;138.953;148.006;147.708;150.092;118.278;15.385;17.919;13.933
2339945.987;127.554;135.489;136.085;138.246;110.343;17.919;19.260;16.764
2339945.995;111.051;116.974;118.241;117.756;96.560;13.076;13.039;13.486
2339946.003;93.803;98.906;101.291;97.975;84.117;9.276;8.196;10.990
2339946.011;80.317;85.086;86.948;84.303;72.755;5.960;5.141;7.749
2339946.019;67.391;71.302;73.761;71.377;60.871;1.751;1.006;2.682
2339945.988;54.799;58.487;59.158;59.418;48.727;0.373;0.373;0.820
2339945.996;46.790;50.552;48.801;53.272;40.121;1.080;2.645;1.080
2339946.004;37.178;40.755;39.227;43.921;31.330;1.863;4.433;-0.820
2339946.012;33.900;36.433;35.800;39.972;29.653;5.141;8.866;0.708
2339946.020;27.604;29.802;29.616;33.267;25.779;5.513;7.823;0.596
2339946.028;21.122;22.911;22.724;27.940;20.824;5.402;7.115;2.161
2339946.036;13.895;14.380;15.125;20.899;14.491;3.055;4.768;1.416
2339946.044;10.468;11.288;11.101;18.030;10.729;4.508;6.333;3.502
2339946.052;7.488;7.860;7.711;14.603;7.190;5.811;6.594;5.141
2339946.060;7.488;7.451;7.451;13.225;7.525;9.649;8.158;8.233
2339946.068;8.158;6.855;8.680;12.554;9.015;14.752;13.039;10.766
2339946.076;4.880;3.502;3.576;7.935;4.284;12.778;11.735;8.158
2339946.084;2.719;1.527;1.229;5.551;1.304;14.044;12.331;9.425
2339946.092;-1.304;-1.676;-1.751;3.427;-2.310;15.423;13.970;11.213
2339946.100;-3.986;-3.353;-4.880;2.831;-5.811;15.497;14.752;10.729
2339946.108;-2.235;-1.639;-3.241;5.029;-3.763;17.397;18.142;11.437
2339946.116;-5.178;-4.955;-6.370;0.969;-7.153;14.938;15.236;10.245
2339946.124;-8.494;-7.637;-8.717;-2.570;-10.803;11.586;10.692;8.568
2339946.132;-7.898;-6.892;-7.674;-2.347;-10.654;8.903;7.488;7.190
2339946.140;-7.488;-7.153;-6.743;-1.639;-9.239;8.717;7.153;7.302
2339946.148;-3.502;-2.682;-2.943;2.459;-6.706;11.399;9.835;7.637
2339946.156;-8.009;-5.625;-6.631;0.186;-10.431;8.866;8.158;3.316
2339946.164;-10.654;-7.972;-8.121;-1.900;-11.064;8.792;9.090;4.433
2339946.172;-11.995;-9.649;-8.792;-3.539;-11.101;9.276;9.760;5.513
2339946.182;-12.480;-8.456;-10.356;-1.937;-13.746;10.878;10.543;6.370
2339946.190;-10.692;-6.184;-9.127;0.708;-13.113;10.841;10.245;5.737
2339946.198;-6.109;-1.527;-4.098;3.837;-8.754;9.052;7.935;4.955
2339946.206;5.774;11.176;9.872;15.497;3.763;9.462;9.388;5.290
2339946.214;20.787;26.077;24.736;29.579;14.305;8.047;8.419;3.502
2339946.222;34.571;38.780;41.090;42.617;29.169;7.190;6.482;3.874
2339946.230;48.243;53.979;56.364;59.418;40.531;9.127;7.302;7.525
2339946.238;65.900;75.772;70.743;81.137;50.552;9.090;7.600;9.201
2339946.246;86.315;97.752;92.387;101.104;68.396;9.537;9.798;8.903
2339946.254;102.222;111.721;110.976;114.217;83.186;8.158;9.798;7.749
2339946.262;100.099;107.773;111.163;110.157;81.882;1.527;2.980;3.017
2339946.270;93.915;102.706;105.426;105.835;76.927;-0.186;1.341;1.639
2339946.278;91.456;100.881;101.998;103.228;73.835;1.192;2.868;2.421
2339946.286;85.868;94.436;93.728;95.740;68.508;2.459;3.465;2.496
2339946.294;75.996;82.366;81.956;83.297;60.238;1.863;1.639;1.229
2339946.302;64.708;69.588;69.104;69.514;50.999;3.241;3.055;2.086
2339946.310;51.670;54.948;54.426;53.383;38.445;5.476;4.135;3.241
2339946.318;37.551;39.898;39.674;36.918;24.736;2.272;0.745;-0.373
2339946.326;26.748;28.834;28.089;26.748;15.907;0.224;-1.416;-1.527
2339946.334;20.899;23.283;19.073;22.128;9.425;0.596;-1.192;0.112
2339946.342;19.222;21.644;15.646;19.222;7.674;3.390;2.533;2.906
2339946.350;15.646;17.509;13.299;12.740;6.668;4.321;2.757;3.912
2339946.358;11.921;12.740;10.468;7.264;3.949;1.341;-1.229;1.788
2339946.366;10.803;11.213;8.903;5.588;2.161;0.969;-3.017;1.080
2339946.406;9.201;8.941;6.929;2.682;0.261;-0.075;-3.465;1.527
2339946.414;8.829;6.855;5.662;-0.186;-0.224;-1.192;-5.029;1.304
2339946.422;6.892;2.906;3.278;-3.874;-1.378;-1.006;-4.359;0.894
2339946.430;4.135;-0.075;0.820;-7.451;-3.204;-2.794;-6.333;-0.559
2339946.438;-0.112;-4.135;-3.725;-12.629;-6.370;-6.519;-10.058;-3.837
2339946.446;0.373;-4.731;-3.390;-12.517;-5.439;-4.396;-7.115;-1.788
2339946.454;-3.465;-7.041;-7.451;-14.827;-9.537;-0.410;-3.129;0.410
2339946.462;-4.619;-7.264;-9.611;-13.523;-13.225;3.316;0.782;2.086
2339946.470;-6.445;-9.425;-10.803;-14.156;-13.709;2.459;0.186;1.825
2339946.478;-8.456;-10.505;-11.139;-16.391;-13.113;1.863;-1.453;2.645
2339946.486;-8.605;-11.474;-11.697;-18.142;-13.188;-0.224;-4.992;2.198
2339946.494;-12.852;-15.907;-16.503;-23.283;-18.924;-2.049;-5.774;0.633
2339946.502;-14.603;-17.434;-18.515;-24.773;-19.446;-1.490;-3.166;-0.596
2339946.510;-11.399;-14.864;-16.056;-22.016;-17.099;-0.484;-1.825;1.006
2339946.518;-12.256;-16.205;-16.503;-23.916;-17.919;-2.719;-3.800;0.186
2339946.526;-15.497;-18.850;-20.564;-24.661;-23.246;-3.763;-4.731;-1.267
2339946.534;-20.228;-23.209;-25.593;-27.828;-28.498;-7.264;-8.754;-4.806
2339946.542;-16.540;-20.340;-22.240;-24.736;-24.624;-5.588;-7.227;-2.310
2339946.550;-16.354;-19.819;-21.569;-24.438;-23.767;-3.651;-5.998;-1.527
2339946.558;-17.248;-19.968;-21.607;-24.438;-23.432;-1.080;-2.645;-0.373
2339946.566;-19.334;-21.309;-24.736;-24.363;-26.561;-2.459;-1.825;-2.272
2339946.574;-10.617;-11.623;-16.987;-14.491;-17.770;-0.298;1.080;-3.316
2339946.582;-8.084;-9.686;-14.715;-11.921;-16.131;3.949;4.768;0.410
2339946.590;-9.425;-12.033;-14.640;-13.225;-16.131;3.353;4.470;2.794
2339946.586;-12.480;-14.678;-16.391;-16.168;-15.311;-0.186;1.937;1.490
2339946.594;-12.368;-13.709;-17.844;-13.448;-16.354;0.149;1.900;1.639
2339946.602;-9.239;-8.717;-16.056;-8.494;-17.062;-0.373;1.565;0.447
2339946.610;-8.643;-7.786;-14.752;-8.494;-13.523;0.298;0.857;1.267
2339946.618;-12.107;-11.176;-17.285;-11.772;-14.491;-2.123;-1.676;-1.825
2339946.626;-11.325;-10.654;-15.423;-11.250;-12.703;-0.596;-0.820;-1.229
2339946.634;-11.809;-10.915;-16.019;-10.990;-14.119;0.633;1.453;-0.894
2339946.642;-12.182;-11.213;-15.572;-10.058;-11.064;2.421;4.359;-0.075
2339946.650;-11.623;-10.170;-14.603;-7.451;-11.735;5.364;7.451;1.118
2339946.658;-10.803;-10.617;-13.448;-8.978;-10.021;7.115;7.637;2.347
2339946.666;-10.282;-9.909;-11.511;-8.978;-7.115;6.482;7.600;3.092
2339946.674;-11.548;-11.846;-13.411;-11.511;-10.990;1.602;3.465;-0.261
2339946.682;-17.770;-18.403;-19.521;-17.621;-16.913;-1.229;0.186;-2.831
2339946.690;-18.626;-19.930;-21.197;-17.248;-19.148;0.335;0.596;-0.931
2339946.698;-17.025;-17.881;-18.999;-15.423;-16.019;-1.527;-2.347;-0.075
2339946.706;-18.179;-18.254;-18.477;-16.391;-16.503;-4.321;-4.470;-1.974
2339946.714;-16.242;-17.025;-15.348;-14.715;-12.293;-4.806;-4.247;-3.427
2339946.722;-17.583;-17.956;-15.423;-16.503;-12.629;-3.949;-3.316;-4.061
2339946.730;-19.893;-21.495;-18.850;-21.011;-16.056;-5.998;-5.402;-7.823
2339946.738;-19.670;-21.048;-19.372;-19.781;-17.360;-4.284;-3.129;-6.557
2339946.746;-19.297;-20.973;-18.328;-21.569;-15.572;-3.017;-3.166;-4.172
2339946.754;-22.650;-25.444;-21.718;-26.599;-17.881;-2.161;-3.837;-1.788
2339946.762;-25.257;-27.902;-24.699;-27.902;-20.787;0.857;-1.974;-1.416
2339946.770;-24.326;-26.748;-23.879;-26.524;-21.160;4.768;1.974;0.149
2339946.796;-24.699;-27.455;-23.842;-27.306;-19.483;2.123;1.378;-1.527
2339946.804;-25.183;-27.716;-24.103;-27.530;-19.185;-0.037;1.118;-2.012
2339946.812;-26.189;-28.722;-25.220;-29.691;-21.085;1.378;3.092;0.037
2339946.820;-27.083;-28.685;-26.375;-27.679;-21.756;3.316;3.166;1.080
2339946.828;-30.696;-32.485;-30.212;-29.951;-25.481;6.445;5.439;2.868
2339946.836;-36.135;-36.880;-34.906;-33.900;-29.765;6.370;5.253;2.645
2339946.844;-35.390;-35.055;-34.198;-31.814;-29.318;6.855;3.614;4.098
2339946.852;-32.857;-32.820;-31.628;-29.802;-26.487;5.774;1.751;3.204
2339946.860;-27.642;-28.126;-27.232;-24.922;-22.762;8.047;4.694;3.614
2339946.868;-26.450;-27.791;-26.412;-24.177;-21.458;6.519;3.576;1.304
2339946.876;-29.877;-29.653;-28.685;-24.997;-24.065;8.382;4.768;3.055
2339946.884;-33.490;-32.373;-31.367;-28.722;-26.226;9.201;4.023;4.694
2339946.892;-37.588;-37.178;-35.763;-33.639;-30.808;3.986;-0.708;0.000
2339946.900;-37.476;-37.514;-34.645;-33.677;-29.393;-0.857;-5.141;-3.204
2339946.908;-34.645;-34.198;-32.373;-29.318;-28.573;-1.118;-5.513;-2.161
2339946.916;-35.837;-34.161;-32.820;-27.977;-30.138;-2.496;-6.631;-1.676
2339946.924;-33.118;-30.510;-29.244;-22.985;-28.163;-0.447;-4.098;0.373
2339946.932;-20.564;-18.254;-17.658;-9.909;-18.179;2.645;-0.633;2.012
2339946.940;-2.049;1.751;-0.633;9.127;-4.955;5.364;1.863;3.241
2339946.948;9.909;14.678;14.231;22.799;7.413;8.270;4.321;4.396
2339946.956;25.444;31.143;32.708;38.631;22.948;10.021;4.582;4.880
2339946.964;48.354;55.358;56.438;61.765;42.468;16.093;10.729;8.568
2339946.972;67.241;74.767;76.741;81.062;57.817;19.036;13.039;11.399
2339946.980;91.046;98.124;103.638;105.314;80.094;16.391;12.256;11.176
2339946.932;105.053;113.063;120.290;119.545;92.946;12.219;8.754;8.345
2339946.940;114.925;121.631;132.471;127.181;100.248;10.021;6.557;7.451
2339946.948;121.482;127.517;140.369;134.408;105.277;8.531;5.625;7.413
2339946.956;131.056;135.638;152.513;141.375;112.951;9.537;6.743;6.668
2339946.964;140.443;144.728;163.130;150.800;121.221;10.543;10.356;6.817
2339946.972;143.722;147.894;164.397;154.860;121.705;10.654;12.890;6.482
2339946.980;140.816;144.169;163.317;152.513;120.886;10.580;12.517;5.998
2339946.988;140.555;143.722;164.323;147.820;122.301;8.494;9.388;4.917
2339946.996;140.555;142.381;163.987;144.728;122.413;9.984;8.941;7.637
2339947.004;135.079;135.377;159.331;136.420;119.843;10.729;8.754;10.468
2339947.012;121.258;120.290;146.031;119.656;110.567;10.878;9.239;11.809
2339947.020;108.480;105.351;132.285;104.085;99.614;11.325;10.021;11.660
2339947.028;99.689;96.336;120.737;94.585;91.232;13.895;11.437;11.027
2339947.036;85.272;81.062;102.930;79.237;76.480;13.858;10.915;8.419
2339947.044;70.930;67.949;85.458;65.230;60.424;11.697;10.282;6.482
2339947.052;60.052;56.550;72.829;51.707;49.248;7.562;6.407;4.694
2339947.060;55.432;50.925;65.640;45.858;45.151;10.394;8.233;7.786
2339947.068;48.503;43.288;56.438;37.402;37.327;9.686;6.706;7.153
2339947.076;40.084;35.167;46.529;28.424;27.642;6.743;2.757;5.811
2339947.084;35.204;30.473;41.984;23.954;25.220;4.172;-0.633;5.215
2339947.092;31.777;25.779;39.153;20.042;23.656;3.166;-0.931;5.327
2339947.100;22.948;18.850;29.989;11.548;17.583;-2.123;-6.333;0.931
2339947.108;16.503;11.809;22.128;3.092;10.654;-4.843;-8.605;-2.533
2339947.116;11.250;5.849;15.572;-4.433;4.321;-3.986;-7.078;-2.868
2339947.111;9.649;5.253;12.629;-5.364;3.055;1.639;-1.155;0.410
2339947.119;13.150;8.196;13.933;-2.198;4.992;5.476;2.347;1.937
2339947.127;10.654;5.439;9.350;-6.072;-1.378;3.055;-1.527;0.261
2339947.135;3.055;-2.943;2.794;-16.168;-5.960;1.267;-4.955;0.224
2339947.143;-2.272;-7.339;-2.794;-18.887;-8.717;3.614;-2.533;1.788
2339947.151;-9.090;-12.666;-10.692;-22.613;-16.093;1.863;-3.278;-0.298
2339947.159;-12.740;-15.423;-14.603;-26.599;-19.483;-1.527;-5.625;-2.533
2339947.167;-17.285;-18.477;-19.632;-29.244;-23.507;-1.639;-5.774;-2.980
2339947.175;-19.707;-19.819;-21.420;-31.441;-25.406;-1.565;-6.407;-4.061
2339947.183;-22.650;-23.879;-22.948;-33.230;-26.822;-3.092;-8.754;-4.768
2339947.191;-21.607;-22.911;-22.016;-30.845;-25.183;0.149;-5.364;-1.378
2339947.199;-25.220;-25.369;-26.189;-32.000;-27.828;2.235;-3.092;-1.341
2339947.207;-34.235;-33.714;-34.831;-40.568;-36.322;-2.906;-7.451;-6.966
2339947.215;-38.110;-36.620;-36.657;-43.474;-37.216;-2.421;-6.482;-7.860
2339947.223;-33.826;-32.783;-31.181;-38.780;-32.671;3.800;-1.602;-2.868
2339947.231;-34.012;-33.677;-32.037;-37.774;-35.204;2.049;-3.055;-4.098
2339947.239;-32.894;-32.075;-31.292;-37.849;-34.347;-2.906;-7.078;-8.233
2339947.247;-34.496;-33.490;-32.485;-40.866;-34.273;-7.860;-14.678;-10.282
2339947.255;-36.843;-37.514;-34.310;-43.474;-34.459;-11.213;-20.377;-10.990
2339947.263;-38.520;-38.743;-35.539;-43.437;-35.577;-15.162;-24.661;-13.933
2339947.271;-40.792;-40.047;-36.098;-44.666;-37.476;-16.838;-25.146;-15.013
2339947.279;-38.482;-38.557;-34.198;-43.362;-35.912;-16.578;-23.358;-15.534
2339947.287;-40.047;-41.276;-36.173;-46.305;-37.625;-14.678;-19.372;-14.231
2339947.295;-38.445;-38.818;-33.006;-44.778;-33.602;-11.250;-15.385;-11.325
2339947.306;-36.284;-37.849;-31.143;-43.772;-33.230;-11.884;-17.956;-12.629
2339947.314;-39.302;-40.829;-35.204;-46.790;-36.769;-15.423;-22.799;-15.721
2339947.322;-42.021;-43.586;-38.445;-49.248;-38.408;-16.354;-23.171;-15.423
2339947.330;-40.755;-42.208;-36.880;-46.529;-37.067;-13.597;-19.409;-14.231
2339947.338;-39.674;-41.164;-35.316;-43.884;-35.204;-9.499;-15.497;-13.076
2339947.346;-33.379;-33.379;-30.585;-37.625;-30.510;-2.757;-10.319;-7.078
2339947.354;-32.410;-31.181;-30.324;-35.428;-30.324;2.682;-7.488;-2.049
2339947.362;-33.416;-31.143;-31.516;-35.055;-31.590;6.743;-4.470;1.304
2339947.370;-29.653;-27.977;-27.046;-31.367;-26.934;8.084;-0.149;2.794
2339947.378;-26.822;-26.226;-24.736;-28.796;-25.295;10.654;6.668;3.725
2339947.386;-36.545;-35.726;-34.831;-37.998;-34.571;8.866;5.811;0.633
2339947.394;-30.287;-30.734;-27.306;-33.341;-27.977;6.743;3.614;-0.261
2339947.402;-28.200;-28.871;-24.624;-31.739;-23.656;7.562;3.837;2.645
2339947.410;-33.639;-34.608;-31.702;-36.396;-31.404;3.316;-0.857;0.186
2339947.418;-35.837;-36.024;-34.422;-35.614;-34.906;0.112;-4.470;-3.390
2339947.426;-34.869;-35.092;-33.379;-33.602;-33.788;-4.843;-9.947;-6.147
2339947.434;-34.124;-32.894;-32.596;-32.187;-33.118;-8.494;-13.411;-8.084
2339947.442;-39.078;-37.253;-36.843;-36.694;-37.290;-11.176;-16.391;-9.760
2339947.450;-41.053;-39.861;-40.382;-37.774;-40.978;-10.803;-15.423;-10.468
2339947.458;-43.027;-40.866;-41.351;-38.594;-42.170;-10.207;-13.374;-11.548
2339947.466;-46.231;-44.145;-44.592;-41.872;-46.119;-14.044;-16.168;-15.423
2339947.474;-45.300;-43.660;-43.400;-41.462;-44.368;-14.529;-16.429;-14.827
2339947.482;-38.520;-37.178;-36.918;-34.794;-37.700;-7.488;-8.307;-8.345
2339947.490;-37.290;-37.141;-35.837;-35.875;-36.694;-6.333;-7.525;-9.723
2339947.517;-38.221;-38.482;-36.247;-38.370;-35.390;-7.190;-9.649;-9.649
2339947.525;-40.270;-40.457;-37.029;-39.265;-35.092;-10.841;-14.976;-10.356
2339947.533;-39.972;-40.121;-38.482;-38.445;-37.514;-15.013;-21.569;-12.852
2339947.541;-37.774;-38.520;-37.923;-37.216;-36.806;-17.732;-24.512;-15.385
2339947.549;-32.820;-33.639;-31.851;-32.149;-30.361;-13.895;-20.005;-12.070
2339947.557;-30.994;-33.155;-28.722;-32.298;-24.848;-18.328;-23.022;-14.566
2339947.565;-30.100;-32.671;-28.834;-30.845;-28.089;-23.358;-26.934;-16.876
2339947.573;-28.834;-29.877;-28.014;-29.281;-26.599;-26.822;-31.032;-18.626
2339947.581;-17.434;-18.515;-17.881;-19.744;-16.205;-22.165;-25.742;-14.529
2339947.589;-15.162;-17.062;-15.311;-17.881;-14.268;-22.277;-24.475;-17.434
2339947.597;-12.480;-14.454;-17.211;-13.858;-14.938;-17.583;-19.222;-15.609
2339947.605;-11.511;-12.964;-26.152;-10.878;-15.795;-16.056;-17.583;-15.013
2339947.613;-14.789;-16.205;-31.777;-14.119;-15.348;-17.583;-19.893;-14.529
2339947.621;-19.483;-20.750;-36.433;-19.148;-16.354;-18.850;-21.905;-13.374
2339947.629;-24.475;-27.791;-43.102;-26.375;-26.301;-18.291;-22.687;-14.752
2339947.637;-28.796;-32.112;-47.423;-29.318;-28.647;-17.509;-20.452;-17.993
2339947.645;-27.083;-30.398;-46.790;-26.636;-26.748;-11.884;-13.262;-13.746
2339947.653;-29.467;-32.634;-48.615;-29.504;-27.344;-10.505;-11.846;-10.170
2339947.661;-35.726;-38.594;-56.289;-35.390;-33.900;-17.770;-19.148;-16.838
2339947.669;-32.634;-34.682;-55.730;-30.585;-34.831;-18.217;-20.340;-17.658
2339947.677;-28.983;-31.628;-51.521;-28.275;-26.971;-18.030;-22.054;-16.689
2339947.685;-28.014;-30.808;-52.117;-29.355;-23.395;-18.515;-22.873;-16.429
2339947.693;-25.891;-29.281;-52.452;-28.051;-23.693;-17.323;-20.862;-14.491
2339947.701;-24.922;-28.126;-55.730;-25.965;-25.630;-16.503;-17.956;-12.517
2339947.665;-24.997;-26.785;-58.636;-25.406;-26.152;-15.385;-15.832;-10.766
2339947.673;-31.069;-32.298;-65.267;-32.112;-29.504;-16.019;-18.217;-11.735
2339947.681;-34.422;-36.061;-69.141;-36.731;-33.192;-16.652;-21.644;-12.666
2339947.689;-36.806;-38.967;-74.580;-39.488;-37.104;-15.870;-22.426;-13.709
2339947.697;-37.625;-39.600;-76.853;-41.239;-38.259;-14.342;-19.260;-13.411
2339947.705;-38.259;-39.712;-78.864;-40.568;-38.743;-10.431;-14.044;-11.362
2339947.713;-39.153;-40.196;-81.919;-39.749;-40.866;-8.270;-12.890;-8.717
2339947.721;-33.341;-34.943;-77.337;-34.459;-33.639;-8.009;-13.933;-5.662
2339947.729;-30.361;-31.330;-76.070;-32.410;-34.086;-9.425;-14.901;-5.886
2339947.737;-32.857;-34.012;-82.552;-34.273;-39.227;-12.256;-17.434;-9.313
2339947.745;-29.393;-32.149;-104.122;-32.783;-38.333;-10.245;-14.603;-7.637
2339947.753;-26.077;-28.461;-73.686;-29.765;-32.932;-5.178;-8.792;-4.172
2339947.761;-24.103;-26.077;-46.119;-27.269;-27.642;-5.402;-8.158;-5.104
2339947.769;-26.487;-28.163;-47.199;-30.510;-31.739;-8.941;-11.548;-8.419
2339947.777;-24.177;-25.667;-44.815;-29.169;-29.877;-6.780;-10.021;-6.929
2339947.785;-21.979;-23.358;-42.655;-27.604;-27.902;-4.098;-7.935;-6.147
2339947.793;-19.670;-22.240;-39.451;-26.003;-24.065;0.261;-3.800;-3.017
2339947.801;-23.060;-24.475;-42.804;-27.679;-27.753;-0.559;-3.725;-3.241
2339947.809;-23.916;-22.873;-44.741;-23.842;-30.734;1.378;-0.261;-0.522
2339947.817;-21.942;-19.409;-43.139;-19.036;-29.430;4.210;2.868;1.267
2339947.825;-19.073;-16.056;-39.153;-13.933;-26.226;6.258;5.066;3.353
2339947.833;-12.629;-9.239;-31.292;-6.557;-19.707;12.964;11.064;8.643
2339947.841;-12.405;-8.121;-29.653;-5.215;-17.509;13.188;9.835;8.866
2339947.849;-13.933;-9.350;-29.914;-7.153;-18.179;8.158;4.917;4.955
2339947.788;-15.497;-11.101;-30.138;-9.537;-19.073;7.711;5.811;4.731
2339947.796;-14.342;-10.505;-28.387;-8.121;-18.366;7.525;6.743;3.763
2339947.804;-13.076;-9.574;-25.257;-7.525;-15.572;7.264;7.637;3.316
2339947.812;-14.827;-12.107;-25.146;-9.611;-14.938;3.316;4.470;0.931
2339947.820;-18.403;-16.242;-26.636;-14.156;-16.466;-2.570;-2.272;-2.310
2339947.828;-17.770;-15.981;-24.103;-14.640;-14.156;-2.831;-4.359;0.149
2339947.836;-14.044;-12.629;-21.271;-10.729;-12.070;-0.708;-4.210;1.639
2339947.844;-12.890;-11.139;-20.154;-7.413;-11.735;-0.857;-3.912;-1.676
2339947.852;-13.672;-13.672;-20.824;-9.052;-12.591;-1.900;-4.545;-4.359
2339947.860;-16.876;-16.913;-23.581;-12.778;-15.423;-4.955;-7.637;-6.817
2339947.868;-18.664;-18.887;-25.555;-14.938;-17.211;-5.886;-11.027;-5.886
2339947.876;-16.466;-16.727;-23.991;-13.374;-16.354;-8.978;-14.342;-6.892
2339947.884;-13.188;-13.225;-20.340;-10.096;-12.070;-6.407;-11.213;-3.949
2339947.892;-8.307;-9.015;-13.337;-5.811;-3.986;-3.949;-6.706;-0.708
2339947.900;-6.929;-6.966;-12.033;-2.123;-3.725;-2.272;-2.533;0.186
2339947.908;-4.731;-4.508;-9.723;2.570;-1.937;1.043;0.373;3.055
2339947.916;-6.855;-6.743;-10.803;0.931;-2.608;-5.066;-7.823;-2.533
2339947.924;-8.531;-5.923;-13.746;3.427;-8.494;-1.825;-6.296;-1.602
2339947.932;-8.009;-4.768;-10.915;5.700;-4.359;-2.384;-6.817;-2.123
2339947.940;-7.749;-3.166;-10.356;7.004;-4.843;-0.149;-3.725;-0.633
2339947.948;-6.780;-0.671;-9.611;10.394;-5.141;3.614;1.490;1.006
2339947.956;-9.164;-3.874;-12.033;7.749;-8.903;3.316;2.384;0.447
2339947.964;-9.425;-3.986;-10.692;6.221;-7.078;2.161;0.522;1.825
2339947.972;-11.772;-5.066;-11.511;6.594;-7.711;2.570;0.112;2.347
2339948.013;-10.617;-3.725;-8.196;9.723;-4.359;5.104;3.837;4.582
2339948.021;-6.743;0.671;-1.751;13.895;-0.112;3.949;4.433;2.719
2339948.029;5.476;13.597;8.456;24.438;5.439;5.886;6.333;2.831
2339948.037;20.042;29.989;21.607;41.537;15.646;9.537;8.866;4.545
2339948.045;32.671;44.703;34.571;56.401;24.997;11.139;8.717;6.743
2339948.053;49.323;63.404;49.844;75.363;35.465;12.852;10.692;9.537
2339948.061;59.344;76.592;60.014;89.556;41.127;9.723;7.227;7.078
2339948.069;74.469;92.126;80.839;106.879;59.195;11.511;7.376;9.947
2339948.077;83.633;100.546;92.648;115.782;65.677;14.938;11.399;12.815
2339948.085;92.685;109.076;103.377;124.536;74.692;13.858;12.219;11.027
2339948.093;99.093;116.006;113.100;130.944;81.733;12.778;12.331;9.164
2339948.101;105.798;121.854;120.513;135.414;90.934;17.658;17.583;14.305
2339948.109;100.173;114.627;115.372;125.431;85.793;12.703;11.735;10.133
2339948.117;95.740;109.561;109.561;117.980;80.802;11.772;10.468;10.133
2339948.125;91.977;105.426;102.669;113.882;76.368;12.480;11.697;12.629
2339948.133;73.686;86.054;82.590;92.871;58.077;5.625;3.278;6.706
2339948.141;60.424;71.600;70.632;76.592;48.652;5.364;2.012;7.190
2339948.149;51.670;62.659;59.195;66.385;37.029;3.986;-0.447;5.327
2339948.157;44.629;55.395;51.856;58.599;33.118;4.955;-1.043;7.153
2339948.165;36.545;45.672;44.182;47.944;27.902;6.184;0.224;9.537
2339948.173;28.200;34.645;35.614;34.496;22.464;7.302;0.373;10.468
2339948.181;16.131;22.314;22.762;21.793;11.213;3.800;-3.055;5.439
2339948.189;9.723;16.503;15.534;16.242;4.023;1.676;-4.172;2.794
2339948.197;7.786;13.933;12.591;14.678;2.906;0.410;-4.135;1.751
2339948.311;8.270;13.374;11.437;13.746;1.527;1.267;-1.825;2.049
2339948.319;8.531;12.442;11.176;10.356;0.447;3.017;-1.043;2.719
2339948.327;3.986;6.668;7.339;4.098;-2.943;6.706;0.335;4.806
2339948.335;-2.012;-0.037;2.943;-4.023;-5.923;8.829;0.447;7.562
2339948.343;-6.966;-3.353;-1.229;-8.456;-8.643;7.264;-1.192;6.557
2339948.351;-11.101;-5.960;-7.078;-9.313;-15.534;7.413;0.447;4.992
2339948.359;-12.591;-6.743;-8.121;-9.649;-16.950;11.325;5.141;8.121
2339948.367;-14.156;-8.121;-10.394;-10.617;-20.750;12.293;7.190;8.717
2339948.375;-11.250;-5.700;-9.425;-8.419;-19.334;14.305;9.388;9.909
2339948.383;-10.468;-4.545;-10.058;-7.749;-21.011;14.901;8.829;11.437
2339948.391;-14.007;-7.935;-13.188;-11.697;-24.140;13.299;6.929;8.978
2339948.399;-12.629;-8.009;-10.543;-12.182;-20.489;16.205;8.754;13.039
2339948.407;-10.096;-4.470;-9.201;-7.488;-22.165;15.944;8.494;13.001
2339948.415;-15.683;-8.829;-15.050;-11.697;-28.908;9.052;1.155;6.184
2339948.423;-18.850;-12.517;-17.285;-15.385;-28.871;11.250;2.868;8.494
2339948.431;-16.391;-11.213;-15.013;-14.789;-26.189;15.274;7.860;10.878
2339948.439;-11.325;-6.519;-9.947;-9.090;-22.054;21.160;14.044;15.572
2339948.447;-13.299;-8.680;-11.362;-10.468;-24.587;18.887;12.293;13.374
2339948.455;-7.600;-3.427;-5.178;-6.296;-19.893;17.770;11.362;13.784
2339948.463;-7.190;-4.023;-3.427;-5.960;-18.105;14.827;8.978;12.442
2339948.471;-12.964;-9.723;-10.394;-13.374;-25.518;10.096;6.743;7.860
2339948.479;-14.789;-11.809;-11.437;-15.534;-25.332;10.096;6.407;7.972
2339948.487;-14.752;-10.282;-13.188;-13.895;-26.487;12.964;10.580;9.537
2339948.495;-17.025;-13.411;-16.615;-18.850;-31.814;7.972;5.849;4.508
2339948.507;-16.578;-12.927;-14.268;-19.073;-29.132;9.686;7.339;5.625
2339948.515;-11.362;-8.605;-7.898;-13.411;-22.538;14.789;12.480;11.921
2339948.523;-14.119;-11.809;-10.096;-16.540;-27.455;11.064;9.947;9.499
2339948.531;-14.380;-11.548;-10.617;-18.217;-26.971;8.568;4.880;7.413
2339948.539;-13.858;-11.213;-11.101;-18.328;-26.487;10.692;5.327;10.207
2339948.547;-11.027;-7.451;-8.568;-12.927;-25.742;13.895;8.754;12.591
2339948.555;-8.084;-4.210;-4.023;-10.729;-21.271;13.337;9.462;10.468
2339948.563;-9.239;-4.992;-6.072;-11.772;-25.332;12.331;9.239;6.966
2339948.571;-5.700;-0.708;-2.049;-6.147;-19.036;16.652;12.107;9.052
2339948.579;0.335;5.402;5.029;1.490;-13.784;20.415;14.678;13.262
2339948.587;0.447;5.811;6.966;2.012;-12.964;16.056;10.654;10.766
2339948.595;3.427;8.792;11.548;6.407;-10.245;9.723;4.806;7.413
2339948.603;13.970;22.575;22.314;20.042;-1.192;6.631;2.868;4.508
2339948.611;28.312;39.712;34.347;37.663;5.029;7.264;4.284;2.794
2339948.619;45.374;60.312;52.713;60.610;18.999;8.531;4.731;4.880
2339948.627;69.849;88.327;78.343;91.903;36.694;10.543;6.035;7.562
2339948.635;95.218;114.962;107.661;118.315;60.201;14.454;8.419;10.990
2339948.643;113.398;133.738;128.970;137.202;78.417;18.291;12.442;11.362
2339948.651;123.121;141.487;139.885;145.212;87.880;18.664;12.815;11.772
2339948.659;126.772;142.939;145.808;146.478;90.897;17.099;10.692;14.789
2339948.667;134.781;152.588;154.078;156.164;96.858;21.085;16.727;23.097
2339948.675;131.801;149.757;151.582;153.892;95.777;18.999;15.236;21.234
2339948.683;130.162;149.757;148.602;155.419;94.362;21.942;17.770;21.122
2339948.691;124.574;145.696;141.561;150.874;89.109;21.979;18.328;19.819
2339948.672;116.937;137.873;131.838;141.896;82.180;17.360;14.268;14.678
2339948.680;105.277;125.393;118.688;128.821;73.649;14.529;12.405;11.772
2339948.688;89.742;107.698;102.445;111.163;61.914;11.437;9.350;9.201
2339948.696;76.145;92.350;86.837;95.814;47.199;6.966;4.545;6.407
2339948.704;67.577;81.174;78.119;83.484;41.574;4.172;1.527;4.359
2339948.712;57.817;70.557;67.540;71.712;33.416;4.433;0.410;3.688
2339948.720;51.633;64.299;60.685;62.585;29.318;8.196;3.353;6.407
2339948.728;46.194;57.928;53.346;56.736;23.358;8.345;4.135;6.258
2339948.736;36.545;47.423;42.766;45.374;14.752;4.955;0.261;3.092
2339948.744;28.647;39.637;34.384;38.035;7.823;9.760;5.625;6.482
2339948.752;19.036;28.796;24.773;26.599;-0.894;5.327;1.900;3.874
2339948.760;8.792;18.105;13.448;16.540;-10.803;-1.639;-5.104;-1.527
2339948.768;5.476;16.093;8.605;17.025;-14.715;-1.453;-4.880;-1.602
2339948.776;1.751;13.150;4.992;12.182;-16.652;0.224;-5.141;-1.974
2339948.784;-4.321;4.731;1.080;4.955;-19.968;1.416;-4.470;-1.527
2339948.792;-11.399;-2.868;-4.806;-0.075;-24.512;3.800;-0.373;1.229
2339948.800;-17.621;-7.227;-9.686;-3.092;-27.567;7.674;4.284;3.912
2339948.808;-12.964;-2.123;-5.215;2.198;-21.681;12.070;9.462;7.823
2339948.816;-16.093;-6.221;-8.605;-1.937;-24.475;8.009;5.215;5.290
2339948.824;-20.713;-11.064;-15.348;-7.600;-31.516;2.943;0.224;0.931
2339948.832;-20.787;-13.039;-16.652;-9.537;-31.032;5.141;2.645;2.570
2339948.840;-24.028;-16.689;-18.850;-14.119;-32.634;4.917;2.906;2.235
2339948.848;-20.973;-13.374;-15.534;-11.064;-29.579;7.972;5.886;5.998
2339948.856;-15.981;-9.947;-10.952;-7.041;-25.518;10.654;10.505;9.201
2339948.881;-14.417;-7.860;-9.835;-4.843;-23.395;6.929;7.637;5.737
2339948.889;-12.256;-5.402;-9.127;-2.459;-23.767;7.786;8.270;4.433
2339948.897;-10.505;-4.508;-7.078;-2.831;-20.973;10.505;9.574;7.078
2339948.905;-10.580;-4.955;-6.594;-4.321;-21.048;11.921;9.909;9.872
2339948.913;-14.342;-8.494;-9.984;-7.413;-26.040;7.786;6.519;5.923
2339948.921;-16.913;-12.778;-12.256;-12.778;-27.679;2.608;1.118;2.645
2339948.929;-18.813;-13.821;-16.801;-13.933;-31.292;-2.943;-4.098;-1.937
2339948.937;-23.469;-17.546;-21.830;-18.440;-35.726;-11.101;-13.039;-7.823
2339948.945;-23.097;-17.472;-19.856;-18.924;-32.932;-15.795;-17.956;-10.692
2339948.953;-16.466;-10.952;-12.666;-10.207;-24.997;-12.219;-13.635;-6.482
2339948.961;-18.589;-13.858;-15.348;-12.927;-28.387;-11.735;-13.150;-5.029
2339948.969;-24.140;-20.266;-19.185;-20.936;-30.957;-11.660;-14.603;-5.811
2339948.977;-29.132;-26.040;-23.432;-27.157;-34.459;-9.127;-13.225;-4.023
2339948.985;-34.980;-31.702;-30.473;-33.416;-44.666;-12.480;-16.056;-7.376
2339948.993;-36.210;-33.528;-32.075;-35.651;-46.156;-17.248;-21.011;-11.027
2339949.001;-34.720;-32.857;-29.765;-34.459;-42.282;-15.423;-20.936;-7.898
2339949.009;-32.932;-30.100;-28.759;-32.187;-40.717;-14.156;-19.670;-5.811
2339949.017;-34.794;-31.292;-29.206;-34.049;-41.984;-17.546;-22.464;-10.356
2339949.025;-34.943;-31.032;-29.318;-33.081;-42.245;-19.632;-23.581;-13.448
2339949.033;-34.831;-30.696;-30.361;-31.888;-42.617;-20.489;-22.762;-14.976
2339949.041;-31.367;-26.338;-26.114;-27.344;-36.061;-13.225;-14.044;-10.021
2339949.049;-39.227;-35.390;-34.347;-37.253;-45.523;-14.827;-16.056;-11.884
2339949.057;-38.557;-37.141;-34.310;-39.153;-46.752;-11.101;-13.970;-7.786
2339949.065;-32.745;-31.032;-30.622;-32.932;-43.288;-8.419;-9.872;-6.072
2339949.077;-30.622;-28.983;-28.536;-30.622;-40.568;-7.264;-8.233;-5.439
2339949.085;-34.310;-33.155;-31.218;-34.533;-44.182;-10.133;-10.543;-8.941
2339949.093;-33.826;-32.708;-31.292;-33.677;-45.225;-13.188;-12.033;-9.947
2339949.101;-29.132;-27.716;-27.418;-29.281;-41.239;-16.429;-14.938;-12.070
2339949.109;-31.032;-30.100;-29.989;-32.075;-45.151;-21.644;-22.389;-16.876
2339949.117;-28.163;-27.120;-27.642;-29.132;-43.698;-18.477;-19.073;-14.603
2339949.125;-27.269;-24.922;-26.934;-27.083;-43.139;-12.964;-12.554;-10.543
2339949.133;-30.845;-29.877;-29.095;-31.292;-43.809;-14.380;-14.044;-11.586
2339949.141;-28.200;-27.455;-25.854;-27.753;-40.121;-10.841;-11.213;-8.084
2339949.149;-24.363;-21.793;-23.209;-24.289;-38.445;-8.531;-9.574;-4.768
2339949.157;-22.128;-19.185;-21.793;-20.862;-38.221;-6.855;-8.754;-2.049
2339949.165;-20.973;-18.589;-21.309;-19.558;-38.370;-3.427;-5.923;-0.671
2339949.173;-18.515;-17.770;-18.328;-19.073;-33.639;-2.421;-4.731;-1.229
2339949.181;-23.246;-22.799;-21.979;-24.289;-35.129;-8.158;-9.127;-7.376
2339949.189;-26.897;-26.673;-26.785;-28.759;-41.910;-10.990;-10.692;-10.505
2339949.197;-21.048;-20.862;-21.569;-22.687;-37.402;-5.662;-5.811;-4.433
2339949.205;-18.254;-19.930;-16.578;-22.314;-31.292;-2.682;-5.439;0.894
2339949.213;-18.291;-21.979;-15.870;-24.587;-29.691;-2.198;-6.892;2.012
2339949.221;-14.342;-18.515;-11.288;-22.054;-25.220;-2.645;-6.035;1.751
2339949.229;-15.683;-18.775;-13.597;-21.085;-28.722;-4.731;-5.178;-1.155
2339949.237;-12.852;-14.715;-12.591;-15.199;-26.524;0.708;0.633;2.608
2339949.245;-15.572;-16.689;-14.752;-17.323;-26.636;4.061;2.608;4.247
2339949.253;-17.472;-17.956;-16.764;-18.999;-27.828;2.421;0.671;1.751
2339949.261;-10.356;-9.350;-10.580;-10.505;-23.954;3.800;2.347;1.527
2339949.258;-6.631;-6.855;-7.451;-8.494;-20.228;5.290;3.241;2.943
2339949.266;-8.233;-9.388;-8.382;-10.692;-19.819;5.439;2.608;3.800
2339949.274;-11.735;-12.740;-9.947;-15.087;-20.042;4.061;1.416;3.465
2339949.282;-13.560;-14.752;-10.245;-16.429;-18.962;1.416;-0.447;1.788
2339949.290;-17.099;-16.838;-13.001;-19.409;-23.954;-1.639;-3.166;-0.708
2339949.298;-13.597;-13.113;-9.090;-17.248;-20.005;-0.224;-1.751;0.000
2339949.306;-10.803;-11.288;-5.178;-15.683;-14.678;4.955;2.794;2.980
2339949.314;-10.729;-12.778;-4.508;-15.795;-13.895;4.433;3.427;1.118
2339949.322;-13.448;-15.348;-6.482;-16.205;-14.193;4.433;4.619;1.118
2339949.330;-8.829;-9.425;-0.596;-10.431;-8.382;7.562;7.376;3.316
2339949.338;-9.872;-9.090;-1.937;-8.717;-10.170;2.794;3.129;-1.229
2339949.346;-11.548;-10.207;-4.433;-9.350;-11.735;0.037;0.708;-3.055
2339949.354;-11.548;-9.760;-5.849;-8.643;-13.895;1.006;1.080;-0.559
2339949.362;-11.139;-10.394;-4.880;-8.978;-11.027;1.714;1.006;-0.596
2339949.370;-9.649;-10.692;-1.788;-11.548;-4.917;7.227;4.284;5.364
2339949.378;-18.328;-18.887;-10.617;-20.638;-16.056;0.894;-2.384;-0.298
2339949.386;-18.626;-18.887;-11.846;-20.601;-19.222;-1.490;-3.874;-1.006
2339949.394;-14.529;-13.709;-9.760;-15.274;-21.979;-1.155;-3.241;-0.410
2339949.402;-16.913;-16.727;-12.256;-18.701;-27.418;-5.178;-6.855;-2.831
2339949.410;-18.477;-17.323;-13.113;-17.919;-29.318;-7.078;-5.998;-5.327
2339949.418;-20.638;-21.309;-14.044;-22.836;-29.616;-9.313;-8.866;-7.227
2339949.426;-25.965;-27.865;-17.919;-29.281;-35.465;-11.586;-12.927;-9.388
2339949.434;-27.567;-29.579;-19.856;-31.032;-37.439;-11.250;-13.448;-10.505
2339949.442;-22.389;-24.214;-15.870;-25.183;-35.129;-7.004;-7.972;-7.823
2339949.450;-19.297;-22.575;-12.890;-22.426;-33.155;-2.980;-2.868;-4.061
2339949.458;-26.524;-30.510;-18.515;-30.845;-37.625;-5.849;-5.476;-4.284
2339949.466;-27.381;-29.393;-20.340;-28.424;-38.780;-1.751;-0.969;0.745
2339949.474;-30.845;-31.218;-23.097;-29.691;-42.170;-2.012;-0.782;0.484
2339949.482;-30.398;-31.777;-21.793;-30.026;-45.858;-0.708;-1.229;1.863
2339949.490;-30.920;-31.888;-22.128;-30.063;-59.083;-1.788;-2.459;0.522
2339949.498;-31.926;-30.547;-26.114;-26.897;-71.265;-8.568;-7.190;-6.482
2339949.506;-26.971;-24.214;-22.948;-19.893;-67.167;-9.313;-6.966;-6.519
2339949.514;-24.885;-22.165;-21.458;-17.658;-62.101;-8.196;-4.247;-4.657
2339949.522;-28.200;-26.375;-23.581;-22.799;-60.797;-8.903;-5.849;-5.104
2339949.530;-31.926;-31.851;-25.146;-29.206;-61.207;-7.078;-6.184;-4.172
2339949.538;-35.316;-36.135;-27.567;-34.459;-62.883;-11.176;-10.878;-9.649
2339949.546;-30.734;-31.777;-21.830;-30.585;-54.799;-10.617;-11.809;-9.127
2339949.554;-28.498;-30.734;-19.595;-28.834;-53.011;-6.966;-8.158;-6.855
2339949.562;-28.685;-31.441;-19.185;-29.206;-49.584;-5.364;-6.557;-5.253
2339949.570;-26.859;-28.871;-16.205;-26.003;-43.958;-4.806;-5.551;-6.184
2339949.578;-21.495;-22.314;-11.623;-18.477;-43.176;-2.608;-4.582;-4.321
2339949.586;-12.480;-15.572;-2.198;-13.225;-37.104;-2.086;-6.557;-4.061
2339949.594;1.900;-1.006;11.288;0.373;-25.332;-1.155;-6.407;-1.974
2339949.602;13.188;9.835;24.103;10.729;-13.001;0.410;-4.210;0.671
2339949.610;27.940;25.965;41.500;29.616;0.410;1.974;-1.229;1.453
2339949.618;46.752;46.901;62.585;51.036;18.403;-0.447;-2.943;-0.373
2339949.626;75.884;79.051;92.499;83.745;40.531;0.708;-0.224;1.863
2339949.634;94.399;97.565;111.945;103.377;53.681;-0.298;0.708;1.267
2339949.572;112.206;117.011;129.379;123.680;67.800;-1.043;2.831;0.820
2339949.580;118.800;124.723;138.432;131.279;77.523;-1.378;3.278;0.261
2339949.588;125.542;133.067;145.026;140.257;82.254;-1.788;3.055;-2.347
2339949.596;131.316;140.108;148.639;147.671;82.664;2.012;5.625;-0.522
2339949.604;125.319;134.408;141.598;141.673;76.480;2.831;5.066;1.416
2339949.612;119.545;127.554;135.824;133.887;74.245;-0.224;1.527;0.671
2339949.620;109.561;117.347;125.691;121.072;68.508;-2.943;-2.310;1.639
2339949.628;85.942;92.797;101.626;94.958;49.211;-12.070;-12.629;-5.215
2339949.636;76.592;82.813;90.264;83.633;39.898;-10.505;-9.574;-4.210
2339949.644;72.494;76.592;85.123;74.804;38.929;-6.072;-6.072;-1.229
2339949.652;59.828;63.702;67.912;60.685;23.209;-5.178;-6.631;-1.080
2339949.660;46.603;51.856;53.458;46.678;12.219;-6.445;-7.115;-3.427
2339949.668;38.594;43.660;44.927;37.774;7.078;0.596;0.373;2.719
2339949.676;21.718;25.444;28.312;18.962;-8.345;-2.198;-2.794;0.894
2339949.684;8.345;11.474;13.262;5.290;-21.495;-8.792;-8.456;-4.768
2339949.692;3.725;7.041;6.519;1.416;-26.077;-12.703;-11.548;-7.749
2339949.700;-2.049;1.937;0.000;-3.614;-29.840;-16.950;-17.323;-11.362
2339949.708;-4.210;-0.075;-2.645;-5.402;-31.665;-12.405;-13.784;-8.121
2339949.716;-7.078;-3.502;-5.849;-8.605;-34.459;-7.898;-11.176;-4.880
2339949.724;-17.658;-15.311;-18.068;-21.197;-43.698;-9.649;-14.752;-7.972
2339949.732;-22.948;-21.905;-23.395;-27.157;-46.678;-7.860;-11.995;-7.153
2339949.740;-26.450;-26.450;-24.363;-31.292;-46.529;-5.700;-9.090;-3.725
2339949.748;-26.673;-28.238;-25.518;-34.645;-46.715;-3.576;-7.786;-1.639
2339949.756;-21.905;-23.171;-21.793;-31.367;-43.400;1.751;-3.614;0.596
2339949.736;-14.976;-16.876;-15.981;-24.438;-38.072;8.829;4.396;5.290
2339949.744;-15.460;-19.446;-16.838;-27.195;-39.227;6.780;3.614;3.688
2339949.752;-17.360;-21.607;-17.956;-30.324;-41.351;3.278;-0.261;0.186
2339949.760;-17.770;-22.426;-17.807;-31.814;-40.792;1.267;-3.316;-0.224
2339949.768;-14.827;-19.372;-15.758;-28.349;-38.594;-0.484;-7.078;-1.639
2339949.776;-10.841;-15.832;-12.740;-25.183;-35.353;2.906;-5.402;2.161
2339949.784;-9.984;-16.205;-11.995;-24.736;-34.273;5.774;-2.310;3.465
2339949.792;-11.288;-17.509;-12.927;-25.965;-33.863;6.855;-1.341;4.321
2339949.800;-17.248;-23.395;-19.446;-31.926;-39.414;4.545;-3.688;4.619
2339949.808;-18.179;-23.805;-21.271;-33.043;-42.394;1.751;-6.557;1.043
2339949.816;-15.385;-21.607;-19.260;-31.777;-39.116;0.782;-6.855;0.075
2339949.824;-16.019;-22.464;-19.670;-32.187;-39.190;-2.012;-9.350;-3.763
2339949.832;-17.211;-23.916;-19.968;-32.410;-39.190;-2.570;-8.866;-4.433
2339949.840;-17.732;-24.326;-20.079;-32.783;-36.806;-2.421;-8.456;-2.421
2339949.848;-18.366;-24.140;-21.271;-31.181;-39.414;-4.694;-10.207;-5.104
2339949.856;-20.228;-24.661;-22.464;-29.951;-39.227;-5.886;-9.537;-7.674
2339949.864;-18.254;-22.352;-20.228;-26.412;-36.284;-7.935;-8.047;-10.505
2339949.872;-15.609;-19.558;-18.142;-23.693;-34.049;-7.935;-7.302;-10.654
2339949.880;-19.781;-23.879;-22.128;-29.542;-38.818;-11.772;-13.411;-13.448
2339949.888;-18.030;-20.824;-20.526;-26.114;-38.333;-9.276;-11.250;-10.282
2339949.896;-19.558;-19.781;-21.979;-23.842;-39.786;-9.313;-10.580;-9.872
2339949.904;-18.142;-17.397;-20.638;-20.266;-38.221;-9.723;-9.425;-9.984
2339949.912;-12.144;-10.170;-15.274;-14.603;-33.677;-9.350;-8.568;-9.164
2339949.920;-8.978;-6.855;-13.188;-11.064;-31.181;-9.350;-9.984;-9.723
2339949.962;-5.737;-4.023;-9.872;-7.562;-26.114;-2.161;-3.129;-6.109
2339949.970;-13.411;-12.405;-17.434;-15.385;-35.428;-2.235;-3.092;-6.929
2339949.978;-20.042;-19.073;-22.948;-23.060;-39.414;-4.917;-7.525;-8.084
2339949.986;-17.807;-16.615;-19.856;-21.271;-34.906;-1.714;-4.284;-4.135
2339949.994;-14.342;-12.554;-17.360;-16.540;-36.135;1.043;-1.863;-3.055
2339950.002;-11.139;-10.058;-13.150;-13.597;-30.547;4.470;0.894;-0.745
2339950.010;-10.841;-10.915;-12.033;-12.740;-27.046;2.794;0.410;-1.155
2339950.018;-10.878;-12.554;-12.405;-15.460;-27.567;-0.335;-2.868;-5.290
2339950.026;-4.992;-6.631;-6.296;-9.425;-23.134;1.788;-0.224;-4.768
2339950.034;-3.017;-3.576;-2.123;-5.923;-18.477;2.235;1.490;-3.725
2339950.042;-0.820;-0.261;-0.373;-1.565;-16.876;2.347;0.261;-2.421
2339950.050;2.608;3.912;2.533;4.061;-15.311;3.390;1.676;-0.708
2339950.058;11.995;15.050;11.362;14.640;-8.978;3.092;2.049;0.633
2339950.066;24.587;28.349;23.991;27.940;1.192;1.676;2.123;-0.671
2339950.074;39.674;43.474;39.898;45.076;12.740;3.241;3.539;1.490
2339950.082;48.317;50.962;51.856;51.558;21.569;-2.794;-1.974;-5.178
2339950.090;57.444;62.883;61.281;65.491;28.647;-1.900;-0.224;-4.619
2339950.098;72.531;80.802;77.412;83.670;40.680;-1.863;-1.118;-4.992
2339950.106;85.533;93.803;92.275;97.267;51.334;-7.041;-5.811;-9.686
2339950.114;101.067;111.572;107.773;115.149;64.187;-3.092;-1.974;-6.035
2339950.122;112.168;122.674;120.774;126.623;75.251;-0.373;0.075;-1.602
2339950.130;115.857;125.207;127.517;128.858;81.621;-0.522;-1.341;-0.745
2339950.138;121.407;131.577;132.993;136.197;86.352;3.912;1.192;1.453
2339950.146;124.648;135.750;135.973;141.077;89.481;11.474;8.903;6.780
2339950.216;117.943;129.081;129.752;133.030;82.999;9.350;7.376;4.061
2339950.224;114.106;124.015;126.883;127.070;80.764;6.668;6.482;1.043
2339950.232;108.220;117.235;119.507;119.545;75.214;6.780;7.525;0.596
2339950.240;92.350;100.024;101.700;100.061;60.275;2.123;2.757;-1.863
2339950.248;80.578;86.762;88.364;84.937;49.956;0.559;0.969;-0.857
2339950.256;66.422;71.786;73.016;68.322;37.588;-2.272;-2.980;-1.304
2339950.264;56.401;61.914;60.797;56.289;29.057;-4.359;-6.668;-2.272
2339950.272;49.248;53.905;53.048;47.833;23.469;-3.278;-6.221;-3.166
2339950.280;38.743;42.319;41.239;36.098;14.082;-1.863;-5.774;-4.880
2339950.288;37.551;41.202;38.035;36.657;13.597;7.190;5.476;1.676
2339950.296;31.367;35.018;29.765;28.946;6.258;6.147;4.880;0.894
2339950.304;23.991;27.530;21.160;21.718;-0.335;2.347;0.559;-1.937
2339950.312;15.683;17.583;13.784;11.139;-4.694;2.570;0.410;-2.198
2339950.320;10.692;12.964;9.201;7.562;-6.743;0.224;-0.596;-4.061
2339950.328;4.582;5.141;2.533;-1.714;-13.709;-4.135;-4.247;-7.264
2339950.336;0.969;-0.373;-2.533;-4.619;-18.515;-1.565;-2.533;-4.545
2339950.344;-3.427;-5.662;-5.737;-11.139;-21.048;-0.186;-3.166;-3.204
2339950.352;-6.072;-8.121;-9.313;-15.236;-24.214;3.576;1.565;-0.559
2339950.360;-9.686;-12.144;-13.858;-19.446;-27.493;7.637;5.849;3.614
2339950.368;-12.405;-15.497;-16.540;-22.165;-28.051;9.201;6.147;5.513
2339950.376;-16.168;-19.334;-20.042;-24.624;-31.516;5.364;2.012;1.378
2339950.384;-19.036;-23.954;-21.309;-32.149;-32.969;2.421;-1.490;-1.155
2339950.392;-20.452;-26.152;-22.501;-35.577;-34.235;2.421;-0.931;-2.310
2339950.400;-18.738;-23.767;-22.538;-32.187;-33.751;6.855;3.465;1.192
2339950.426;-14.678;-18.701;-19.744;-26.487;-30.547;13.001;9.537;7.562
2339950.434;-19.222;-23.246;-24.587;-30.883;-35.167;6.482;3.539;1.863
2339950.442;-21.160;-24.661;-26.636;-33.043;-37.774;4.619;2.794;-0.708
2339950.450;-19.930;-23.507;-25.965;-32.969;-36.433;8.680;6.147;1.825
2339950.458;-22.389;-26.189;-28.871;-33.490;-38.892;9.611;6.109;2.608
2339950.466;-28.759;-32.559;-35.465;-38.780;-44.219;6.668;2.533;0.633
2339950.474;-27.679;-32.336;-33.826;-38.520;-40.643;8.903;5.141;2.049
2339950.482;-28.759;-34.049;-33.937;-40.233;-40.717;7.935;3.278;3.651
2339950.490;-35.390;-40.606;-38.929;-47.162;-45.151;0.559;-4.508;-0.373
2339950.498;-34.459;-39.861;-38.221;-44.890;-44.964;0.447;-2.533;-2.757
2339950.506;-28.498;-32.969;-33.490;-38.072;-40.568;3.651;1.118;-1.639
2339950.514;-25.444;-29.765;-30.883;-35.390;-36.694;7.004;5.104;1.825
2339950.522;-27.046;-30.920;-33.565;-36.806;-42.096;3.204;0.447;-2.757
2339950.530;-22.091;-27.195;-28.908;-34.645;-38.445;-1.118;-3.166;-6.519
2339950.538;-19.595;-25.630;-26.003;-34.831;-35.353;-2.496;-5.439;-4.508
2339950.546;-18.664;-24.885;-24.363;-32.857;-32.522;-1.676;-5.960;-3.763
2339950.554;-22.948;-28.424;-29.467;-36.024;-39.749;-0.410;-4.359;-3.949
2339950.562;-31.814;-36.731;-37.700;-45.672;-45.039;-4.694;-9.462;-8.233
2339950.570;-29.877;-35.837;-35.055;-46.156;-42.245;-8.494;-14.380;-10.505
2339950.578;-31.851;-37.178;-37.029;-46.231;-44.703;-6.817;-11.921;-9.313
2339950.586;-33.341;-37.663;-38.929;-46.715;-45.933;-4.284;-8.382;-7.972
2339950.594;-35.986;-39.488;-42.059;-49.621;-48.019;-5.327;-9.127;-8.792
2339950.602;-30.994;-34.273;-37.998;-44.629;-43.437;-4.992;-8.680;-7.413
2339950.610;-26.971;-30.920;-32.820;-41.500;-35.912;-3.688;-7.153;-5.290
2339950.578;-30.771;-34.720;-37.141;-44.815;-40.978;-6.035;-8.978;-5.960
2339950.586;-37.514;-41.537;-45.747;-51.484;-49.062;-10.058;-14.938;-10.058
2339950.594;-37.141;-40.084;-45.672;-48.950;-48.056;-7.600;-10.282;-7.898
2339950.602;-39.563;-43.064;-46.827;-51.409;-48.317;-8.494;-10.170;-9.462
2339950.610;-40.866;-45.113;-47.870;-53.830;-48.839;-12.405;-13.635;-12.703
2339950.618;-35.278;-39.414;-43.288;-47.497;-44.964;-10.282;-10.580;-10.319
2339950.626;-35.763;-40.345;-42.692;-47.386;-43.698;-9.574;-10.021;-11.027
2339950.634;-41.500;-46.417;-46.715;-52.750;-47.907;-12.256;-12.219;-14.640
2339950.642;-41.090;-46.082;-45.970;-52.080;-48.280;-14.529;-14.976;-16.876
2339950.650;-38.370;-43.213;-43.549;-49.248;-43.623;-12.033;-14.305;-15.087
2339950.658;-32.261;-37.178;-38.221;-42.692;-37.216;-9.611;-11.176;-13.374
2339950.666;-30.398;-35.949;-35.837;-39.972;-35.539;-9.872;-10.990;-13.001
2339950.674;-33.975;-38.929;-39.116;-41.351;-38.072;-10.803;-10.505;-13.970
2339950.682;-40.531;-45.635;-44.815;-48.019;-42.059;-11.101;-10.878;-14.976
2339950.690;-37.402;-40.829;-41.574;-45.560;-39.339;-7.562;-7.227;-12.256
2339950.698;-33.826;-37.476;-38.594;-41.947;-36.620;-8.345;-6.966;-11.958
2339950.706;-32.187;-36.731;-37.141;-41.015;-34.608;-9.350;-9.164;-11.548
2339950.714;-26.971;-31.553;-31.888;-35.577;-30.845;-10.952;-11.548;-11.139
2339950.722;-22.948;-27.195;-28.163;-30.696;-28.126;-9.574;-10.580;-9.760
2339950.730;-22.128;-27.791;-25.257;-30.100;-23.469;-5.029;-6.147;-7.078
2339950.738;-23.097;-29.281;-24.438;-29.951;-20.303;-2.645;-3.688;-6.966
2339950.746;-28.275;-33.788;-28.647;-33.118;-25.593;-5.364;-6.296;-9.984
2339950.754;-32.857;-38.929;-32.932;-37.178;-29.467;-5.476;-6.892;-8.531
2339950.762;-38.557;-44.070;-37.774;-41.872;-32.559;-8.345;-12.182;-9.537
2339950.726;-41.723;-45.262;-41.202;-41.388;-35.651;-10.058;-12.927;-9.276
2339950.734;-44.331;-48.205;-44.703;-44.182;-38.669;-11.697;-12.219;-11.027
2339950.742;-44.256;-49.137;-45.486;-46.305;-36.061;-11.139;-11.772;-11.027
2339950.750;-41.053;-46.007;-43.213;-44.331;-32.485;-9.239;-11.213;-9.350
2339950.758;-40.866;-44.964;-44.703;-43.772;-35.875;-11.250;-15.348;-12.293
2339950.766;-40.755;-46.790;-44.629;-46.678;-36.359;-12.144;-18.179;-14.231
2339950.774;-39.749;-46.939;-44.368;-47.572;-36.135;-13.374;-18.366;-14.678
2339950.782;-28.163;-37.327;-32.373;-39.116;-23.209;-7.786;-11.511;-8.494
2339950.790;-28.089;-37.253;-31.590;-38.296;-21.867;-9.798;-12.368;-10.170
2339950.798;-30.920;-38.184;-33.081;-39.376;-21.197;-8.754;-11.474;-9.611
2339950.806;-35.577;-42.468;-38.482;-42.245;-23.507;-10.319;-12.740;-11.362
2339950.814;-39.525;-46.082;-43.623;-44.666;-28.685;-11.250;-12.927;-12.070
2339950.822;-34.198;-42.357;-37.476;-41.313;-23.022;-8.531;-11.325;-8.978
2339950.830;-27.902;-36.433;-31.218;-35.912;-13.970;-1.751;-5.923;-2.235
2339950.838;-26.859;-33.751;-32.745;-33.528;-19.297;0.671;-2.608;-0.708
2339950.846;-27.530;-34.198;-33.900;-35.353;-21.383;-1.676;-3.316;-5.662
2339950.854;-23.693;-30.734;-31.330;-29.169;-18.887;-3.427;-3.465;-9.760
2339950.862;-18.477;-26.822;-25.146;-26.710;-10.394;0.000;-0.261;-7.004
2339950.870;-20.117;-28.312;-25.555;-29.095;-10.543;-2.086;-3.539;-7.190
2339950.878;-22.426;-30.100;-26.934;-29.691;-13.709;-3.129;-6.296;-7.302
2339950.886;-28.014;-34.720;-31.777;-34.682;-19.409;-6.296;-11.213;-8.829
2339950.894;-27.493;-33.490;-30.249;-34.086;-17.174;-5.811;-10.654;-6.035
2339950.902;-22.687;-29.467;-25.779;-31.963;-12.405;-1.267;-5.923;-1.639
2339950.910;-26.897;-33.267;-30.547;-35.763;-17.844;-4.843;-7.711;-7.972
2339950.936;-32.969;-38.631;-38.035;-42.059;-25.406;-10.803;-14.156;-13.001
2339950.944;-25.705;-29.653;-31.479;-32.894;-17.472;-5.476;-8.568;-6.780
2339950.952;-17.658;-20.713;-24.438;-23.991;-12.554;0.857;-2.086;-0.559
2339950.960;-12.927;-15.162;-18.738;-19.185;-7.823;4.210;1.453;2.384
2339950.968;-15.721;-18.738;-22.054;-25.295;-10.580;-2.943;-5.253;-4.880
2339950.976;-15.981;-20.452;-22.687;-27.120;-11.623;-3.353;-5.104;-5.290
2339950.984;-16.876;-21.607;-23.991;-29.393;-11.921;-1.527;-5.923;-2.310
2339950.992;-24.624;-30.100;-31.069;-38.669;-18.813;-4.955;-12.368;-4.172
2339951.000;-25.928;-29.653;-32.894;-38.072;-20.526;-3.725;-10.692;-3.427
2339951.008;-25.295;-28.163;-32.522;-36.173;-22.501;-3.278;-6.817;-4.247
2339951.016;-22.314;-25.220;-29.244;-33.081;-19.856;-6.668;-6.147;-7.600
2339951.024;-6.258;-11.921;-13.523;-19.930;-5.551;-2.719;-0.373;-5.029
2339951.032;0.820;-6.221;-5.662;-14.044;1.900;-4.247;-2.161;-6.817
2339951.040;6.817;0.522;2.570;-8.196;10.058;-4.284;-2.347;-7.451
2339951.048;15.050;8.866;12.368;1.378;17.509;-0.782;-0.298;-4.321
2339951.056;23.730;17.993;23.134;8.792;27.977;-3.576;-4.582;-5.066
2339951.064;37.439;31.106;36.173;18.440;37.029;-1.788;-3.204;-2.943
2339951.072;48.541;42.655;46.939;31.777;43.027;-0.708;-3.390;-1.974
2339951.080;62.101;55.432;65.081;44.331;57.146;-2.533;-8.643;-2.049
2339951.088;77.337;71.302;81.584;60.312;70.520;0.931;-5.290;3.502
2339951.096;92.424;88.848;96.150;79.200;80.951;1.714;-2.868;2.719
2339951.104;106.692;104.643;110.492;95.963;91.046;5.029;1.751;2.533
2339951.112;110.604;107.214;115.260;96.634;94.771;7.264;5.960;2.794
2339951.120;124.834;122.190;129.566;112.765;109.263;12.405;11.213;6.557
2339951.162;133.328;131.093;137.500;122.041;115.149;15.721;13.709;10.170
2339951.170;127.926;125.282;133.701;114.851;111.237;11.064;8.605;6.072
2339951.178;133.887;130.981;140.928;121.035;118.427;14.231;10.692;9.760
2339951.186;134.148;130.720;139.959;119.954;117.719;13.039;10.803;10.505
2339951.194;134.371;131.093;138.357;119.358;115.596;11.772;9.201;10.766
2339951.202;140.108;136.308;145.063;124.611;120.997;12.442;9.127;12.629
2339951.210;137.128;132.062;143.833;119.917;122.413;11.511;8.233;12.927
2339951.218;137.389;133.216;143.237;124.089;122.860;15.125;13.895;15.162
2339951.226;135.377;133.179;139.736;126.772;119.694;16.242;17.770;15.795
2339951.234;130.050;129.938;132.509;124.052;113.137;12.778;14.901;11.474
2339951.242;120.774;119.284;122.264;113.770;105.724;9.574;11.846;6.631
2339951.250;120.029;117.794;120.886;111.908;107.102;9.090;12.591;6.631
2339951.258;117.347;115.260;117.309;109.710;106.394;9.090;11.995;6.594
2339951.266;107.884;106.096;106.357;103.898;99.614;6.370;10.356;4.768
2339951.274;99.316;98.869;97.193;104.345;93.617;10.654;15.423;7.600
2339951.282;93.468;93.430;90.376;106.134;88.550;16.540;22.091;10.394
2339951.290;80.802;80.317;76.815;95.144;77.263;14.454;19.148;8.233
2339951.298;74.953;73.910;70.035;90.301;73.314;14.417;16.764;9.499
2339951.306;67.130;67.055;61.095;86.315;68.769;14.901;14.529;12.256
2339951.314;55.283;57.630;46.007;78.827;53.570;15.311;16.093;11.772
2339951.322;47.684;50.999;38.967;73.649;47.497;13.076;16.578;9.239
2339951.330;38.929;41.500;31.963;63.330;44.890;6.743;10.729;3.390
2339951.338;37.812;39.637;29.877;61.244;44.256;5.178;10.468;2.608
2339951.346;39.525;41.649;30.696;64.746;46.045;7.674;12.517;6.855
2339951.341;33.341;35.278;26.338;57.220;41.649;8.866;11.139;7.004
2339951.349;24.289;25.034;18.328;46.790;33.453;3.986;5.402;0.335
2339951.357;22.054;24.103;16.391;46.715;32.745;2.012;3.688;-3.241
