Timestamp,AFz,AF3,AF4,AF7,AF8,Pz,P3,P4,2024-03-14 13:59:59.983,fs=125
9791.415;238.791;226.162;69.998;98.906;99.726;876.188;2048.947;1104.400
9791.423;237.115;222.884;72.718;101.142;89.146;859.872;2026.372;1085.587
9791.431;236.593;226.945;83.782;111.088;105.798;856.519;2016.202;1085.103
9791.439;245.981;235.103;105.090;113.361;128.150;852.272;2005.249;1079.626
9791.447;242.032;223.182;84.229;102.296;117.607;832.491;1978.092;1057.014
9791.455;213.720;200.495;52.378;82.776;90.934;824.928;1960.099;1046.099
9791.463;221.729;200.383;69.067;86.054;93.542;828.281;1956.001;1045.391
9791.471;232.942;213.124;85.011;98.795;102.036;838.824;1958.609;1053.065
9791.479;227.503;207.275;90.189;100.844;110.492;834.577;1946.911;1048.595
9791.487;211.745;191.666;72.010;85.086;98.497;809.729;1915.097;1031.347
9791.495;207.722;183.471;60.275;74.767;94.771;802.204;1901.090;1021.139
9791.503;226.200;220.835;79.423;101.589;113.882;810.400;1904.666;1028.925
9791.511;256.263;248.216;106.990;135.452;136.495;831.969;1916.215;1053.847
9791.519;262.186;248.924;114.031;147.820;151.806;845.119;1921.393;1067.333
9791.527;254.922;242.777;107.363;139.289;136.606;830.293;1900.904;1045.354
9791.535;258.386;245.869;116.527;140.034;149.123;828.058;1888.126;1037.344
9791.543;272.281;257.306;137.910;153.333;172.518;839.457;1891.591;1047.850
9791.551;268.742;244.491;123.791;139.400;154.860;831.857;1876.094;1040.213
9791.559;246.204;229.217;107.624;129.268;128.634;807.047;1847.930;1010.746
9791.567;256.933;248.589;120.737;147.447;142.045;816.323;1851.581;1019.463
9791.575;264.049;256.337;125.468;151.508;152.625;826.269;1855.455;1030.825
9791.583;260.398;249.818;134.669;154.264;150.986;816.844;1837.499;1022.778
9791.591;238.903;231.266;111.945;140.332;138.134;796.840;1808.442;1002.178
9791.599;254.363;227.913;107.661;145.994;148.118;795.722;1797.527;1000.054
9791.567;272.393;251.308;136.904;164.807;164.323;806.414;1798.309;1012.944
9791.575;261.627;262.372;131.018;156.090;147.633;795.610;1786.016;990.145
9791.583;253.506;251.681;121.072;153.780;145.398;778.474;1762.807;968.873
9791.591;241.697;234.172;116.900;151.657;143.275;765.212;1741.387;962.205
9791.599;233.017;227.019;105.985;135.899;129.230;751.354;1723.058;946.745
9791.607;235.401;218.973;98.944;137.575;117.421;748.113;1710.951;946.000
9791.615;246.242;232.309;108.741;146.627;132.546;761.859;1719.035;954.084
9791.623;233.352;225.380;114.664;146.180;137.761;746.958;1697.503;939.332
9791.631;246.316;243.336;118.278;154.153;137.277;747.889;1687.594;937.246
9791.639;251.569;244.081;125.170;161.864;155.903;746.772;1679.175;929.870
9791.647;255.518;224.374;131.428;151.992;151.992;736.676;1663.305;919.178
9791.655;255.257;235.401;138.693;154.227;147.633;742.413;1660.809;926.293
9791.663;231.825;230.744;117.309;141.412;126.287;718.236;1625.158;901.259
9791.671;217.892;220.723;102.073;125.021;123.009;704.080;1603.551;883.006
9791.679;228.994;228.994;104.047;140.928;125.989;717.677;1614.578;897.087
9791.687;241.697;227.951;131.354;165.217;141.449;726.879;1616.403;909.865
9791.695;233.836;218.116;120.774;152.811;134.371;717.901;1597.330;890.940
9791.703;234.805;233.352;118.129;142.977;133.105;705.943;1574.010;879.467
9791.711;239.760;233.352;116.676;146.255;143.498;703.223;1565.665;879.914
9791.719;242.554;233.017;120.737;153.221;140.928;696.890;1551.509;871.047
9791.727;241.250;238.977;125.878;169.203;155.345;703.931;1549.721;879.727
9791.735;237.674;227.131;126.623;159.852;151.582;702.366;1542.047;872.053
9791.743;237.636;229.664;127.926;151.210;134.669;690.110;1522.340;857.003
9791.751;236.221;240.579;124.201;159.070;143.312;687.987;1512.617;854.917
9791.764;231.750;238.307;130.534;158.250;152.662;683.516;1505.613;845.306
9791.772;226.311;226.460;125.654;158.399;148.416;672.005;1485.571;832.677
9791.780;237.189;236.221;128.932;167.564;143.386;674.091;1479.760;836.924
9791.788;236.779;226.237;129.901;161.342;147.969;667.237;1464.114;829.957
9791.796;236.966;217.743;139.289;158.064;157.841;665.970;1458.041;826.642
9791.804;233.985;239.760;128.485;166.036;150.986;656.135;1441.091;819.005
9791.812;209.734;222.959;106.730;148.490;138.469;635.646;1410.917;798.553
9791.820;201.426;213.236;97.603;143.014;127.107;637.136;1411.103;794.269
9791.828;218.228;218.600;119.321;150.092;139.400;627.488;1396.239;785.738
9791.836;245.050;226.833;150.874;163.019;167.117;642.501;1402.237;799.857
9791.844;232.682;214.241;128.150;150.837;148.639;636.838;1389.869;789.501
9791.852;224.635;224.449;125.915;159.591;141.896;623.614;1369.901;773.258
9791.860;234.097;249.185;130.609;179.000;147.298;617.318;1361.705;763.051
9791.868;220.612;230.782;115.521;161.342;140.332;602.119;1344.495;749.864
9791.876;218.004;204.816;120.476;140.592;134.148;598.654;1334.548;747.181
9791.884;223.704;208.095;124.089;139.065;142.790;605.024;1332.350;751.577
9791.892;219.643;202.842;121.854;143.945;142.828;599.548;1318.231;743.605
9791.900;209.846;201.166;115.670;146.814;132.546;583.269;1292.378;723.600
9791.908;193.566;186.823;109.188;136.532;132.099;569.895;1272.075;709.407
9791.916;185.259;178.181;88.327;121.631;119.433;568.256;1263.730;707.544
9791.924;208.318;203.885;112.541;138.246;136.346;582.635;1274.422;715.740
9791.932;201.091;199.005;116.378;132.620;128.821;574.067;1262.985;704.974
9791.940;197.552;191.033;114.702;124.872;139.438;571.832;1258.440;703.670
9791.948;176.542;174.418;97.491;123.568;124.201;562.705;1242.086;699.684
9791.941;161.417;165.403;70.855;118.017;105.463;544.898;1220.256;679.642
9791.949;169.873;168.271;74.133;117.049;109.151;534.281;1207.665;666.752
9791.957;167.042;157.915;75.474;112.802;106.320;529.066;1193.434;667.237
9791.965;171.214;165.142;90.227;109.375;112.653;533.126;1191.385;669.993
9791.973;171.661;169.389;98.459;111.237;110.157;532.046;1181.513;665.635
9791.981;177.659;169.910;100.508;124.276;125.915;544.898;1185.723;671.633
9791.989;192.933;189.357;98.310;146.292;141.226;548.400;1185.127;671.186
9791.997;180.416;190.847;96.001;133.179;126.846;521.801;1155.175;642.650
9792.005;175.126;179.820;85.048;131.316;114.702;511.706;1141.503;631.921
9792.013;183.359;176.243;99.763;130.609;123.866;511.743;1134.761;633.523
9792.021;179.298;163.876;111.796;124.089;127.964;514.872;1129.471;636.354
9792.029;190.586;179.484;112.802;130.869;132.360;517.629;1124.889;640.973
9792.037;171.438;176.169;85.495;124.797;119.656;499.450;1100.823;619.143
9792.045;154.935;162.013;72.457;113.770;108.741;487.715;1082.905;602.566
9792.053;164.844;164.360;90.264;113.584;113.659;483.617;1071.356;599.511
9792.061;159.740;153.892;91.046;112.168;107.214;478.104;1059.808;591.837
9792.069;153.296;141.114;81.323;100.322;106.916;472.665;1049.228;582.747
9792.077;148.900;139.996;78.566;97.081;103.600;467.673;1037.382;581.592
9792.085;147.782;149.235;79.647;98.087;98.534;465.736;1032.166;580.773
9792.093;152.960;162.907;75.623;111.796;111.982;458.062;1018.569;567.697
9792.101;147.112;145.920;84.266;103.563;106.283;451.095;1005.046;559.837
9792.109;145.212;143.833;84.490;99.503;105.500;452.213;1002.848;560.731
9792.117;140.034;141.449;77.412;98.534;101.924;452.176;995.435;562.184
9792.125;144.094;159.517;80.243;101.849;98.832;444.017;980.310;554.360
9792.152;153.705;159.182;79.460;106.655;110.716;442.490;973.903;554.658
9792.160;135.303;127.591;79.796;91.381;111.610;436.604;962.429;549.704
9792.168;136.755;124.276;76.443;80.913;97.826;422.634;944.510;529.103
9792.176;125.505;121.631;68.955;72.196;90.227;412.390;929.981;515.915
9792.184;118.986;116.751;70.445;76.033;83.260;415.556;928.380;519.939
9792.192;132.993;144.579;71.004;85.607;93.803;421.293;929.199;528.432
9792.200;130.907;148.676;74.320;81.323;98.422;396.222;896.379;501.461
9792.208;119.135;116.229;65.975;57.258;106.245;386.052;878.610;491.887
9792.216;118.092;90.823;67.092;36.843;116.266;384.785;869.930;491.403
9792.224;128.821;104.010;78.082;41.835;127.219;391.789;875.071;493.936
9792.232;124.946;121.742;71.973;50.478;120.066;388.995;871.085;492.446
9792.240;113.100;110.380;65.044;47.944;109.412;384.524;858.903;486.188
9792.248;108.518;97.342;51.148;40.270;100.434;374.205;840.351;474.416
9792.256;99.763;99.577;52.936;30.622;99.763;357.367;817.813;457.130
9792.264;89.630;79.721;48.950;27.828;104.494;353.307;809.766;452.846
9792.272;97.416;79.870;53.048;21.607;94.473;350.028;802.316;448.935
9792.280;105.612;95.293;63.144;35.688;102.408;357.330;803.359;456.125
9792.288;107.735;109.002;62.995;50.850;109.263;367.053;806.600;461.042
9792.296;104.122;107.549;53.458;38.706;97.230;363.626;801.124;457.019
9792.304;82.441;69.961;38.259;15.274;88.215;347.868;783.429;441.745
9792.312;74.282;69.030;34.310;17.285;87.619;341.088;773.035;438.578
9792.320;81.062;88.327;38.780;36.098;89.556;348.650;775.941;449.903
9792.328;87.805;80.094;49.435;26.599;85.197;343.136;769.570;436.418
9792.336;81.994;73.798;51.074;25.816;87.470;337.288;756.830;427.403
9792.361;76.145;73.835;37.998;27.083;76.890;343.733;754.520;437.424
9792.369;69.253;62.622;34.235;17.285;63.479;333.264;739.507;426.397
9792.377;80.951;79.423;44.741;28.014;84.974;328.571;734.031;415.929
9792.385;89.109;93.579;50.291;40.419;90.301;329.763;731.647;413.507
9792.393;72.531;79.274;37.253;29.840;74.655;320.785;714.436;404.268
9792.401;58.413;50.291;33.714;11.288;65.602;318.773;704.601;396.185
9792.409;58.226;58.003;23.730;14.566;62.995;319.295;701.807;395.887
9792.417;68.806;81.211;23.022;36.806;61.244;316.873;697.002;390.112
9792.425;90.003;87.805;41.872;46.492;75.400;314.414;690.185;385.828
9792.433;75.288;82.478;44.778;41.053;75.847;308.268;677.779;385.009
9792.441;72.755;81.621;55.768;45.188;73.537;313.446;680.499;389.889
9792.449;78.343;76.927;57.332;55.097;83.447;319.034;682.697;394.695
9792.457;95.740;93.952;56.811;52.899;82.180;314.377;671.446;388.473
9792.465;81.398;79.013;46.231;29.393;64.261;286.140;634.454;355.802
9792.473;65.789;63.330;31.143;27.753;65.342;283.867;624.806;352.785
9792.481;58.115;66.422;37.216;28.014;65.714;292.286;628.009;361.204
9792.489;55.842;72.494;30.696;31.851;72.047;275.858;608.489;349.507
9792.497;74.729;68.210;38.855;33.528;63.740;268.966;599.995;346.228
9792.505;81.621;73.537;52.974;39.935;66.571;274.293;603.125;351.593
9792.513;51.036;56.289;29.616;31.218;59.679;257.604;581.443;328.273
9792.521;47.907;52.415;27.679;34.235;60.052;265.911;584.200;333.451
9792.529;78.529;87.805;48.093;50.515;73.910;281.148;598.654;350.177
9792.537;77.002;71.451;42.208;37.961;69.626;279.434;593.588;345.632
9792.545;68.918;70.557;42.655;43.362;52.713;267.029;572.726;330.396
9792.527;46.417;71.637;27.940;33.006;57.481;258.014;554.509;321.865
9792.535;48.466;65.863;25.667;34.869;66.496;264.682;554.882;327.453
9792.543;66.049;66.906;37.961;32.671;73.798;267.029;553.913;328.794
9792.551;68.732;68.024;33.155;40.904;67.987;269.935;554.286;332.594
9792.559;63.218;65.565;43.325;40.606;59.642;254.884;537.410;317.320
9792.567;59.977;64.522;49.584;35.018;61.803;244.714;520.274;310.503
9792.575;42.394;50.031;29.840;20.191;56.364;239.834;509.247;303.239
9792.583;49.621;50.366;23.171;14.715;56.922;242.628;505.038;303.015
9792.591;48.541;57.742;21.979;26.226;62.436;252.798;507.645;311.472
9792.599;52.750;58.487;29.616;37.774;68.247;252.910;503.547;312.291
9792.607;45.523;39.265;32.522;21.756;51.595;237.003;483.431;296.794
9792.615;32.820;34.273;19.148;9.760;41.761;231.825;477.545;285.357
9792.623;33.975;49.844;21.830;11.213;42.431;222.586;466.965;277.273
9792.631;41.164;59.642;22.724;24.438;57.220;221.878;465.997;279.024
9792.639;50.217;58.040;24.885;35.688;54.762;214.577;454.932;274.330
9792.647;31.367;36.433;16.689;15.683;42.878;197.589;429.712;257.455
9792.655;23.730;29.095;7.674;9.462;40.755;200.905;428.297;256.784
9792.663;26.636;26.003;10.915;15.572;38.780;197.887;424.981;249.781
9792.671;45.002;50.999;27.865;30.175;52.974;210.144;437.312;259.839
9792.679;47.013;62.548;21.085;33.304;59.642;213.943;439.249;261.217
9792.687;31.292;47.982;21.979;16.429;45.374;197.776;416.264;247.024
9792.695;24.289;39.414;18.664;16.354;50.068;196.844;408.366;243.001
9792.703;24.363;37.402;19.930;15.013;46.864;189.431;396.445;235.252
9792.711;31.628;39.861;16.876;18.701;50.738;188.947;392.385;233.464
9792.709;37.514;45.300;21.234;18.254;48.466;180.826;381.172;226.386
9792.717;37.663;46.864;24.438;20.191;51.372;175.014;372.976;221.021
9792.725;34.794;38.520;30.957;25.965;52.527;181.235;378.974;226.758
9792.733;9.909;25.555;10.133;4.396;45.151;158.548;354.648;202.879
9792.741;19.297;34.235;7.786;3.166;48.615;164.509;356.622;208.467
9792.749;25.891;32.634;2.235;9.239;37.551;167.862;353.865;210.591
9792.757;18.030;31.851;2.086;17.174;38.259;164.881;345.334;206.046
9792.765;18.142;30.138;32.485;12.293;51.148;160.448;336.580;200.123
9792.773;22.091;24.028;28.424;16.019;53.160;149.384;323.877;187.755
9792.781;13.933;20.787;6.855;-1.602;29.132;145.510;316.687;182.912
9792.789;20.564;28.536;8.084;5.402;39.674;137.389;306.517;176.691
9792.797;18.291;32.298;9.164;10.468;46.417;131.167;298.247;174.604
9792.805;2.645;22.277;13.337;2.533;33.230;121.966;287.667;161.268
9792.813;10.282;31.851;15.385;12.331;43.921;123.307;283.420;163.577
9792.821;27.083;38.929;18.328;14.678;50.142;135.899;289.679;175.573
9792.829;24.475;26.636;16.429;8.233;47.646;135.228;285.655;170.805
9792.837;12.703;23.060;2.012;8.270;34.720;125.282;268.891;160.299
9792.845;1.900;27.865;8.084;9.909;28.647;124.238;264.719;155.270
9792.853;-2.645;3.166;3.874;-15.460;27.344;107.959;246.763;139.847
9792.861;0.484;5.923;6.258;-14.864;36.396;98.571;232.346;128.895
9792.869;13.001;29.542;15.944;0.633;43.735;104.345;232.421;135.377
9792.877;10.803;26.114;11.250;4.992;40.233;104.196;227.094;141.263
9792.885;1.974;24.214;8.866;0.596;39.041;108.331;230.335;144.839
9792.893;0.894;14.603;12.144;-1.937;33.379;113.696;230.670;148.229
9792.903;-3.502;-2.943;-0.708;-19.409;29.393;109.151;222.847;138.134
9792.911;2.719;16.280;2.272;-4.210;40.308;103.787;216.067;127.070
9792.919;4.135;31.367;10.356;7.115;36.880;99.689;205.971;125.356
9792.927;-5.439;19.372;3.800;-2.198;29.840;95.703;200.048;125.431
9792.935;-10.617;5.439;-2.608;-6.557;31.441;87.060;189.170;121.109
9792.943;-6.109;0.633;0.559;-1.155;34.310;93.430;189.468;128.374
9792.951;-10.692;-13.299;-3.204;-22.426;14.007;78.790;170.730;108.592
9792.959;-10.654;2.980;-3.800;-23.581;18.775;78.119;167.266;101.104
9792.967;-5.811;19.111;4.470;-3.055;31.032;92.238;178.404;110.567
9792.975;6.817;33.565;19.185;15.050;37.961;97.901;182.018;115.186
9792.983;1.639;24.848;13.635;11.623;36.210;98.906;178.069;119.098
9792.991;-18.254;-3.278;2.533;-12.815;21.160;81.919;160.150;102.893
9792.999;-0.857;3.874;2.012;-14.082;13.746;75.176;153.445;97.454
9793.007;-10.990;4.135;-12.331;-5.066;-2.980;71.824;149.682;95.181
9793.015;-14.044;3.949;-5.811;0.559;13.039;75.027;152.439;95.330
9793.023;-16.913;-1.006;-5.849;-4.321;31.367;77.374;150.129;96.746
9793.031;-31.218;-10.356;-1.639;-22.575;13.709;62.957;128.374;83.856
9793.039;-27.530;-14.640;-17.621;-26.859;-2.012;58.599;116.304;83.819
9793.047;-14.938;-2.719;-13.672;-7.451;-5.402;67.987;122.152;90.525
9793.055;-30.547;-2.570;-14.640;-10.803;-2.272;54.985;109.263;78.082
9793.063;-40.792;-22.426;-26.934;-28.163;-3.986;39.600;96.783;62.101
9793.071;-26.561;-12.182;-14.417;-10.729;5.662;43.176;102.669;58.822
9793.079;-38.743;-22.538;-22.464;-21.122;-9.686;33.192;91.493;49.621
9793.087;-27.269;-8.345;-17.434;-16.391;-11.176;39.749;96.411;53.868
9793.112;-29.616;2.682;-21.867;-12.293;-2.123;44.480;94.697;58.487
9793.120;-41.090;-18.105;-27.753;-30.026;-21.569;35.651;79.423;53.383
9793.128;-31.553;-13.597;-17.248;-18.403;-1.565;40.755;78.753;57.854
9793.136;-33.751;-17.434;-13.933;-20.936;-0.410;38.147;68.918;57.518
9793.144;-46.343;-41.910;-23.842;-37.961;-16.578;21.011;45.635;40.382
9793.152;-38.520;-35.390;-23.209;-37.700;-13.858;3.837;28.908;24.326
9793.160;-26.673;-3.427;-16.317;-14.752;-5.588;10.580;39.898;28.871
9793.168;-19.819;0.112;-18.105;-0.596;-6.184;23.432;55.395;34.273
9793.176;-38.818;-13.635;-27.716;-15.907;-14.044;8.866;38.333;15.199
9793.184;-38.072;-13.635;-10.245;-12.852;-4.619;20.824;46.045;23.842
9793.192;-34.943;-20.377;-16.056;-13.597;-7.451;22.054;42.878;34.571
9793.200;-32.783;-15.981;-16.615;-15.795;-6.817;20.228;38.669;32.671
9793.208;-27.046;-9.425;-16.689;-20.936;-4.917;14.119;27.604;24.922
9793.216;-30.361;-14.193;-16.019;-24.699;-11.474;8.680;15.125;18.701
9793.224;-43.474;-29.467;-15.050;-25.295;-10.803;13.933;13.821;21.383
9793.232;-44.592;-36.843;-19.222;-25.928;-9.798;6.966;6.296;15.348
9793.240;-30.994;-9.835;-12.405;-11.958;-0.931;7.823;11.064;15.721
9793.248;-35.167;-20.526;-28.461;-29.244;-9.052;-8.643;-2.719;-2.384
9793.256;-34.459;-13.746;-17.360;-19.632;-9.947;-11.846;-9.239;-6.892
9793.264;-34.943;-4.806;-6.147;-6.370;-0.447;-8.531;-9.276;-6.258
9793.272;-36.769;-16.950;-15.683;-14.715;-5.066;-8.605;-12.368;-8.419
9793.280;-40.755;-18.999;-16.391;-24.103;-8.345;-8.121;-15.199;-9.350
9793.288;-27.232;-1.453;-12.554;-3.017;2.347;4.731;-4.433;2.347
9793.296;-40.904;-22.165;-39.935;-22.724;-14.864;-6.333;-16.540;-6.035
9793.307;-35.912;-19.483;-11.176;-21.979;-3.278;-3.539;-18.999;-2.049
9793.315;-42.729;-29.206;-2.794;-26.375;-5.327;-8.196;-30.994;-2.533
9793.323;-30.287;-7.898;8.717;-15.162;12.517;-3.278;-29.020;3.465
9793.331;-27.046;-11.325;-3.427;-17.323;1.602;-17.248;-47.199;-14.119
9793.339;-47.646;-26.487;-34.906;-31.143;-21.271;-31.330;-68.098;-25.630
9793.347;-49.248;-34.049;-32.149;-33.565;-17.211;-22.091;-63.442;-18.924
9793.355;-47.982;-33.900;-20.564;-33.267;-1.527;-23.320;-59.120;-21.644
9793.363;-29.653;-6.817;0.894;-9.686;11.325;-14.752;-42.617;-17.844
9793.371;-42.357;-17.211;-17.881;-12.554;-1.900;-27.046;-50.552;-34.124
9793.379;-63.404;-41.761;-43.325;-41.276;-31.441;-46.529;-71.414;-56.736
9793.387;-57.109;-34.310;-33.006;-29.840;-26.301;-31.814;-64.000;-42.468
9793.395;-59.381;-40.717;-26.785;-34.571;-11.995;-28.871;-70.222;-31.106
9793.403;-50.254;-24.326;-31.963;-33.341;-9.350;-27.940;-75.512;-27.120
9793.411;-39.451;-4.880;-11.139;-15.236;2.198;-24.326;-73.202;-23.432
9793.419;-45.486;-23.060;-11.846;-19.260;-4.321;-26.263;-78.231;-25.742
9793.427;-63.665;-44.033;-27.306;-37.327;-6.817;-32.075;-85.160;-36.620
9793.435;-65.640;-39.972;-36.359;-45.598;-23.134;-53.346;-104.867;-59.381
9793.443;-48.801;-28.424;-25.742;-38.892;-21.458;-58.711;-107.996;-66.310
9793.451;-39.749;-17.397;-21.607;-23.879;0.484;-47.721;-95.405;-56.513
9793.459;-67.577;-46.343;-44.890;-43.549;-21.607;-58.822;-107.661;-71.712
9793.467;-82.441;-54.613;-49.323;-49.733;-32.075;-52.303;-103.712;-68.434
9793.475;-52.191;-36.359;-11.362;-21.681;-5.849;-25.555;-79.498;-37.141
9793.483;-32.894;-10.207;-11.921;-15.460;-0.969;-20.340;-77.337;-28.424
9793.491;-37.663;-5.998;-11.064;-18.030;5.104;-25.444;-86.948;-34.310
9793.486;-46.156;-31.032;-14.603;-21.271;-4.321;-28.312;-97.528;-40.308
9793.494;-61.691;-40.457;-36.582;-31.888;-17.881;-43.213;-118.390;-58.003
9793.502;-67.614;-42.580;-37.886;-36.992;-21.197;-60.238;-138.059;-74.878
9793.510;-57.481;-32.708;-25.593;-36.024;-13.039;-60.983;-137.202;-75.623
9793.518;-47.572;-16.540;-19.372;-21.122;-2.906;-65.677;-139.773;-80.466
9793.526;-35.800;-6.668;-7.078;-9.313;13.746;-53.123;-123.233;-67.018
9793.534;-42.878;-25.965;-14.529;-16.801;6.407;-50.664;-117.049;-69.216
9793.542;-41.835;-20.899;-22.016;-26.003;-10.543;-58.524;-126.436;-79.758
9793.550;-40.308;-17.397;-4.508;-9.984;5.066;-39.898;-109.263;-64.224
9793.558;-52.564;-21.160;-20.936;-16.131;-11.884;-46.827;-118.278;-69.179
9793.566;-50.180;-20.005;-20.526;-20.228;-4.321;-60.387;-136.904;-76.406
9793.574;-45.337;-15.311;-11.958;-16.987;12.107;-53.942;-133.216;-69.924
9793.582;-34.533;-10.058;-8.158;-11.697;12.182;-55.060;-138.842;-67.577
9793.590;-58.413;-33.379;-23.693;-29.691;-12.033;-75.474;-157.133;-91.232
9793.598;-51.521;-27.455;-21.830;-25.816;-8.270;-73.910;-152.886;-93.095
9793.606;-54.725;-17.546;-25.034;-20.154;-7.488;-75.921;-152.439;-92.797
9793.614;-53.123;-26.189;-13.560;-26.561;-2.123;-80.056;-157.245;-95.889
9793.622;-57.444;-41.351;-30.883;-27.902;-1.900;-89.891;-173.151;-103.153
9793.630;-65.006;-45.784;-34.608;-35.428;-6.370;-86.986;-176.579;-97.416
9793.638;-42.170;-15.981;-10.207;-16.987;2.421;-72.904;-166.260;-83.633
9793.646;-54.911;-19.446;-19.781;-16.615;-11.586;-79.349;-173.785;-89.221
9793.654;-73.537;-32.671;-34.645;-33.453;-21.681;-86.948;-179.671;-99.167
9793.662;-72.867;-37.476;-41.649;-37.998;-18.626;-90.227;-186.525;-103.414
9793.670;-74.357;-57.593;-40.717;-42.431;-15.013;-93.989;-193.678;-107.661
9793.697;-63.591;-50.291;-26.301;-30.696;-10.878;-88.029;-188.313;-99.093
9793.705;-63.553;-32.000;-27.157;-26.003;-15.907;-93.766;-191.666;-107.549
9793.713;-65.379;-35.055;-30.920;-29.691;-22.613;-97.416;-197.701;-117.980
9793.721;-65.379;-43.809;-37.029;-41.425;-26.114;-94.734;-196.546;-112.168
9793.729;-71.004;-36.769;-45.449;-43.362;-20.973;-91.530;-194.423;-107.475
9793.737;-40.792;-8.605;-9.164;3.949;-1.565;-98.534;-200.756;-116.043
9793.745;-35.614;-10.505;4.359;4.359;-17.323;-100.844;-206.307;-118.092
9793.753;-20.713;13.337;1.378;6.258;-14.566;-92.760;-201.166;-109.486
9793.761;-17.621;17.844;2.421;7.860;-13.709;-92.611;-202.507;-111.386
9793.769;-22.575;4.694;13.970;7.078;-3.614;-83.670;-195.988;-101.291
9793.777;-39.190;-6.184;4.135;-7.227;-8.270;-92.238;-206.381;-108.741
9793.785;-50.887;-27.157;-19.819;-25.667;-41.276;-109.039;-229.180;-127.144
9793.793;-44.107;-20.228;-11.735;-15.981;-36.955;-109.039;-230.893;-130.497
9793.801;-46.864;-11.027;-23.730;-11.511;-35.651;-106.581;-226.721;-128.411
9793.809;-53.197;-16.280;-23.805;-8.643;-35.018;-91.977;-210.591;-119.098
9793.817;-52.042;-26.785;-17.211;-17.583;-30.920;-88.885;-209.026;-121.035
9793.825;-52.676;-29.020;-17.509;-21.644;-35.688;-81.398;-208.020;-113.659
9793.833;-48.466;-28.126;-10.207;-21.420;-39.861;-80.727;-211.596;-112.392
9793.841;-61.505;-35.278;-32.037;-18.924;-46.417;-105.314;-236.109;-137.389
9793.849;-64.410;-31.516;-30.212;-18.477;-44.368;-107.810;-237.450;-134.669
9793.857;-64.075;-25.444;-21.718;-27.753;-45.523;-113.808;-242.218;-135.899
9793.865;-53.272;-28.200;-16.727;-16.689;-43.772;-108.816;-240.169;-132.546
9793.873;-36.620;-28.461;-1.378;-6.296;-20.899;-92.611;-229.105;-120.513
9793.881;-39.786;-6.445;-4.731;0.633;-15.683;-95.591;-234.507;-122.488
9793.891;-54.315;-14.417;-36.396;-4.508;-36.806;-103.191;-242.516;-131.652
9793.899;-49.919;-25.667;-13.262;-7.451;-37.961;-108.406;-248.961;-141.412
9793.907;-36.210;-23.879;5.923;-6.482;-28.089;-98.199;-241.287;-132.546
9793.915;-46.827;-20.675;-13.970;-13.821;-36.284;-96.932;-243.820;-128.709
9793.923;-55.358;-24.624;-26.263;-9.164;-31.181;-107.214;-255.443;-138.655
9793.931;-59.344;-27.008;-26.561;-12.480;-39.451;-103.116;-251.606;-137.128
9793.939;-44.629;-15.348;-9.760;-8.382;-31.330;-109.784;-259.653;-144.690
9793.947;-28.722;-14.417;9.127;-4.955;-9.723;-108.927;-261.255;-139.177
9793.955;-27.679;-12.144;6.780;-9.909;-11.697;-102.557;-256.374;-136.048
9793.963;-39.898;-23.581;-5.327;-16.093;-12.740;-104.159;-258.982;-135.787
9793.971;-43.884;-32.969;-12.144;-28.722;-14.752;-111.386;-266.545;-139.810
9793.979;-43.921;-24.959;-9.835;-30.994;-13.933;-121.817;-276.454;-151.098
9793.987;-46.194;-15.460;-6.594;-27.455;-17.695;-121.593;-275.858;-155.643
9793.995;-47.684;-35.353;-10.096;-29.318;-23.879;-115.447;-271.648;-152.104
9794.003;-56.848;-37.476;-10.990;-22.501;-15.013;-111.014;-270.121;-145.659
9794.011;-36.284;-15.125;-7.190;-14.864;-9.462;-109.151;-270.717;-143.312
9794.019;-18.850;1.006;7.190;-1.192;-3.204;-104.383;-265.278;-141.263
9794.027;-42.729;-15.944;-5.662;-16.987;-19.632;-113.212;-274.107;-149.682
9794.035;-48.876;-28.424;-13.374;-24.028;-24.773;-108.592;-270.233;-142.716
9794.043;-49.286;-37.029;-14.566;-23.991;-24.252;-124.946;-284.426;-157.170
9794.051;-46.119;-27.418;-23.507;-23.618;-21.942;-131.391;-287.816;-161.491
9794.059;-41.611;-24.103;-9.201;-18.179;-12.815;-125.356;-282.824;-152.774
9794.067;-46.194;-28.424;-6.072;-18.738;-16.466;-125.095;-285.432;-149.161
9794.075;-52.676;-22.724;-5.662;-21.607;-19.558;-120.923;-284.202;-147.298
9794.057;-65.789;-46.641;-30.845;-46.901;-48.801;-141.338;-306.480;-174.642
9794.065;-55.209;-41.537;-40.755;-32.857;-27.157;-136.457;-301.711;-173.375
9794.073;-46.007;-21.011;-19.334;-16.280;-11.548;-125.393;-289.232;-163.615
9794.081;-48.690;-23.320;0.075;-22.165;-7.339;-120.997;-284.649;-158.250
9794.089;-54.464;-37.327;-2.645;-31.181;-21.495;-127.703;-292.212;-162.944
9794.097;-38.482;-21.681;-9.872;-12.740;-22.724;-126.250;-295.937;-154.972
9794.105;-35.316;-18.477;-9.276;-12.703;-10.468;-122.637;-293.702;-155.084
9794.113;-44.927;-26.040;-6.072;-22.836;-8.643;-139.587;-309.460;-179.075
9794.121;-53.011;-28.796;-7.674;-20.303;-7.115;-139.773;-311.285;-177.398
9794.129;-41.574;-27.046;-4.396;-23.134;0.112;-123.084;-296.384;-161.976
9794.137;-39.935;-23.209;-9.201;-23.842;-18.664;-124.536;-299.588;-164.062
9794.145;-14.938;11.697;4.023;20.377;-4.880;-120.811;-297.613;-160.150
9794.153;-27.679;5.811;4.396;22.389;-17.025;-124.499;-301.227;-160.821
9794.161;-33.900;-6.296;-0.671;5.066;-32.149;-135.452;-312.440;-170.358
9794.169;-21.756;-7.488;10.580;11.809;-14.715;-126.660;-303.537;-165.589
9794.177;-40.084;-7.749;-8.792;4.731;-32.783;-145.659;-322.796;-184.514
9794.185;-44.033;-5.998;-0.857;0.559;-30.436;-152.662;-330.843;-191.182
9794.193;-23.656;-6.929;17.807;17.248;-2.868;-134.669;-314.601;-172.779
9794.201;-9.835;6.035;16.168;20.005;-5.849;-129.230;-310.801;-164.583
9794.209;-15.385;15.721;2.682;21.085;-17.136;-128.113;-310.913;-170.842
9794.217;-12.740;18.775;18.589;37.886;-5.215;-109.300;-292.882;-156.015
9794.225;-26.822;1.937;28.647;28.126;-2.533;-101.179;-284.873;-150.762
9794.233;-22.724;3.539;13.784;18.850;-0.484;-109.263;-292.659;-154.078
9794.241;-15.534;14.938;7.153;23.916;-9.239;-111.721;-298.768;-153.221
9794.255;-30.659;-3.427;-4.694;18.291;-25.108;-124.797;-312.664;-163.950
9794.263;-42.021;-15.236;-1.714;2.496;-32.485;-145.510;-333.823;-179.261
9794.271;-42.468;-16.540;5.439;0.261;-2.347;-140.928;-330.210;-171.252
9794.279;-46.268;-11.846;-8.717;-5.029;-22.165;-147.484;-336.878;-180.453
9794.287;-48.205;-21.830;-7.488;-5.849;-25.667;-151.359;-341.050;-188.388
9794.295;-40.866;-24.959;3.092;-3.502;-19.968;-140.145;-332.147;-178.330
9794.303;-34.273;-13.150;-1.453;2.980;-22.799;-141.338;-334.904;-177.547
9794.311;-35.390;-6.668;0.782;12.331;-13.821;-134.259;-326.894;-175.387
9794.319;-45.672;-25.034;-4.619;-1.080;-10.356;-141.673;-335.239;-187.419
9794.327;-43.474;-11.921;4.321;2.049;-14.938;-141.673;-338.666;-187.494
9794.335;-42.096;-12.852;1.043;-2.570;-22.091;-142.604;-342.317;-188.351
9794.343;-48.615;-22.203;-15.981;-6.445;-26.077;-145.547;-346.526;-190.437
9794.351;-43.139;-9.686;-7.190;8.903;-15.758;-138.767;-337.362;-183.694
9794.359;-25.854;-1.043;11.027;14.827;-8.345;-133.440;-330.284;-181.496
9794.367;-42.766;-19.222;-1.304;-0.075;-18.552;-140.630;-340.194;-186.786
9794.375;-55.805;-26.897;-0.186;-4.731;-18.775;-135.452;-337.139;-184.253
9794.383;-39.078;3.763;-3.166;10.952;-4.992;-126.772;-327.118;-176.169
9794.391;-41.202;-16.429;-22.352;5.215;-23.581;-134.371;-337.288;-183.545
9794.399;-42.096;-19.781;-4.433;-1.416;-25.518;-132.211;-336.617;-177.249
9794.407;-48.503;-23.693;2.384;3.837;-18.552;-132.956;-337.921;-173.226
9794.415;-47.944;-15.274;3.725;17.509;-22.128;-143.051;-344.329;-187.270
9794.423;-43.064;-3.204;-7.823;19.073;-14.193;-140.034;-343.285;-184.886
9794.431;-23.916;-4.582;-5.737;10.580;-17.770;-131.987;-336.543;-178.032
9794.439;-37.923;-8.047;5.402;7.376;-24.140;-141.561;-349.917;-182.390
9794.431;-44.182;-11.139;4.396;8.009;-31.590;-144.392;-356.957;-182.129
9794.439;-37.104;-0.782;5.998;18.924;-19.595;-130.162;-342.280;-170.507
9794.447;-31.218;-14.976;-4.396;7.376;-25.816;-134.185;-343.770;-178.330
9794.455;-32.075;-4.508;7.115;9.276;-19.595;-132.248;-338.480;-182.204
9794.463;-33.751;1.341;5.141;17.397;-20.452;-129.007;-333.674;-180.975
9794.471;-42.133;-14.305;0.894;12.815;-25.332;-129.230;-334.829;-177.920
9794.479;-62.995;-42.915;-23.805;-4.396;-41.984;-137.761;-344.440;-184.961
9794.487;-57.258;-34.384;-29.467;-5.513;-54.426;-150.837;-358.894;-192.262
9794.495;-61.095;-29.728;-17.993;-6.855;-45.560;-154.003;-359.230;-196.397
9794.503;-62.920;-27.567;-20.415;-5.290;-41.872;-153.370;-354.685;-193.194
9794.511;-50.552;-23.767;-7.190;3.688;-38.110;-146.404;-348.613;-190.213
9794.519;-47.162;-16.317;0.224;5.774;-35.353;-143.014;-347.272;-194.795
9794.527;-38.520;-15.758;-1.751;11.511;-33.677;-142.753;-348.724;-196.435
9794.535;-38.110;-5.551;-4.768;11.213;-38.631;-140.481;-346.526;-192.449
9794.543;-46.231;-17.881;-11.511;9.052;-41.351;-140.555;-349.544;-190.362
9794.551;-44.815;-22.203;-7.078;14.082;-32.820;-125.691;-336.766;-173.934
9794.559;-37.849;-6.445;-5.774;19.372;-38.445;-127.926;-338.219;-179.596
9794.567;-28.014;4.135;7.823;21.867;-29.765;-136.681;-347.905;-189.655
9794.575;-33.863;-3.316;4.619;17.621;-29.989;-138.022;-349.879;-191.815
9794.583;-48.503;-11.995;-6.296;13.784;-37.588;-143.871;-354.312;-197.217
9794.591;-42.766;-12.927;-10.915;12.629;-51.446;-142.530;-352.636;-196.174
9794.599;-34.086;-5.923;4.023;22.352;-41.276;-134.930;-341.758;-191.778
9794.607;-26.338;-4.545;5.886;30.436;-23.097;-128.485;-334.233;-187.084
9794.615;-23.581;-2.012;12.778;30.994;-17.285;-121.333;-331.067;-177.287
9794.641;-40.755;-13.970;8.009;17.174;-28.349;-128.187;-338.405;-182.800
9794.649;-46.380;-13.672;-8.792;11.176;-55.246;-145.398;-354.908;-202.022
9794.657;-35.875;-1.043;-12.778;28.908;-47.795;-140.741;-350.177;-200.458
9794.665;-36.210;-2.831;-5.700;26.971;-35.651;-141.077;-353.642;-196.919
9794.673;-33.751;-3.912;7.637;30.883;-36.322;-131.167;-344.366;-185.370
9794.681;-20.824;-3.949;19.446;34.161;-18.179;-130.348;-341.535;-183.843
9794.689;-25.891;-8.568;11.139;23.507;-28.871;-139.587;-349.432;-195.242
9794.697;-29.579;-7.115;12.480;22.426;-32.932;-130.609;-343.062;-186.749
9794.705;-28.685;2.310;9.499;25.369;-30.473;-121.929;-335.500;-180.453
9794.713;-20.936;12.442;15.460;27.493;-23.395;-117.868;-332.408;-179.447
9794.721;-20.415;-3.949;9.201;27.306;-26.152;-123.270;-340.678;-184.327
9794.729;-38.967;-17.472;-1.192;18.775;-34.831;-124.648;-343.807;-181.869
9794.737;-46.976;-10.394;-8.792;12.927;-38.743;-126.846;-343.397;-181.831
9794.745;-41.574;-10.878;-3.017;13.374;-36.955;-132.844;-346.117;-182.688
9794.753;-33.453;-16.764;-3.427;11.288;-39.786;-133.514;-344.627;-183.396
9794.761;-38.333;-11.399;-4.359;11.027;-46.864;-151.247;-359.155;-205.114
9794.769;-37.327;-14.603;5.215;11.846;-32.932;-153.221;-363.141;-201.538
9794.777;-48.950;-24.959;-2.533;5.737;-33.975;-158.250;-370.033;-201.873
9794.785;-44.405;-13.150;-14.417;11.735;-45.188;-165.477;-380.948;-206.716
9794.793;-29.132;-0.186;-1.043;24.289;-29.616;-151.880;-368.506;-192.262
9794.801;-21.346;-0.298;3.725;22.762;-27.083;-145.286;-363.179;-184.216
9794.809;-49.919;-32.522;-15.758;-3.986;-48.280;-161.603;-379.384;-204.407
9794.817;-69.365;-32.075;-26.189;-3.427;-56.215;-159.666;-376.217;-210.926
9794.825;-45.747;-15.795;1.602;9.052;-27.940;-141.263;-361.390;-195.056
9794.851;-36.843;-20.415;0.335;5.402;-32.336;-136.718;-357.181;-193.641
9794.859;-39.935;-13.933;-6.631;9.909;-34.161;-139.400;-356.026;-201.538
9794.867;-34.012;-2.421;4.619;14.640;-19.222;-134.148;-351.183;-191.405
9794.875;-34.682;-6.147;9.313;14.603;-24.848;-137.202;-356.734;-190.623
9794.883;-32.037;-11.660;11.027;16.503;-15.236;-129.119;-350.885;-182.986
9794.891;-35.986;-22.687;0.186;7.451;-27.120;-130.422;-354.722;-184.290
9794.899;-52.303;-33.118;-19.483;-10.394;-45.411;-145.026;-372.119;-197.999
9794.907;-42.245;-2.906;-2.310;2.459;-31.888;-148.937;-375.174;-197.291
9794.915;-44.629;-12.852;-13.001;6.147;-31.628;-158.548;-379.570;-205.636
9794.923;-45.486;-23.767;-8.345;8.978;-26.003;-158.325;-376.254;-205.860
9794.931;-50.478;-37.849;0.224;3.986;-31.851;-154.003;-373.796;-205.413
9794.939;-43.884;-23.842;-1.192;1.267;-32.075;-160.672;-383.779;-208.728
9794.947;-51.968;-10.841;-23.693;-6.333;-52.489;-162.013;-386.648;-208.020
9794.955;-59.418;-22.911;-26.263;-11.586;-44.405;-158.995;-385.270;-209.212
9794.963;-37.514;-14.268;4.657;4.135;-6.407;-156.835;-384.785;-205.152
9794.971;-40.680;-30.398;8.978;-14.789;-5.849;-157.505;-381.134;-208.803
9794.979;-42.729;-46.343;3.502;-32.522;-3.874;-162.534;-381.060;-215.918
9794.987;-41.127;-25.444;-9.313;-33.714;-1.900;-163.689;-383.891;-216.104
9794.995;-42.021;-14.007;-4.023;-33.602;-2.570;-156.127;-377.558;-211.447
9795.003;-32.894;-8.121;17.211;-20.191;12.219;-160.262;-381.991;-211.895
9795.011;-44.666;-28.051;7.264;-18.366;-0.708;-167.005;-387.132;-217.967
9795.019;-51.185;-32.969;-9.015;-37.216;-8.307;-173.077;-392.981;-223.853
9795.027;-47.386;-21.867;-9.760;-35.092;-4.247;-166.185;-387.542;-216.775
9795.035;-48.541;-33.081;-22.128;-27.083;-14.119;-171.214;-392.497;-222.661
9795.031;-44.294;-24.028;9.239;-28.163;5.290;-168.905;-391.081;-218.526
9795.039;-55.805;-39.861;-1.527;-44.145;-3.092;-166.297;-390.261;-213.683
9795.047;-50.068;-33.043;-7.302;-36.769;-4.284;-157.692;-383.183;-203.662
9795.055;-53.234;-27.381;-14.119;-40.345;-7.227;-162.497;-390.671;-216.998
9795.063;-59.530;-31.255;-21.271;-37.327;-13.001;-165.552;-393.018;-223.815
9795.071;-56.960;-48.093;-10.170;-35.428;-4.843;-163.019;-388.883;-215.098
9795.079;-55.693;-48.354;-4.061;-35.539;1.937;-160.262;-382.885;-211.000
9795.087;-55.991;-25.146;-9.798;-34.161;-3.725;-165.589;-388.138;-216.663
9795.095;-56.401;-29.020;-13.225;-42.245;-4.694;-163.130;-385.493;-216.663
9795.103;-57.258;-31.777;-15.497;-43.735;-12.815;-158.511;-379.011;-214.241
9795.111;-54.054;-38.743;-11.772;-37.849;-4.210;-152.737;-372.082;-207.089
9795.119;-55.358;-45.970;-6.109;-38.892;-11.846;-154.376;-373.460;-208.728
9795.127;-66.608;-49.509;-20.005;-38.482;-7.078;-161.789;-379.980;-215.210
9795.135;-49.695;-25.444;-5.327;-23.246;8.382;-153.109;-370.890;-207.685
9795.143;-35.726;-1.192;-0.745;-5.588;14.678;-139.438;-357.926;-193.790
9795.151;-42.729;-9.574;-5.774;-20.340;5.811;-158.884;-378.490;-213.012
9795.159;-52.042;-24.773;-12.405;-32.969;-13.635;-167.564;-387.169;-223.517
9795.167;-71.600;-49.099;-19.856;-42.841;-12.666;-175.796;-396.334;-227.913
9795.175;-72.308;-51.484;-32.149;-41.127;-10.766;-177.063;-394.396;-228.174
9795.183;-69.886;-50.403;-29.579;-47.274;-14.342;-174.791;-389.107;-224.635
9795.191;-52.080;-39.414;-5.141;-45.262;-5.811;-167.713;-383.891;-214.279
9795.199;-52.378;-19.558;-11.176;-25.555;-7.935;-172.779;-384.599;-222.884
9795.207;-43.586;-7.488;2.459;3.129;-4.694;-162.013;-372.790;-211.708
9795.215;-57.556;-40.904;-14.640;-11.660;-27.679;-166.297;-382.364;-213.236
9795.199;-49.509;-37.737;-18.775;-20.862;-22.314;-172.593;-389.293;-219.196
9795.207;-46.976;-22.911;-11.288;-11.474;-16.801;-169.538;-382.476;-217.706
9795.215;-62.957;-30.249;-16.987;-16.466;-34.086;-174.455;-386.573;-228.323
9795.223;-48.392;-11.288;-10.766;-4.135;-26.003;-167.675;-379.533;-219.978
9795.231;-38.669;-28.573;3.129;-7.264;-23.246;-160.187;-372.864;-205.971
9795.239;-37.327;-15.087;1.378;3.539;-10.058;-147.261;-364.222;-188.798
9795.247;-59.158;-30.883;-14.938;-16.429;-33.602;-160.597;-381.172;-202.656
9795.255;-73.761;-57.146;-34.980;-34.422;-53.197;-177.920;-396.743;-225.492
9795.263;-66.608;-39.041;-20.862;-21.867;-36.024;-182.167;-396.967;-229.776
9795.271;-57.779;-24.028;-19.483;-13.076;-32.745;-173.189;-384.413;-217.482
9795.279;-64.485;-34.422;-27.604;-17.174;-36.471;-164.881;-374.541;-207.461
9795.287;-75.661;-53.234;-41.239;-26.822;-56.103;-174.977;-384.636;-212.155
9795.295;-64.187;-48.168;-22.314;-24.922;-56.028;-182.725;-392.236;-224.411
9795.303;-65.155;-50.254;-20.303;-30.659;-42.953;-184.737;-395.030;-228.621
9795.311;-75.549;-49.546;-33.155;-26.971;-43.176;-178.702;-391.044;-221.692
9795.319;-56.885;-18.217;-19.744;-7.339;-40.904;-170.097;-383.034;-216.253
9795.327;-74.208;-52.750;-32.149;-27.828;-59.046;-189.058;-405.721;-231.415
9795.335;-80.131;-60.759;-39.600;-29.877;-69.141;-195.056;-412.092;-238.046
9795.343;-73.612;-50.440;-36.992;-26.785;-55.246;-193.901;-407.994;-237.487
9795.351;-72.308;-54.836;-45.151;-33.788;-40.866;-193.454;-404.529;-236.817
9795.359;-63.255;-32.745;-24.140;-14.156;-38.557;-181.571;-386.685;-224.598
9795.367;-66.161;-42.394;-17.844;-22.314;-47.646;-182.353;-387.356;-224.747
9795.375;-69.365;-56.215;-28.610;-27.381;-63.889;-186.376;-392.646;-232.458
9795.383;-79.311;-57.705;-41.388;-26.859;-62.175;-192.337;-396.669;-242.591
9795.394;-88.029;-55.470;-46.827;-32.745;-57.220;-188.574;-392.422;-241.064
9795.402;-64.299;-34.533;-27.940;-4.470;-47.460;-176.467;-382.364;-226.796
9795.410;-59.083;-41.202;-21.234;-10.952;-45.411;-187.010;-395.514;-232.123
9795.418;-61.393;-40.233;-27.865;-23.730;-48.466;-192.039;-398.457;-237.301
9795.426;-78.566;-45.933;-48.801;-24.773;-66.571;-199.899;-404.157;-245.981
9795.434;-78.902;-56.550;-40.419;-25.891;-57.444;-194.274;-400.171;-236.705
9795.442;-55.730;-42.953;-10.282;-14.789;-38.221;-181.757;-386.499;-229.627
9795.450;-43.325;-22.203;-3.912;9.462;-29.504;-174.604;-378.191;-227.019
9795.458;-63.591;-39.190;-23.097;-10.803;-38.370;-177.361;-385.493;-231.303
9795.466;-58.338;-34.235;-17.472;-10.729;-37.663;-177.585;-390.485;-233.799
9795.474;-38.594;-27.344;-7.488;-2.868;-34.086;-173.710;-387.393;-229.850
9795.482;-33.267;-19.893;-1.006;5.811;-23.991;-169.352;-378.080;-227.392
9795.490;-44.703;-23.283;-1.937;7.637;-24.810;-168.942;-376.999;-223.890
9795.498;-54.613;-24.810;-18.626;2.123;-34.347;-163.317;-370.704;-219.196
9795.506;-55.134;-42.506;-22.314;-16.876;-38.370;-167.340;-376.515;-225.417
9795.514;-43.772;-39.935;-4.172;-10.952;-17.360;-155.717;-367.649;-209.995
9795.522;-43.772;-21.160;-4.843;0.224;-36.620;-168.681;-376.813;-222.214
9795.530;-57.444;-26.934;-16.391;4.135;-45.076;-182.427;-384.040;-232.607
9795.538;-57.481;-35.651;-29.169;0.894;-43.549;-188.686;-387.356;-241.809
9795.546;-27.716;-16.168;-19.185;17.732;-25.630;-173.301;-371.709;-227.317
9795.554;-43.698;-20.899;-4.694;7.935;-24.699;-177.547;-379.905;-228.733
9795.562;-48.429;-35.353;-0.373;-3.055;-24.438;-184.737;-388.026;-233.538
9795.570;-36.582;-25.220;-5.774;6.706;-28.908;-181.161;-384.636;-230.633
9795.578;-34.310;-12.517;-6.333;15.460;-30.361;-174.418;-379.942;-221.059
9795.586;-32.894;-12.293;0.596;11.362;-9.127;-174.418;-380.613;-216.626
9795.594;-44.517;-15.348;-3.055;8.307;-16.689;-181.496;-385.679;-222.959
9795.602;-36.433;-27.753;-6.631;3.986;-27.083;-188.872;-387.765;-236.370
9795.610;-36.135;-35.278;-5.141;3.427;-26.524;-192.225;-393.316;-238.121
9795.618;-46.119;-24.214;-17.658;-4.694;-24.624;-188.909;-388.436;-229.664
9795.626;-41.425;-10.729;-6.668;1.267;-18.291;-182.167;-377.707;-214.726
9795.634;-41.462;-34.943;-5.998;-20.787;-21.420;-196.807;-395.961;-238.046
9795.642;-37.216;-31.851;11.437;-9.350;-17.434;-199.117;-396.743;-246.614
9795.650;-35.577;-27.381;8.233;12.368;-3.166;-195.056;-392.124;-236.519
9795.658;-29.802;-8.717;-6.780;7.302;0.969;-194.646;-393.577;-236.779
9795.666;-29.728;-10.766;-2.272;-1.267;-15.385;-210.889;-409.670;-256.523
9795.674;-35.204;-26.412;5.513;-2.161;-20.303;-208.393;-405.908;-254.661
9795.682;-35.726;-28.946;10.394;-4.061;-7.637;-199.042;-395.365;-248.738
9795.690;-45.858;-32.224;-2.235;-5.104;-14.752;-198.893;-398.718;-245.124
9795.698;-28.126;-19.222;-6.258;0.820;-8.084;-177.100;-379.011;-223.964
9795.706;-34.757;-1.639;-11.288;14.789;-9.723;-171.401;-370.629;-220.761
9795.714;-46.417;-20.042;0.969;1.974;-14.715;-166.409;-364.408;-222.549
9795.722;-60.126;-57.742;-19.781;-26.636;-33.677;-177.212;-375.472;-238.717
9795.730;-38.482;-39.414;-8.531;-9.947;-8.121;-162.683;-362.657;-213.645
9795.738;-26.561;0.745;-6.594;14.082;-0.708;-151.508;-353.158;-202.134
9795.746;-44.890;-18.403;-13.858;-0.410;-21.011;-180.043;-379.160;-234.954
9795.754;-47.833;-31.069;0.075;-18.291;-12.815;-196.248;-391.118;-245.646
9795.762;-31.143;-35.837;9.388;-13.523;-1.974;-184.551;-374.950;-228.547
9795.770;-39.153;-29.430;-0.708;-8.531;-14.193;-193.752;-387.058;-237.972
9795.783;-45.449;-19.781;-15.572;-6.109;-22.389;-197.254;-392.236;-246.093
9795.791;-49.099;-33.453;-21.867;-18.887;-18.328;-195.689;-391.044;-242.069
9795.799;-49.919;-39.153;-16.801;-19.446;-18.403;-186.004;-375.249;-230.707
9795.807;-48.503;-35.837;-18.589;-18.962;-15.721;-173.785;-361.726;-220.574
9795.815;-65.900;-56.550;-24.289;-35.241;-27.530;-178.069;-366.531;-227.951
9795.823;-56.848;-43.064;-22.538;-17.136;-31.218;-169.054;-356.771;-221.729
9795.831;-38.631;-25.667;-7.600;0.000;-4.917;-154.302;-339.486;-200.197
9795.839;-59.530;-42.766;-20.936;-17.062;-18.105;-174.753;-364.371;-219.755
9795.847;-79.423;-59.307;-47.609;-41.872;-41.090;-197.887;-390.224;-248.961
9795.855;-66.534;-41.984;-36.471;-31.590;-30.361;-195.540;-384.822;-243.522
9795.863;-63.665;-53.719;-32.671;-29.244;-21.160;-185.706;-374.988;-233.464
9795.871;-71.824;-75.027;-43.847;-44.517;-24.214;-190.996;-381.619;-235.550
9795.879;-52.974;-47.646;-3.688;-30.100;-1.527;-184.886;-370.964;-223.890
9795.887;-59.977;-31.888;-20.601;-20.973;-25.965;-205.971;-392.646;-244.230
9795.895;-80.168;-57.481;-40.382;-37.402;-32.894;-214.390;-398.979;-254.139
9795.903;-73.723;-72.233;-40.233;-42.543;-26.338;-200.905;-381.842;-240.356
9795.911;-57.183;-46.715;-24.736;-23.916;-20.601;-190.325;-370.964;-229.254
9795.919;-73.276;-60.014;-29.691;-35.018;-26.152;-202.507;-383.556;-241.213
9795.927;-79.982;-62.138;-43.474;-45.598;-31.777;-220.202;-400.729;-260.137
9795.935;-70.222;-50.701;-41.761;-38.184;-26.785;-216.439;-394.657;-256.784
9795.943;-57.593;-52.303;-31.255;-27.157;-26.263;-201.575;-375.174;-243.336
9795.951;-71.116;-65.677;-33.155;-33.453;-33.975;-207.387;-382.811;-248.067
9795.959;-77.076;-54.911;-34.720;-27.530;-28.051;-195.689;-374.988;-237.040
9795.967;-64.932;-54.203;-30.249;-27.306;-19.856;-183.135;-362.918;-228.509
9795.979;-74.208;-71.414;-42.357;-53.719;-31.926;-201.836;-383.481;-240.766
9795.987;-96.373;-89.817;-66.049;-61.430;-45.262;-207.834;-391.975;-244.416
9795.995;-88.513;-70.781;-61.616;-37.402;-32.261;-191.592;-374.913;-223.480
9796.003;-53.570;-30.547;-11.399;-21.942;-26.301;-186.861;-369.400;-218.228
9796.011;-56.550;-51.558;-17.099;-27.306;-15.944;-184.998;-365.749;-220.351
9796.019;-69.514;-63.553;-28.647;-33.006;-11.101;-185.296;-363.924;-221.059
9796.027;-68.694;-56.736;-38.780;-33.379;-29.393;-179.596;-355.318;-222.996
9796.035;-61.020;-51.782;-32.857;-33.937;-35.278;-184.067;-358.820;-227.429
9796.043;-57.928;-49.174;-17.583;-29.914;-25.593;-187.606;-362.732;-226.758
9796.051;-49.323;-38.184;-14.529;-15.572;-14.044;-172.257;-343.285;-216.588
9796.059;-49.770;-28.983;-31.851;-6.855;-4.433;-168.085;-337.064;-214.726
9796.067;-44.033;-27.195;-11.809;-1.863;-17.285;-170.656;-338.219;-218.377
9796.075;-39.563;-27.940;-6.743;-5.886;-20.601;-174.344;-345.856;-212.528
9796.083;-56.550;-39.227;-24.103;-16.466;-31.181;-178.516;-353.716;-214.800
9796.091;-65.491;-51.185;-42.282;-20.675;-38.184;-182.129;-356.697;-226.088
9796.099;-56.699;-41.015;-31.926;-15.609;-24.252;-182.763;-356.697;-221.804
9796.107;-60.052;-55.432;-22.613;-26.487;-25.518;-185.482;-357.144;-223.108
9796.115;-68.434;-52.787;-25.816;-34.533;-36.322;-194.088;-368.394;-229.888
9796.123;-69.626;-68.173;-49.062;-40.755;-43.958;-193.417;-366.867;-230.744
9796.131;-81.137;-69.477;-57.295;-48.652;-58.971;-198.260;-369.698;-234.246
9796.139;-69.179;-62.697;-31.255;-35.651;-49.770;-191.331;-365.563;-221.506
9796.147;-39.637;-35.949;-1.453;-10.096;-5.327;-162.013;-339.821;-192.635
9796.155;-29.653;-30.920;6.817;-8.792;4.545;-157.245;-331.439;-191.703
9796.163;-43.511;-31.218;-11.884;-11.399;-11.623;-161.268;-330.135;-191.852
9796.172;-47.497;-39.227;-23.171;-11.995;-27.567;-170.320;-334.717;-206.456
9796.180;-38.482;-30.920;-14.678;-6.594;-38.110;-175.126;-343.211;-208.505
9796.188;-22.128;-9.350;0.112;1.267;-15.423;-161.268;-326.559;-200.868
9796.196;-24.252;-17.583;5.215;3.353;-6.407;-165.179;-329.912;-211.298
9796.204;-24.289;-8.605;-5.849;17.174;-4.396;-166.222;-331.216;-215.583
9796.212;-8.643;-8.531;6.147;17.919;5.886;-165.775;-330.433;-216.924
9796.220;6.407;3.576;30.138;29.281;7.376;-154.190;-318.922;-200.048
9796.228;9.723;22.277;31.628;34.161;9.462;-148.453;-317.432;-191.033
9796.236;10.617;17.434;16.838;32.745;15.572;-145.920;-318.438;-183.769
9796.244;4.172;9.462;33.639;32.745;23.358;-141.971;-311.881;-179.112
9796.252;6.631;-0.298;30.510;23.358;18.887;-139.624;-303.499;-186.674
9796.260;10.915;11.884;29.653;23.209;14.044;-146.255;-307.113;-193.343
9796.268;0.000;17.136;18.440;28.163;12.182;-151.284;-310.913;-194.870
9796.276;-0.596;4.321;14.491;27.232;7.004;-150.502;-312.738;-192.672
9796.284;3.465;5.066;27.902;30.026;17.919;-144.131;-307.597;-182.018
9796.292;14.678;2.719;31.181;25.146;23.171;-139.214;-299.253;-176.318
9796.300;-17.211;-13.150;0.522;7.637;-2.459;-168.979;-330.396;-211.298
9796.308;-14.901;3.017;5.513;24.997;1.863;-152.290;-313.669;-195.727
9796.316;5.104;4.470;12.964;23.395;0.894;-140.145;-300.184;-184.961
9796.324;6.258;-2.012;21.867;25.742;8.829;-139.810;-299.253;-187.829
9796.332;-7.488;-4.992;17.621;23.358;20.862;-136.793;-300.296;-180.565
9796.340;-19.372;-24.401;0.075;3.688;4.731;-144.243;-308.491;-185.668
9796.348;-14.603;-13.672;-5.439;12.740;-0.224;-143.982;-307.225;-188.053
9796.356;-15.497;-6.966;1.751;2.682;0.335;-151.992;-315.681;-191.294
9796.367;-15.721;-23.693;3.688;0.931;-2.682;-148.304;-309.050;-181.273
9796.375;-28.238;-34.124;-4.284;-13.188;-9.201;-156.388;-312.477;-188.649
9796.383;-46.194;-44.107;-17.434;-16.987;-18.515;-169.054;-325.106;-202.321
9796.391;-37.476;-41.425;-23.060;-12.517;-20.228;-158.809;-313.632;-201.501
9796.399;-51.595;-60.424;-29.802;-36.806;-23.581;-160.970;-317.320;-203.922
9796.407;-64.187;-66.757;-39.972;-42.394;-31.553;-157.058;-315.532;-198.595
9796.415;-57.034;-53.197;-31.181;-33.006;-33.565;-148.304;-309.162;-189.729
9796.423;-43.139;-47.795;-23.730;-22.911;-20.973;-142.567;-307.560;-178.702
9796.431;-41.947;-52.974;-16.354;-22.501;-20.303;-136.718;-300.668;-178.404
9796.439;-49.509;-49.844;-24.587;-27.679;-30.585;-144.467;-305.809;-184.290
9796.447;-71.153;-77.263;-41.723;-48.690;-43.698;-141.710;-301.711;-174.232
9796.455;-55.991;-75.623;-27.008;-46.827;-22.836;-146.218;-304.505;-184.476
9796.463;-54.464;-66.683;-32.559;-54.538;-19.260;-159.070;-318.103;-194.386
9796.471;-57.258;-73.165;-26.859;-57.854;-7.190;-154.823;-311.472;-190.139
9796.479;-36.545;-56.475;-14.305;-48.429;3.465;-152.737;-309.125;-188.909
9796.487;-40.643;-50.291;-21.607;-42.431;-1.192;-151.061;-308.007;-183.694
9796.495;-46.641;-71.637;-17.211;-58.338;-14.938;-155.084;-313.409;-192.747
9796.503;-48.503;-66.534;-38.855;-69.402;-24.997;-157.058;-316.761;-194.162
9796.511;-50.738;-55.358;-31.553;-57.369;-6.631;-140.332;-294.894;-182.390
9796.519;-42.394;-56.475;-13.150;-43.958;9.723;-130.720;-284.351;-173.599
9796.527;-54.128;-67.465;-26.450;-57.369;-1.825;-128.336;-285.953;-169.054
9796.535;-52.527;-70.930;-32.783;-65.081;-12.554;-126.436;-286.922;-166.744
9796.543;-49.658;-70.557;-28.014;-69.737;-15.460;-128.858;-287.220;-164.770
9796.551;-62.920;-78.008;-34.235;-67.502;-14.827;-133.999;-289.008;-172.369
9796.547;-66.236;-81.621;-41.686;-65.044;-8.456;-140.630;-289.641;-182.353
9796.555;-69.663;-75.549;-59.083;-71.228;-17.323;-146.851;-294.484;-187.792
9796.563;-67.279;-85.980;-45.560;-81.658;-31.441;-154.451;-298.284;-190.064
9796.571;-64.671;-80.466;-43.958;-73.761;-31.851;-155.605;-301.860;-186.004
9796.579;-50.962;-62.212;-23.805;-51.484;-10.282;-137.351;-283.010;-169.538
9796.587;-53.942;-68.471;-33.267;-58.636;-11.176;-143.945;-290.908;-174.493
9796.595;-72.159;-94.548;-52.527;-73.612;-24.140;-146.404;-294.670;-185.221
9796.603;-64.746;-70.222;-54.613;-63.293;-21.122;-141.524;-289.269;-184.141
9796.611;-50.962;-52.862;-44.033;-60.424;-17.025;-132.620;-281.036;-170.358
9796.619;-46.678;-65.118;-28.536;-58.524;-6.035;-118.613;-267.513;-157.617
9796.627;-45.896;-59.232;-23.544;-47.833;0.857;-102.110;-247.546;-136.644
9796.635;-46.454;-62.473;-20.936;-63.516;-3.688;-115.000;-257.082;-155.084
9796.643;-52.340;-71.526;-38.557;-65.155;-14.603;-135.265;-276.119;-184.886
9796.651;-50.589;-70.632;-45.560;-63.926;-9.798;-130.087;-269.637;-173.599
9796.659;-43.772;-56.028;-22.985;-60.238;-8.196;-123.493;-262.074;-162.646
9796.667;-35.316;-47.646;-11.474;-50.515;4.470;-110.194;-248.216;-141.002
9796.675;-44.219;-58.673;-21.569;-62.883;-7.637;-127.405;-267.364;-166.148
9796.683;-34.869;-53.421;-27.344;-52.229;-3.539;-126.101;-264.086;-170.954
9796.691;-39.302;-43.064;-41.053;-47.870;1.341;-121.482;-256.225;-164.844
9796.699;-46.976;-59.307;-32.969;-53.458;-6.557;-117.160;-254.326;-160.150
9796.707;-27.418;-48.913;-8.717;-41.462;-4.284;-111.423;-248.998;-155.084
9796.715;-17.956;-42.431;-8.754;-42.096;-4.768;-117.347;-253.543;-158.213
9796.723;-28.759;-37.476;-17.956;-45.896;-5.215;-121.035;-254.028;-161.119
9796.731;-47.646;-53.011;-38.184;-49.882;-11.176;-131.875;-263.974;-165.924
9796.756;-46.156;-58.562;-43.325;-54.874;-12.144;-140.704;-269.413;-178.255
9796.764;-28.163;-41.127;-15.981;-44.107;3.092;-132.322;-264.570;-167.005
9796.772;-19.409;-41.723;-7.004;-44.852;-1.304;-120.513;-255.816;-152.886
9796.780;-40.382;-50.813;-30.510;-50.515;-9.984;-131.167;-266.284;-165.701
9796.788;-56.177;-62.287;-48.243;-54.650;-27.455;-137.053;-270.195;-169.016
9796.796;-53.570;-69.812;-34.608;-65.342;-13.001;-121.556;-252.575;-156.425
9796.804;-53.532;-71.488;-38.967;-63.404;-13.523;-127.517;-258.610;-160.895
9796.812;-42.245;-61.765;-29.765;-52.601;-7.637;-124.872;-256.225;-153.407
9796.820;-51.036;-72.382;-31.590;-67.577;-13.076;-138.171;-271.872;-165.142
9796.828;-54.799;-65.193;-39.712;-68.583;-20.079;-140.816;-273.138;-168.122
9796.836;-50.440;-63.628;-42.096;-59.381;-22.948;-136.718;-268.705;-166.632
9796.844;-49.323;-61.691;-41.761;-60.163;-9.164;-139.438;-270.717;-167.787
9796.852;-50.068;-70.482;-40.382;-55.768;-7.898;-128.075;-259.280;-152.700
9796.860;-45.523;-62.250;-42.580;-50.962;-21.569;-127.554;-260.174;-148.080
9796.868;-33.900;-48.429;-20.973;-46.939;-8.047;-121.370;-254.586;-139.587
9796.876;-39.414;-49.137;-16.913;-46.119;-11.548;-119.545;-250.749;-145.435
9796.884;-45.747;-56.550;-27.567;-52.117;-15.609;-131.391;-262.819;-158.325
9796.892;-41.686;-60.610;-36.769;-56.587;-20.489;-129.901;-260.621;-157.692
9796.900;-39.823;-55.619;-26.263;-40.308;-15.013;-126.548;-257.157;-155.419
9796.908;-31.702;-37.812;-30.771;-34.198;-15.721;-131.018;-260.547;-156.909
9796.916;-38.482;-50.142;-29.728;-43.772;-28.610;-127.144;-252.053;-154.898
9796.924;-54.650;-68.769;-44.629;-55.656;-29.318;-134.483;-254.922;-161.342
9796.932;-33.863;-56.103;-22.203;-47.944;-19.334;-119.507;-243.857;-146.888
9796.940;-16.801;-29.467;-15.087;-23.991;-17.285;-109.896;-235.960;-138.655
9796.951;-35.912;-41.537;-23.283;-30.585;-25.108;-120.401;-244.863;-145.882
9796.959;-37.253;-50.999;-20.452;-49.621;-23.022;-130.609;-254.065;-159.182
9796.967;-35.167;-48.801;-28.163;-52.303;-29.802;-133.924;-256.225;-159.964
9796.975;-27.157;-45.039;-20.675;-40.531;-15.013;-121.221;-245.720;-145.026
9796.983;-35.837;-59.307;-26.375;-47.833;-27.977;-134.706;-258.200;-163.950
9796.991;-31.590;-47.348;-19.036;-33.565;-18.775;-127.368;-247.322;-157.766
9796.999;-24.997;-32.932;-9.127;-35.353;-12.740;-117.570;-234.917;-146.516
9797.007;-25.034;-37.141;-14.193;-38.967;-19.260;-118.315;-234.321;-145.957
9797.015;-38.221;-49.360;-29.653;-38.072;-35.353;-122.525;-241.287;-148.229
9797.023;-39.302;-47.944;-42.059;-41.276;-36.098;-119.880;-244.193;-144.802
9797.031;-32.298;-51.744;-38.706;-44.294;-37.104;-111.163;-235.289;-134.706
9797.039;-19.483;-41.239;-4.806;-36.694;-15.348;-105.537;-226.386;-130.199
9797.047;-26.338;-45.039;-4.359;-35.055;-20.824;-114.813;-239.462;-139.959
9797.055;-38.072;-48.913;-19.297;-32.857;-32.447;-115.335;-241.287;-139.959
9797.063;-21.867;-32.559;-19.185;-24.289;-24.475;-104.532;-227.131;-129.566
9797.071;-18.217;-34.533;-20.862;-21.011;-22.948;-101.328;-220.798;-123.233
9797.079;-22.836;-30.287;-19.632;-29.840;-22.389;-104.047;-218.228;-132.434
9797.087;-48.168;-55.172;-44.145;-58.822;-45.262;-133.514;-248.887;-162.795
9797.095;-50.366;-68.992;-38.482;-58.897;-47.721;-128.336;-247.322;-155.047
9797.103;-43.884;-65.155;-30.138;-47.982;-42.655;-121.631;-239.499;-148.043
9797.111;-37.774;-53.607;-29.579;-42.059;-38.408;-122.190;-240.505;-144.579
9797.119;-34.831;-51.819;-29.579;-40.345;-31.255;-110.678;-228.100;-137.128
9797.127;-41.872;-55.470;-27.679;-48.205;-35.241;-116.006;-233.352;-143.424
9797.135;-36.322;-42.357;-34.980;-34.235;-31.851;-106.357;-225.864;-129.081
9797.116;-23.842;-42.282;-18.887;-36.098;-23.283;-102.185;-219.904;-129.491
9797.124;-32.261;-52.080;-23.544;-44.852;-35.986;-110.865;-227.988;-145.026
9797.132;-36.880;-59.232;-27.791;-37.067;-37.365;-100.546;-220.090;-132.695
9797.140;-41.984;-55.805;-37.141;-45.300;-33.639;-111.088;-232.980;-138.693
9797.148;-40.345;-39.600;-36.061;-43.251;-33.751;-110.604;-230.782;-135.377
9797.156;-42.394;-61.728;-39.004;-50.142;-31.777;-118.054;-232.458;-145.584
9797.164;-50.105;-80.280;-35.502;-63.330;-41.984;-131.242;-242.703;-156.872
9797.172;-44.815;-49.695;-36.247;-47.237;-49.248;-120.290;-231.043;-143.684
9797.180;-37.514;-45.151;-35.129;-40.084;-36.918;-112.094;-222.474;-140.406
9797.188;-46.268;-56.252;-27.753;-50.478;-23.730;-108.816;-218.302;-143.610
9797.196;-23.283;-46.641;-18.962;-37.774;-19.148;-103.153;-210.255;-138.879
9797.204;-22.948;-53.607;-11.735;-38.110;-15.832;-99.614;-207.871;-127.070
9797.212;-55.730;-71.190;-50.254;-61.132;-48.839;-113.770;-226.870;-136.755
9797.220;-46.827;-56.513;-46.939;-42.357;-51.893;-120.774;-236.593;-142.604
9797.228;-39.078;-50.738;-29.989;-33.118;-41.202;-99.614;-211.187;-124.797
9797.236;-28.163;-38.818;-11.101;-20.824;-28.536;-91.866;-197.329;-123.307
9797.244;-14.789;-32.187;-19.819;-23.693;-37.588;-105.910;-205.822;-140.965
9797.252;-14.491;-20.191;-23.209;-12.517;-29.579;-102.408;-201.203;-138.246
9797.260;-21.458;-29.616;-17.174;-16.131;-32.969;-102.334;-205.897;-132.658
9797.268;-48.876;-56.624;-29.691;-37.923;-54.240;-106.804;-212.863;-136.159
9797.276;-49.919;-59.120;-39.153;-41.015;-46.715;-99.950;-202.954;-133.365
9797.284;-32.298;-49.770;-33.043;-37.290;-43.251;-106.543;-208.057;-138.916
9797.292;-18.030;-41.090;-24.959;-24.214;-31.292;-97.305;-196.025;-127.144
9797.300;-29.765;-31.441;-34.943;-24.214;-42.319;-98.646;-197.366;-127.740
9797.314;-41.462;-44.741;-26.226;-28.610;-44.107;-93.021;-192.262;-126.362
9797.322;-47.982;-56.513;-33.639;-38.110;-46.007;-97.454;-198.670;-129.268
9797.330;-40.866;-57.183;-42.170;-52.564;-37.923;-110.269;-215.769;-135.377
9797.338;-30.920;-48.243;-25.406;-40.010;-42.468;-104.494;-207.201;-129.081
9797.346;-32.783;-34.347;-26.710;-28.424;-40.270;-101.849;-201.911;-124.723
9797.354;-56.140;-59.381;-51.633;-39.823;-62.622;-108.443;-209.622;-133.030
9797.362;-40.457;-57.258;-38.408;-40.457;-52.340;-102.744;-204.667;-128.560
9797.370;-18.924;-27.642;-13.858;-23.060;-17.509;-87.209;-187.829;-111.312
9797.378;-14.752;-25.667;-6.221;-16.317;-11.213;-74.394;-173.822;-100.173
9797.386;-36.433;-32.820;-46.715;-30.138;-41.761;-93.766;-195.652;-119.768
9797.394;-46.603;-49.919;-48.913;-39.339;-54.725;-91.009;-194.944;-119.209
9797.402;-41.761;-54.352;-33.937;-39.674;-46.678;-82.292;-185.259;-112.243
9797.410;-25.555;-55.172;-12.219;-42.692;-26.003;-73.351;-173.114;-98.906
9797.418;-32.000;-33.826;-20.489;-32.112;-28.349;-79.200;-174.083;-110.567
9797.426;-30.324;-24.252;-30.361;-22.501;-38.929;-88.513;-184.178;-119.582
9797.434;-42.021;-46.454;-55.470;-37.886;-57.034;-82.143;-182.278;-110.529
9797.442;-27.679;-37.253;-21.271;-34.608;-23.767;-79.945;-179.932;-107.139
9797.450;-10.133;-22.575;-1.453;-24.252;-0.894;-83.297;-178.926;-110.902
9797.458;-3.800;-22.203;-6.109;-25.928;-3.688;-64.075;-156.052;-93.356
9797.466;-17.136;-33.528;-19.260;-34.161;-10.319;-67.204;-159.405;-99.130
9797.474;-24.475;-32.261;-23.842;-45.300;-21.569;-65.975;-158.735;-98.608
9797.482;-16.168;-33.006;-17.062;-39.600;-3.278;-61.244;-153.743;-93.430
9797.490;-18.254;-41.127;-25.071;-49.137;-23.544;-82.701;-178.516;-111.870
9797.498;-27.530;-41.723;-20.005;-49.621;-23.097;-74.878;-172.667;-101.738
9797.507;-47.870;-51.446;-32.745;-54.389;-32.634;-67.353;-163.019;-93.803
9797.515;-40.457;-40.494;-45.486;-51.893;-28.647;-69.588;-160.187;-103.712
9797.523;-7.749;-29.132;-15.609;-36.731;-4.657;-69.365;-158.735;-102.967
9797.531;-20.042;-37.625;-12.182;-36.396;-12.144;-71.526;-159.666;-102.222
9797.539;-27.083;-44.405;-27.865;-34.086;-16.913;-62.622;-151.470;-91.977
9797.547;-21.160;-14.231;-25.705;-33.602;-12.852;-67.987;-156.835;-94.548
9797.555;-35.875;-27.455;-32.298;-43.437;-24.848;-81.137;-170.022;-108.927
9797.563;-25.965;-39.525;-22.054;-38.743;-14.342;-76.182;-164.397;-104.383
9797.571;-35.428;-50.031;-32.298;-50.664;-27.828;-76.890;-164.285;-102.371
9797.579;-49.546;-62.585;-48.466;-57.481;-44.815;-76.853;-162.944;-105.985
9797.587;-28.983;-31.702;-32.037;-31.888;-29.914;-61.728;-145.137;-91.456
9797.595;-25.332;-26.748;-28.871;-42.245;-16.503;-58.971;-144.579;-87.097
9797.603;-38.780;-46.305;-31.330;-53.011;-23.805;-78.827;-165.515;-106.655
9797.611;-37.961;-48.131;-27.306;-48.131;-13.560;-81.323;-168.048;-112.019
9797.619;-35.688;-50.627;-36.471;-51.744;-23.246;-72.643;-159.927;-102.855
9797.627;-40.755;-45.784;-46.901;-52.713;-34.124;-72.494;-157.356;-96.783
9797.635;-50.254;-56.215;-38.594;-63.963;-45.523;-77.486;-164.770;-98.720
9797.643;-37.849;-41.835;-35.465;-41.723;-38.967;-74.841;-163.168;-98.236
9797.651;-32.820;-27.828;-25.406;-23.358;-9.313;-63.665;-151.955;-85.123
9797.659;-25.816;-43.958;-25.965;-36.694;-6.072;-61.579;-148.416;-81.286
9797.667;-39.749;-52.303;-47.907;-51.707;-31.814;-81.919;-163.689;-103.787
9797.675;-43.325;-42.394;-31.516;-39.749;-33.826;-75.996;-155.307;-98.683
9797.683;-24.438;-32.112;-8.494;-34.235;-17.695;-69.290;-150.651;-92.685
9797.691;-30.287;-34.496;-23.842;-35.763;-23.991;-73.798;-158.921;-95.107
9797.701;-30.994;-32.932;-23.991;-29.504;-21.495;-66.534;-148.192;-88.997
9797.709;-31.963;-35.539;-32.373;-32.000;-23.469;-67.577;-147.037;-87.842
9797.717;-32.783;-45.300;-37.663;-42.208;-33.639;-66.794;-144.094;-87.805
9797.725;-37.514;-49.733;-32.634;-48.466;-40.419;-72.457;-149.347;-97.789
9797.733;-41.202;-46.603;-41.276;-40.643;-36.620;-66.087;-145.733;-86.911
9797.741;-34.869;-47.758;-25.928;-33.863;-34.533;-66.943;-147.671;-84.266
9797.749;-21.644;-27.195;-14.007;-23.805;-27.679;-67.353;-150.353;-81.621
9797.757;-48.243;-40.419;-46.641;-38.184;-51.670;-79.609;-162.646;-95.740
9797.765;-40.382;-42.431;-31.143;-42.431;-38.221;-73.090;-155.009;-92.015
9797.773;-41.202;-52.676;-37.812;-47.088;-40.457;-73.090;-152.029;-94.250
9797.781;-40.568;-59.009;-44.741;-43.139;-46.529;-75.065;-154.339;-93.468
9797.789;-20.340;-36.471;-8.829;-23.730;-21.905;-60.946;-140.183;-75.549
9797.797;-20.899;-28.498;-11.511;-25.183;-19.036;-63.553;-146.478;-77.561
9797.805;-41.835;-43.660;-42.915;-38.296;-44.480;-78.008;-162.870;-96.485
9797.813;-49.174;-50.738;-41.723;-46.827;-49.546;-75.661;-159.629;-92.089
9797.821;-32.634;-45.188;-24.438;-42.655;-43.213;-59.344;-137.426;-76.294
9797.829;-13.709;-34.161;-16.689;-20.042;-29.616;-43.586;-114.031;-62.361
9797.837;-11.325;-25.742;-15.199;-17.807;-29.132;-47.162;-121.556;-61.803
9797.845;-20.005;-18.924;-10.878;-16.540;-24.661;-57.630;-137.724;-74.618
9797.853;-28.834;-38.520;-14.156;-26.748;-24.140;-61.356;-145.547;-80.541
9797.861;-25.593;-35.092;-23.581;-26.710;-34.198;-60.424;-142.381;-81.286
9797.869;-40.382;-54.836;-49.397;-44.443;-57.295;-86.240;-162.125;-101.924
9797.877;-61.058;-78.715;-70.855;-61.616;-78.566;-98.906;-176.579;-112.094
9797.885;-59.903;-66.422;-57.220;-64.634;-67.689;-97.826;-175.312;-115.968
9797.912;-53.234;-61.169;-37.551;-57.779;-65.938;-90.525;-165.254;-106.469
9797.920;-52.527;-54.948;-42.804;-43.884;-60.014;-85.793;-158.586;-99.353
9797.928;-58.673;-79.386;-52.638;-60.946;-62.324;-102.185;-179.969;-116.937
9797.936;-57.518;-79.162;-70.035;-65.640;-71.675;-102.967;-180.937;-117.049
9797.944;-65.565;-76.517;-70.296;-74.692;-79.833;-108.965;-179.484;-128.485
9797.952;-58.785;-61.803;-57.109;-62.063;-67.800;-102.744;-168.383;-126.474
9797.960;-56.811;-59.269;-53.421;-51.595;-77.374;-95.814;-162.423;-117.719
9797.968;-49.137;-55.358;-45.523;-38.557;-55.544;-82.143;-147.112;-99.801
9797.976;-49.360;-63.889;-52.974;-49.621;-59.493;-83.148;-148.080;-104.196
9797.984;-50.813;-68.210;-47.162;-56.140;-54.613;-81.137;-147.559;-103.861
9797.992;-57.779;-60.871;-54.352;-63.404;-66.981;-87.507;-158.437;-107.139
9798.000;-64.857;-68.061;-64.038;-55.693;-66.608;-92.983;-164.732;-111.535
9798.008;-56.326;-71.265;-48.727;-46.939;-61.393;-94.064;-164.919;-108.257
9798.016;-48.727;-57.667;-56.401;-48.988;-69.290;-90.562;-159.405;-101.812
9798.024;-54.166;-70.669;-60.238;-58.524;-64.485;-89.407;-156.127;-100.769
9798.032;-59.977;-69.477;-60.424;-64.038;-61.616;-90.115;-155.084;-105.351
9798.040;-50.999;-43.027;-37.067;-44.890;-50.329;-83.335;-143.908;-95.442
9798.048;-40.643;-44.405;-29.132;-32.336;-37.402;-85.682;-145.361;-97.342
9798.056;-49.621;-68.918;-53.011;-45.374;-66.161;-94.511;-154.749;-111.200
9798.064;-36.135;-51.372;-45.784;-38.333;-46.790;-89.444;-149.421;-106.953
9798.072;-35.204;-42.692;-28.796;-42.133;-37.327;-72.867;-133.924;-87.172
9798.080;-4.545;-23.432;-5.141;-17.323;-16.242;-42.506;-105.016;-57.369
9798.088;3.912;5.290;-13.299;13.709;-4.657;-28.983;-90.897;-44.666
9798.096;3.912;10.058;7.786;15.534;-4.768;-26.412;-86.352;-41.723
9798.093;13.337;1.080;24.661;7.637;12.815;-26.710;-85.421;-41.015
9798.101;6.221;-5.402;11.027;1.714;8.754;-29.057;-85.831;-42.841
9798.109;4.582;-12.144;2.645;-8.680;-6.817;-34.533;-92.015;-51.446
9798.117;13.486;-3.129;13.150;4.880;-1.937;-30.249;-88.289;-48.280
9798.125;8.233;4.098;0.224;7.674;-3.129;-18.552;-78.045;-34.682
9798.133;8.531;5.215;7.898;12.554;3.539;-12.740;-71.377;-28.461
9798.141;3.502;1.267;7.674;5.290;5.998;-27.381;-87.470;-44.331
9798.149;10.356;1.341;11.884;5.960;6.631;-23.097;-81.360;-44.294
9798.157;4.768;-11.064;4.694;0.484;-0.633;-25.816;-81.174;-48.615
9798.165;-9.984;-7.339;-8.419;-9.239;-10.617;-29.542;-84.341;-48.615
9798.173;4.210;-2.533;6.519;-1.080;-1.267;-25.108;-81.398;-41.239
9798.181;4.880;-10.617;4.917;-2.272;-2.161;-30.808;-87.135;-44.554
9798.189;-5.253;-20.638;-9.574;-8.456;-5.439;-36.769;-91.232;-53.979
9798.197;-14.603;-13.709;-7.302;-8.009;-6.557;-46.492;-100.695;-61.169
9798.205;4.061;3.502;3.465;-3.502;-2.906;-46.417;-102.073;-54.613
9798.213;10.207;-2.980;4.061;-4.955;4.023;-41.611;-96.820;-50.031
9798.221;6.519;-2.719;11.213;-10.841;11.213;-31.516;-86.501;-39.749
9798.229;2.198;-4.359;4.172;-0.037;2.943;-19.781;-74.506;-34.124
9798.237;2.757;3.651;1.676;6.184;1.490;-21.048;-79.237;-37.961
9798.245;0.522;6.855;19.036;0.820;5.290;-25.220;-82.217;-46.790
9798.253;4.210;-15.236;0.224;-11.921;-11.697;-34.459;-89.183;-54.464
9798.261;1.043;-12.703;-21.420;-12.927;-12.144;-39.414;-94.958;-53.979
9798.269;6.482;-12.740;-0.484;-13.299;1.714;-33.975;-90.487;-45.821
9798.277;5.439;-5.290;21.122;-10.058;21.197;-33.900;-90.972;-42.617
9798.286;3.502;4.396;27.940;-1.974;19.446;-29.802;-86.799;-38.818
9798.294;-6.407;-10.468;-6.929;-12.144;-9.350;-44.964;-102.520;-54.017
9798.302;-13.374;-22.016;-26.710;-23.060;-14.752;-48.690;-104.830;-59.120
9798.310;3.986;-2.310;-2.719;-9.686;-3.278;-33.714;-88.066;-51.744
9798.318;6.482;2.310;8.792;1.118;8.531;-30.249;-84.788;-48.429
9798.326;-3.390;-14.156;-7.972;-19.595;-2.421;-34.831;-90.711;-49.435
9798.334;-8.680;-15.311;-0.708;-23.097;-12.852;-38.333;-91.381;-52.229
9798.342;-21.197;-31.330;-17.248;-28.573;-22.762;-52.638;-103.340;-68.545
9798.350;-26.599;-24.326;-28.349;-20.079;-9.462;-46.566;-96.224;-60.946
9798.358;-7.451;-11.474;6.221;-18.403;5.849;-30.361;-81.509;-44.294
9798.366;10.207;-0.335;19.148;-16.429;13.858;-15.944;-69.439;-32.112
9798.374;3.725;-3.278;-0.931;-7.227;7.078;-17.583;-72.792;-34.422
9798.382;2.794;-2.086;-8.419;6.780;4.619;-8.494;-63.702;-25.555
9798.390;14.193;1.863;10.282;4.396;21.420;-4.880;-56.960;-20.377
9798.398;3.278;-0.335;20.973;-15.497;11.325;-25.779;-79.162;-42.990
9798.406;-9.164;-0.931;7.339;-15.497;0.410;-24.103;-78.157;-41.723
9798.414;-8.270;-13.560;-10.766;-26.152;-7.749;-25.034;-78.157;-39.339
9798.422;-4.880;-12.293;-7.376;-23.693;-5.886;-20.117;-75.363;-29.877
9798.430;4.694;-5.178;1.825;-4.843;12.629;-6.221;-63.367;-13.635
9798.438;-4.247;-18.366;4.955;-10.282;13.560;-20.266;-75.474;-33.565
9798.446;-9.872;-10.356;-0.969;-29.504;5.476;-37.402;-89.556;-59.195
9798.454;-11.846;-3.614;-5.886;-25.630;1.676;-32.932;-81.398;-54.911
9798.462;-7.749;-15.125;-1.974;-33.863;3.092;-28.946;-75.437;-43.996
9798.470;-17.397;-25.779;-13.746;-29.877;2.272;-33.230;-79.833;-46.752
9798.468;-30.696;-32.000;-24.177;-14.827;10.058;-27.902;-75.102;-42.357
9798.476;-5.215;-7.339;9.350;-5.513;23.842;-23.767;-69.290;-40.680
9798.484;24.326;32.149;49.919;12.256;58.711;-25.593;-69.477;-43.064
9798.492;70.818;88.811;97.677;52.340;93.728;-27.455;-73.984;-44.405
9798.500;159.852;191.778;192.299;105.910;170.469;-14.566;-57.518;-34.384
9798.508;225.119;277.273;267.588;156.015;228.509;4.955;-38.445;-11.288
9798.516;267.401;317.730;312.030;179.484;261.925;5.774;-41.984;-8.456
9798.524;305.064;343.919;351.667;191.070;300.892;-12.852;-59.754;-25.257
9798.532;332.482;380.352;393.763;225.566;327.826;-7.227;-49.807;-18.105
9798.540;327.639;386.722;405.088;226.125;328.943;-4.731;-46.343;-19.521
9798.548;298.917;368.915;354.126;209.957;283.085;-26.450;-69.588;-37.327
9798.556;269.040;329.874;313.669;175.238;256.673;-32.932;-73.612;-42.096
9798.564;258.423;292.286;297.427;168.048;237.562;-7.898;-47.050;-16.093
9798.572;224.113;249.892;253.506;153.594;195.168;-1.267;-39.823;-17.174
9798.580;177.957;207.052;206.791;119.992;151.023;-5.029;-45.747;-29.169
9798.588;137.202;155.680;161.827;88.923;112.280;-14.268;-55.805;-31.851
9798.596;123.382;140.257;136.532;70.110;89.556;-14.454;-55.805;-26.673
9798.604;111.200;115.596;111.088;57.220;74.059;-24.624;-66.906;-33.565
9798.612;77.523;98.646;81.100;52.005;54.762;-29.653;-71.190;-35.278
9798.620;73.463;91.195;77.635;50.478;53.085;-15.460;-54.874;-23.842
9798.628;59.418;61.095;61.765;29.802;35.986;-25.891;-65.230;-40.457
9798.636;46.194;34.533;52.080;11.958;19.334;-30.212;-72.345;-43.325
9798.644;41.351;32.298;50.403;15.385;16.168;-27.455;-67.130;-40.717
9798.652;42.468;57.034;39.116;27.418;20.564;-27.120;-66.906;-39.935
9798.660;37.663;43.698;30.622;22.054;21.271;-22.538;-66.794;-36.508
9798.668;23.693;15.087;11.437;0.075;2.719;-33.602;-82.962;-42.729
9798.676;6.072;-1.416;-6.519;-12.219;-17.509;-40.457;-88.848;-45.821
9798.684;8.866;1.751;13.672;-1.192;-10.468;-43.027;-84.974;-48.913
9798.695;1.080;1.229;1.937;-12.182;-28.014;-49.546;-90.264;-50.217
9798.703;-9.574;-8.792;-12.703;-13.672;-38.147;-50.664;-90.301;-52.266
9798.711;-1.602;-17.211;-18.030;-14.044;-23.507;-48.093;-88.178;-52.303
9798.719;5.439;-4.061;-7.786;-9.052;-14.640;-30.808;-72.382;-43.884
9798.727;-7.302;-13.076;-21.383;-23.395;-33.304;-44.592;-87.023;-61.356
9798.735;-20.452;-23.209;-29.765;-14.342;-40.941;-48.652;-89.891;-62.212
9798.743;4.135;-10.207;-6.221;2.980;-21.532;-27.232;-67.763;-38.743
9798.751;-9.686;-21.793;-13.821;-16.838;-35.316;-37.961;-80.168;-46.305
9798.759;-21.979;-27.828;-30.026;-27.195;-38.259;-38.855;-83.186;-46.305
9798.767;-15.534;-27.865;-38.520;-26.822;-33.490;-38.408;-81.286;-49.286
9798.775;-30.734;-30.249;-44.405;-31.888;-39.749;-37.700;-78.008;-50.776
9798.783;-15.013;-26.561;-15.534;-18.515;-32.261;-20.191;-58.524;-34.869
9798.791;-17.546;-33.379;-19.036;-28.126;-35.316;-28.312;-66.757;-43.102
9798.799;-24.624;-41.500;-26.524;-27.940;-38.780;-28.796;-68.285;-41.835
9798.807;-19.036;-35.353;-39.116;-19.073;-35.949;-29.169;-68.955;-39.972
9798.815;-32.000;-31.702;-50.254;-23.879;-43.921;-42.655;-82.590;-53.234
9798.823;-28.498;-42.021;-47.050;-37.774;-46.529;-46.603;-83.819;-60.126
9798.831;-25.369;-48.913;-28.014;-36.135;-43.847;-40.941;-74.990;-51.856
9798.839;-23.209;-36.322;-28.126;-23.581;-41.313;-34.720;-67.912;-43.027
9798.847;-18.403;-24.922;-36.061;-20.564;-40.121;-33.751;-65.640;-42.878
9798.855;-28.983;-26.375;-48.168;-17.248;-44.033;-32.932;-65.416;-46.082
9798.863;-24.103;-35.502;-34.086;-24.587;-36.508;-40.121;-73.723;-52.862
9798.871;-36.135;-50.738;-47.572;-38.669;-46.939;-42.915;-78.641;-47.795
9798.879;-41.053;-50.589;-53.458;-33.602;-52.564;-34.720;-71.228;-38.780
9798.888;-18.440;-34.124;-26.263;-23.507;-33.863;-21.234;-55.805;-30.659
9798.896;-23.097;-46.454;-32.522;-36.806;-33.490;-15.870;-53.644;-24.810
9798.904;-47.795;-60.759;-55.656;-51.446;-59.120;-27.344;-65.416;-40.084
9798.912;-59.828;-57.817;-70.073;-49.621;-59.903;-35.018;-70.557;-46.901
9798.920;-51.074;-59.269;-68.545;-43.400;-58.711;-28.200;-60.089;-40.419
9798.928;-35.092;-49.137;-49.882;-35.092;-38.855;-18.775;-51.856;-32.112
9798.936;-40.866;-45.933;-47.162;-40.829;-37.514;-15.907;-52.005;-24.028
9798.944;-36.769;-50.478;-47.199;-32.932;-41.798;-20.899;-53.793;-28.238
9798.952;-37.588;-45.411;-55.768;-27.232;-59.418;-34.831;-65.081;-40.643
9798.960;-37.216;-45.002;-48.019;-29.951;-50.962;-37.067;-66.347;-49.360
9798.968;-35.539;-53.495;-42.543;-36.322;-27.791;-39.190;-68.173;-54.650
9798.976;-44.070;-51.856;-59.828;-46.529;-41.947;-42.692;-72.271;-54.874
9798.984;-39.488;-55.209;-45.635;-38.072;-39.749;-38.743;-67.316;-52.750
9798.992;-35.837;-31.516;-42.282;-26.524;-32.261;-39.004;-69.141;-49.658
9799.000;-44.480;-46.939;-61.132;-40.680;-49.025;-37.402;-68.881;-43.958
9799.008;-40.345;-56.475;-53.495;-40.941;-48.466;-38.631;-67.949;-47.944
9799.016;-42.990;-55.172;-51.595;-35.837;-43.847;-38.259;-66.571;-50.627
9799.024;-45.076;-55.619;-52.974;-36.694;-40.829;-36.471;-63.814;-47.609
9799.032;-40.829;-49.062;-58.226;-38.929;-34.869;-39.339;-66.347;-48.652
9799.040;-29.206;-40.717;-37.290;-31.143;-31.441;-32.112;-56.997;-42.431
9799.048;-36.620;-43.996;-40.568;-32.000;-32.336;-36.657;-61.169;-45.821
9799.056;-49.733;-50.850;-54.426;-39.451;-53.309;-45.337;-72.308;-51.819
9799.064;-45.821;-57.444;-54.762;-45.225;-40.159;-41.835;-67.949;-51.558
9799.072;-45.933;-58.748;-60.573;-48.839;-32.671;-45.970;-71.898;-54.501
9799.113;-43.549;-49.174;-66.236;-36.620;-41.462;-36.694;-59.269;-47.944
9799.121;-37.029;-52.527;-53.756;-42.878;-41.611;-35.092;-57.518;-44.145
9799.129;-47.237;-60.089;-43.213;-48.243;-38.370;-43.139;-66.869;-51.111
9799.137;-34.198;-45.747;-38.110;-34.906;-28.312;-30.287;-57.705;-33.714
9799.145;-32.447;-43.325;-47.013;-31.777;-31.218;-28.536;-55.991;-31.367
9799.153;-43.474;-36.396;-61.542;-31.404;-36.694;-30.771;-52.229;-40.941
9799.161;-43.921;-41.239;-62.771;-38.370;-45.002;-31.963;-49.509;-44.182
9799.169;-47.311;-68.881;-61.356;-53.607;-49.062;-34.645;-55.581;-48.280
9799.177;-38.892;-67.502;-46.156;-38.296;-40.121;-26.971;-50.366;-39.116
9799.185;-28.796;-34.273;-31.218;-21.867;-21.756;-17.360;-43.176;-24.401
9799.193;-32.559;-18.217;-43.362;-28.796;-28.238;-14.864;-42.282;-17.919
9799.201;-41.947;-41.984;-64.746;-44.405;-37.178;-34.235;-62.473;-43.102
9799.209;-52.936;-62.622;-66.645;-57.481;-53.719;-43.586;-72.904;-57.779
9799.217;-49.733;-65.863;-61.393;-48.280;-54.799;-35.837;-60.685;-49.137
9799.225;-37.476;-54.389;-44.331;-39.488;-30.398;-25.406;-47.125;-32.783
9799.233;-45.151;-49.919;-53.160;-44.964;-29.914;-24.065;-47.535;-32.149
9799.241;-43.213;-46.156;-67.428;-46.082;-39.190;-33.528;-58.189;-41.723
9799.249;-43.027;-42.841;-55.581;-44.480;-34.869;-36.731;-60.871;-45.188
9799.257;-38.482;-53.085;-45.337;-41.164;-41.835;-35.614;-57.295;-43.437
9799.265;-45.374;-59.567;-54.799;-44.294;-51.931;-38.072;-57.742;-41.872
9799.273;-53.421;-47.348;-53.942;-45.635;-37.141;-31.888;-52.266;-35.018
9799.281;-57.183;-63.144;-54.836;-56.289;-38.445;-41.947;-61.020;-47.460
9799.289;-53.681;-70.184;-72.606;-64.410;-44.033;-53.272;-75.959;-55.358
9799.297;-57.071;-75.698;-66.794;-59.940;-42.766;-60.089;-84.154;-59.865
9799.276;-37.998;-42.282;-48.205;-37.737;-32.969;-43.586;-63.330;-44.517
9799.284;-36.545;-41.462;-43.400;-33.639;-16.280;-42.096;-63.255;-38.296
9799.292;-57.109;-69.588;-53.979;-54.352;-34.757;-53.272;-76.592;-49.658
9799.300;-66.459;-81.882;-74.953;-64.187;-56.848;-57.369;-81.025;-54.725
9799.308;-55.470;-59.940;-68.769;-38.370;-52.601;-49.397;-69.588;-52.750
9799.316;-51.409;-52.154;-64.708;-35.837;-43.735;-53.570;-71.898;-55.805
9799.324;-45.598;-48.652;-50.850;-32.447;-30.026;-51.893;-71.228;-52.564
9799.332;-48.317;-54.389;-61.803;-36.992;-41.537;-48.019;-68.434;-47.907
9799.340;-51.744;-59.977;-59.642;-46.603;-44.629;-56.513;-77.635;-54.128
9799.348;-61.803;-75.661;-71.302;-67.241;-51.409;-66.645;-87.880;-72.159
9799.356;-54.501;-70.632;-64.112;-63.926;-36.322;-56.811;-77.970;-63.814
9799.364;-53.868;-78.231;-64.336;-74.469;-27.493;-51.558;-70.855;-62.771
9799.372;-44.629;-79.125;-51.744;-75.549;-18.328;-42.915;-64.522;-54.017
9799.380;-57.332;-93.058;-65.491;-82.105;-31.665;-44.815;-70.855;-48.280
9799.388;-76.331;-96.671;-86.948;-92.685;-53.123;-58.636;-81.770;-63.144
9799.396;-79.609;-101.626;-88.699;-98.124;-56.513;-63.702;-79.088;-70.147
9799.404;-64.820;-95.665;-67.987;-82.031;-46.119;-39.935;-55.097;-49.025
9799.412;-74.282;-103.451;-91.344;-90.264;-61.169;-50.068;-67.092;-60.759
9799.420;-80.839;-102.893;-85.421;-84.043;-38.855;-47.721;-64.522;-56.699
9799.428;-67.018;-78.417;-71.637;-71.190;-37.104;-35.316;-51.372;-45.709
9799.436;-60.275;-77.412;-71.451;-74.506;-48.205;-36.769;-52.489;-51.558
9799.444;-74.506;-87.433;-81.174;-77.896;-56.885;-39.153;-51.670;-51.819
9799.452;-71.116;-86.389;-75.810;-75.512;-57.518;-35.502;-44.554;-44.629
9799.460;-82.478;-100.359;-90.301;-80.466;-61.728;-39.302;-47.162;-43.213
9799.470;-84.266;-112.765;-99.391;-90.525;-55.209;-40.717;-51.111;-44.443
9799.478;-75.214;-105.463;-92.424;-90.487;-55.470;-36.955;-52.005;-46.305
9799.486;-66.645;-80.876;-70.930;-66.459;-45.188;-19.632;-36.620;-35.465
9799.494;-69.216;-81.621;-69.216;-65.528;-49.956;-17.993;-35.055;-39.563
9799.502;-64.187;-80.429;-85.086;-67.092;-55.619;-16.317;-32.596;-43.325
9799.510;-64.038;-77.821;-70.520;-62.697;-42.170;-6.147;-22.650;-33.714
9799.518;-63.032;-91.046;-70.892;-70.147;-40.159;-1.118;-18.962;-21.979
9799.526;-74.357;-107.922;-95.032;-85.011;-55.209;-14.491;-33.341;-30.324
9799.534;-77.672;-99.391;-75.251;-88.550;-50.366;-24.699;-40.457;-44.033
9799.542;-78.864;-94.697;-74.208;-85.793;-55.805;-19.595;-35.055;-38.706
9799.550;-77.523;-92.350;-79.237;-78.492;-59.344;-11.735;-29.616;-27.716
9799.558;-79.609;-97.156;-81.547;-75.139;-53.570;-8.978;-27.381;-24.401
9799.566;-74.655;-97.007;-86.017;-78.417;-51.074;-9.798;-22.128;-30.473
9799.574;-67.204;-90.078;-86.725;-73.873;-47.572;-11.288;-19.707;-38.370
9799.582;-73.276;-100.397;-83.260;-79.274;-53.234;-9.760;-23.432;-32.894
9799.590;-70.818;-103.079;-75.810;-72.494;-52.676;-4.768;-20.266;-27.232
9799.598;-81.509;-100.099;-85.011;-76.517;-67.763;-23.656;-38.296;-43.027
9799.606;-72.047;-88.923;-83.931;-80.690;-48.615;-19.111;-28.759;-37.104
9799.614;-72.047;-86.352;-81.100;-73.723;-49.584;-20.713;-28.759;-35.800
9799.622;-80.355;-89.034;-89.109;-79.870;-54.762;-31.590;-41.202;-43.288
9799.630;-79.758;-97.603;-94.846;-82.925;-58.487;-34.943;-41.910;-44.517
9799.638;-90.748;-106.879;-97.081;-81.733;-73.835;-44.703;-50.291;-56.252
9799.646;-75.474;-95.107;-80.988;-76.741;-57.556;-28.647;-36.284;-42.133
9799.654;-62.622;-80.764;-81.994;-64.597;-39.488;-16.652;-26.487;-30.920
9799.666;-71.935;-89.481;-89.034;-73.239;-52.266;-19.856;-28.238;-37.402
9799.674;-67.204;-101.738;-66.347;-67.689;-44.741;-11.921;-17.732;-28.051
9799.682;-74.953;-86.538;-78.306;-69.924;-55.656;-25.891;-31.330;-40.121
9799.690;-65.193;-70.967;-87.358;-65.491;-61.132;-23.320;-29.467;-35.465
9799.698;-64.299;-74.133;-81.062;-60.685;-48.503;-23.656;-32.112;-37.067
9799.706;-76.182;-86.278;-91.083;-68.285;-57.630;-26.375;-34.086;-41.351
9799.714;-58.077;-80.019;-67.502;-59.567;-36.545;-13.560;-18.217;-33.863
9799.722;-53.309;-78.157;-56.140;-54.538;-45.225;-19.632;-21.905;-42.655
9799.730;-59.381;-87.693;-74.841;-66.385;-46.305;-22.501;-29.318;-46.864
9799.738;-61.467;-68.322;-88.550;-60.014;-47.497;-27.902;-37.402;-50.552
9799.746;-67.279;-71.488;-76.294;-62.697;-46.343;-24.550;-33.155;-42.617
9799.754;-52.601;-73.686;-60.312;-53.048;-32.112;-12.554;-20.266;-29.393
9799.762;-42.170;-72.457;-46.194;-48.168;-20.713;-12.480;-18.850;-30.361
9799.770;-36.694;-60.797;-44.815;-51.260;-28.163;-15.907;-21.122;-37.849
9799.778;-42.915;-56.364;-51.782;-55.060;-31.479;-29.840;-33.006;-57.817
9799.786;-61.542;-57.817;-69.179;-56.736;-34.496;-39.041;-44.592;-73.388
9799.794;-58.860;-72.904;-71.004;-61.169;-38.221;-39.898;-46.752;-77.263
9799.802;-44.070;-71.079;-53.234;-54.725;-23.507;-26.897;-34.533;-61.840
9799.810;-46.045;-71.563;-66.012;-53.123;-34.608;-19.968;-25.742;-60.387
9799.818;-55.395;-73.873;-65.155;-65.975;-40.084;-24.848;-28.759;-65.342
9799.826;-45.784;-50.180;-46.641;-44.517;-32.447;-7.823;-14.454;-39.525
9799.834;-44.443;-57.742;-60.573;-45.076;-34.347;-12.480;-22.687;-43.735
9799.842;-60.461;-84.974;-77.598;-64.299;-45.560;-35.912;-49.658;-72.345
9799.850;-52.787;-67.838;-61.765;-58.897;-36.806;-31.032;-46.305;-66.608
9799.876;-49.137;-55.954;-62.399;-47.870;-30.696;-26.226;-36.769;-63.106
9799.884;-43.586;-43.511;-56.811;-42.580;-32.075;-20.824;-26.375;-61.952
9799.892;-33.192;-45.411;-47.497;-45.411;-27.083;-21.942;-26.785;-65.006
9799.900;-44.815;-67.689;-59.940;-53.160;-37.514;-21.383;-26.673;-62.473
9799.908;-42.729;-60.797;-57.705;-46.305;-30.510;-10.505;-17.397;-49.584
9799.916;-53.905;-58.897;-61.132;-37.290;-31.032;-7.674;-19.222;-45.747
9799.924;-51.744;-54.277;-63.330;-44.033;-32.336;-7.562;-21.495;-45.784
9799.932;-23.954;-48.503;-51.893;-49.658;-23.507;-9.201;-21.085;-43.921
9799.940;-26.487;-44.033;-43.362;-42.431;-27.753;-14.417;-24.848;-46.007
9799.948;-41.947;-47.348;-45.113;-41.947;-33.826;-23.320;-30.920;-52.191
9799.956;-46.268;-52.415;-48.429;-46.752;-30.883;-32.634;-35.167;-60.350
9799.964;-51.595;-61.579;-54.538;-54.240;-25.816;-31.888;-31.777;-64.708
9799.972;-38.818;-56.736;-57.742;-46.268;-26.263;-22.687;-22.091;-60.238
9799.980;-33.341;-53.793;-49.584;-40.606;-24.214;-11.176;-14.640;-47.684
9799.988;-40.084;-48.093;-52.489;-37.663;-37.849;-4.210;-11.288;-39.041
9799.996;-48.056;-52.974;-64.597;-44.107;-40.121;-10.654;-20.750;-45.449
9800.004;-49.956;-57.630;-55.544;-44.517;-26.934;-5.439;-19.036;-36.322
9800.012;-32.298;-53.160;-39.749;-51.670;-21.271;-7.451;-23.656;-35.167
9800.020;-41.462;-57.518;-49.472;-40.606;-19.111;-23.991;-36.918;-52.005
9800.028;-45.262;-53.607;-58.860;-29.318;-26.487;-21.458;-27.604;-54.538
9800.036;-31.851;-29.393;-48.690;-23.916;-27.642;-12.033;-11.884;-49.919
9800.044;-18.440;-20.824;-22.464;-15.199;-9.872;9.723;6.109;-29.318
9800.052;-11.474;-25.481;-18.254;-17.136;-8.978;15.050;3.837;-26.487
9800.060;-21.271;-40.121;-35.018;-27.418;-17.844;9.164;-9.015;-26.971
9800.043;-19.073;-35.204;-46.343;-21.905;-9.909;16.056;-1.006;-22.948
9800.051;-26.897;-42.096;-28.200;-28.946;-21.048;2.570;-13.672;-36.359
9800.059;-32.149;-45.300;-32.336;-37.849;-23.916;-1.639;-17.360;-33.863
9800.067;3.055;-6.147;-4.694;2.272;-5.327;4.992;-1.974;-28.126
9800.075;4.582;-8.605;-5.066;3.874;-23.544;2.496;-0.745;-38.035
9800.083;6.743;4.806;-22.165;11.250;-27.604;-1.043;-3.204;-41.947
9800.091;24.214;29.095;10.505;29.765;-13.970;-5.439;-9.947;-41.500
9800.099;28.573;20.377;11.101;20.266;-15.609;-6.370;-13.448;-43.847
9800.107;26.152;21.532;18.477;15.311;-7.637;1.416;-6.706;-36.024
9800.115;21.681;20.675;13.821;23.954;-11.027;7.078;-4.917;-26.412
9800.123;2.645;-11.064;-9.835;6.557;-21.346;-4.321;-17.919;-40.866
9800.131;6.072;-11.548;-3.055;-2.980;-23.618;-0.671;-12.629;-40.382
9800.139;1.639;0.447;-8.270;-0.373;-31.181;7.413;0.112;-37.700
9800.147;7.190;-0.261;4.545;16.615;-16.652;24.140;19.185;-23.767
9800.155;10.394;-4.247;-9.201;12.033;-28.759;17.174;6.929;-30.547
9800.163;4.992;0.000;-22.128;10.654;-30.026;20.340;11.288;-28.238
9800.171;-1.714;-8.121;-20.862;-1.043;-34.310;12.331;1.527;-29.765
9800.179;-6.892;-11.697;-6.370;0.671;-32.634;11.586;-1.304;-24.699
9800.187;-2.980;-17.881;-12.107;4.359;-39.190;7.004;-2.123;-27.865
9800.195;3.129;7.227;-10.617;16.242;-36.098;10.468;5.439;-28.647
9800.203;-3.316;-11.064;-17.472;7.376;-32.820;14.417;9.276;-23.991
9800.211;-11.623;-23.954;-26.710;-8.009;-40.606;4.508;-0.671;-35.278
9800.219;2.868;-9.090;-6.892;2.012;-31.814;6.668;2.086;-33.230
9800.227;-4.657;-4.210;-17.360;4.135;-34.533;11.288;10.505;-29.318
9800.265;-5.290;-16.131;-27.567;4.284;-37.625;8.009;7.339;-33.416
9800.273;-7.153;-8.233;-30.585;7.190;-42.506;15.870;8.903;-24.103
9800.281;-5.886;-7.302;-16.317;4.210;-34.720;17.434;9.462;-27.232
9800.289;-16.503;-25.295;-12.331;-2.943;-28.759;14.901;8.345;-31.739
9800.297;-5.551;-11.250;-13.411;9.127;-30.138;26.412;21.830;-17.695
9800.305;10.692;7.972;-11.027;11.213;-18.850;27.195;19.297;-12.815
9800.313;8.494;7.860;0.037;11.586;-18.030;29.467;18.701;-12.070
9800.321;-6.184;-5.290;-15.534;5.700;-29.691;19.595;10.319;-23.693
9800.329;-5.253;-15.013;-23.320;-9.947;-32.037;13.523;4.917;-29.244
9800.337;8.233;-5.960;-13.784;0.335;-17.174;16.354;9.798;-27.120
9800.345;19.819;24.065;11.660;29.095;-1.304;31.143;28.126;-16.391
9800.353;19.334;19.781;14.305;27.381;-2.198;36.433;34.608;-12.107
9800.361;7.302;1.602;-12.070;13.337;-17.062;28.312;27.493;-18.887
9800.369;-0.596;-11.362;-21.420;8.494;-31.665;24.140;24.103;-22.277
9800.377;0.298;-3.278;-4.023;7.153;-20.973;19.185;14.640;-24.550
9800.385;-10.729;0.820;-7.637;-6.706;-32.336;3.353;-3.874;-33.230
9800.393;-9.090;-17.956;-15.795;-10.431;-22.426;6.892;2.086;-26.077
9800.401;-0.186;-11.697;-14.976;-0.782;-11.809;11.101;10.058;-25.332
9800.409;-4.657;-0.931;-27.902;7.376;-24.624;14.417;13.858;-23.320
9800.417;-15.646;-17.136;-37.551;-2.533;-40.159;11.213;7.413;-23.134
9800.425;-15.907;-24.028;-21.346;-14.417;-36.135;5.066;-1.192;-23.022
9800.433;-14.156;-10.356;-11.101;-4.098;-21.309;11.325;9.499;-23.544
9800.441;1.974;0.559;-13.448;4.731;-11.176;11.697;14.864;-24.624
9800.449;1.825;4.023;-12.740;9.015;-20.564;12.815;18.291;-17.434
9800.457;-10.133;-9.499;-22.650;0.447;-27.642;8.978;9.201;-21.756
9800.465;-5.215;-11.995;-11.735;-4.210;-24.699;2.943;0.075;-25.816
9800.473;4.545;15.013;-3.986;13.374;-25.295;6.966;7.227;-24.810
9800.481;-13.188;-21.905;-32.410;-3.763;-31.814;-5.290;-6.780;-37.588
9800.447;-15.348;-24.885;-39.674;-10.282;-41.425;0.820;-2.757;-28.759
9800.455;-14.901;-12.405;-23.693;0.447;-25.332;16.168;15.125;-13.337
9800.463;1.639;8.903;-9.388;12.331;-5.551;19.185;18.068;-11.623
9800.471;5.886;7.488;-2.719;1.192;-19.632;16.727;13.225;-18.552
9800.479;1.602;-9.164;-10.207;-4.023;-31.032;1.490;-1.900;-33.677
9800.487;-6.258;-4.917;-15.236;1.453;-16.987;3.949;3.763;-33.453
9800.495;10.952;10.356;8.754;18.887;-1.900;18.068;22.128;-20.266
9800.503;2.980;0.484;-14.715;6.407;-10.692;4.843;9.611;-33.006
9800.511;9.201;10.543;-8.903;9.127;-6.445;18.291;21.271;-17.211
9800.519;23.991;25.593;10.245;26.375;-2.272;23.693;21.942;-6.370
9800.527;-3.055;6.258;-3.427;6.743;-22.724;15.013;8.047;-10.617
9800.535;-0.894;-1.825;-4.955;4.135;-14.789;16.913;11.176;-12.778
9800.543;4.023;-1.863;-18.738;5.774;-17.285;8.941;4.731;-23.656
9800.551;16.056;7.749;-9.015;17.658;-8.792;20.936;20.862;-16.950
9800.559;7.749;11.139;-18.664;5.998;-11.064;18.254;21.346;-20.042
9800.567;-12.778;3.278;-30.138;0.894;-31.255;24.401;28.126;-14.044
9800.575;18.217;5.327;3.465;13.635;1.565;19.819;22.687;-15.795
9800.583;23.171;18.030;12.517;7.339;22.650;20.787;22.650;-10.990
9800.591;5.960;-4.955;-9.984;-17.434;18.030;15.609;17.919;-14.044
9800.599;5.513;-14.156;-10.878;-21.905;9.872;9.425;10.654;-21.271
9800.607;-10.207;-37.402;-29.542;-40.568;-8.754;-3.241;-1.751;-30.622
9800.615;-21.532;-37.737;-38.184;-36.955;-13.970;-4.247;-0.857;-31.032
9800.623;-30.100;-47.460;-47.460;-43.660;-22.389;-7.376;0.782;-32.336
9800.631;-21.793;-39.302;-40.308;-40.941;-15.832;-1.714;6.333;-27.530
9800.656;-27.008;-35.428;-39.861;-35.055;-13.821;-4.321;-1.304;-33.081
9800.664;-24.363;-39.078;-44.554;-33.416;-10.990;0.782;-0.373;-25.630
9800.672;-33.937;-45.262;-59.828;-33.565;-21.197;1.043;1.639;-29.951
9800.680;-21.942;-39.302;-40.345;-33.788;-24.140;-2.272;-1.192;-33.639
9800.688;-11.958;-30.212;-22.016;-28.573;-7.078;8.605;11.995;-21.644
9800.696;-30.063;-34.645;-48.801;-32.000;-24.699;0.000;1.527;-25.928
9800.704;-22.314;-24.736;-44.405;-18.738;-30.436;14.193;16.093;-10.133
9800.712;-27.232;-37.216;-36.955;-23.991;-18.068;11.288;19.893;-17.397
9800.720;-29.653;-32.596;-44.592;-20.899;-20.936;16.503;28.349;-10.133
9800.728;-22.054;-33.900;-41.127;-19.632;-31.479;18.179;26.077;-8.047
9800.736;-31.404;-45.784;-46.119;-30.212;-32.447;7.451;10.766;-18.105
9800.744;-27.008;-31.218;-54.576;-28.946;-34.310;11.995;14.119;-14.715
9800.752;-18.626;-24.922;-36.135;-22.203;-26.748;19.968;21.569;-9.499
9800.760;-19.744;-39.004;-37.029;-18.217;-21.048;23.842;25.816;-6.407
9800.768;-16.205;-25.816;-29.579;-11.884;-9.276;31.963;35.912;3.614
9800.776;-4.917;-16.019;-23.209;-10.878;-22.016;21.122;21.607;-5.811
9800.784;-33.751;-42.394;-47.274;-30.100;-42.804;-2.421;-4.545;-27.344
9800.792;-31.292;-42.617;-51.148;-25.630;-38.967;3.874;2.570;-19.707
9800.800;-6.109;-17.881;-25.034;-6.370;-15.721;20.266;18.477;-2.347
9800.808;-15.497;-24.252;-35.278;-18.701;-25.220;12.554;12.703;-12.219
9800.816;-15.907;-35.539;-31.069;-22.165;-27.418;1.788;2.198;-19.558
9800.824;-19.781;-25.854;-20.340;-15.981;-19.334;14.640;13.784;-8.307
9800.832;-17.881;-17.583;-35.577;-5.141;-19.893;23.209;21.197;-0.969
9800.840;-11.474;-23.805;-27.008;-10.915;-19.483;24.028;23.209;-0.075
9800.866;-19.185;-34.943;-34.198;-30.212;-32.745;16.615;14.864;-7.004
9800.874;-25.816;-43.660;-46.939;-35.241;-39.227;6.929;-0.186;-13.821
9800.882;-22.762;-42.617;-41.462;-23.767;-45.374;12.554;5.513;-9.499
9800.890;-19.409;-33.788;-36.322;-15.683;-32.149;15.423;12.517;-5.402
9800.898;-5.402;-20.526;-19.930;-10.543;-14.231;15.944;13.448;0.708
9800.906;-28.647;-33.490;-40.159;-21.793;-41.164;-2.906;-6.147;-19.744
9800.914;-40.904;-47.274;-61.020;-32.075;-49.807;-18.626;-23.134;-37.961
9800.922;-32.037;-52.415;-50.589;-37.178;-38.892;-10.841;-11.139;-28.126
9800.930;-32.820;-62.697;-43.809;-41.910;-44.182;-3.763;-1.825;-24.028
9800.938;-43.064;-65.565;-52.154;-41.276;-55.768;-11.176;-9.537;-28.647
9800.946;-35.502;-31.851;-49.137;-22.538;-38.631;3.353;5.402;-13.895
9800.954;-42.468;-41.500;-53.868;-28.722;-44.219;1.490;4.098;-18.738
9800.962;-27.418;-30.361;-47.572;-23.507;-40.568;-5.178;-3.465;-21.122
9800.970;-19.260;-23.246;-35.092;-16.317;-24.475;-11.809;-10.990;-23.060
9800.978;-26.524;-44.182;-31.888;-31.143;-31.888;-22.165;-22.277;-30.622
9800.986;-32.559;-48.317;-49.174;-31.367;-41.239;-12.442;-12.740;-22.203
9800.994;-27.493;-29.467;-48.205;-18.701;-28.089;-13.448;-13.486;-22.352
9801.002;-18.887;-32.559;-40.904;-24.438;-30.287;-13.150;-14.529;-21.346
9801.010;-18.030;-28.610;-31.218;-23.991;-28.200;0.037;-1.192;-10.096
9801.018;-16.019;-20.340;-11.176;-16.131;-13.486;11.660;11.958;-3.651
9801.026;-12.852;-22.985;-21.532;-9.350;-18.142;15.013;17.807;-0.782
9801.034;-15.423;-34.869;-38.669;-16.093;-30.361;-7.749;-4.321;-20.936
9801.042;-30.324;-41.984;-47.833;-29.914;-29.095;-15.981;-12.927;-27.120
9801.050;-37.476;-26.673;-47.833;-27.157;-35.167;-14.976;-11.288;-21.532
9801.046;-24.065;-28.349;-33.937;-21.867;-31.404;-22.799;-18.626;-26.636
9801.054;-22.985;-37.588;-41.462;-29.914;-39.302;-19.372;-12.070;-25.928
9801.062;-19.595;-35.837;-37.067;-21.979;-27.120;-9.052;-0.373;-19.073
9801.070;-24.252;-33.192;-28.871;-28.126;-14.193;-0.633;7.711;-11.586
9801.078;-19.595;-22.277;-31.702;-21.234;-12.666;2.645;12.293;-8.531
9801.086;-20.824;-28.722;-32.037;-21.979;-23.693;-5.551;1.378;-12.033
9801.094;-26.263;-27.604;-28.722;-23.730;-26.822;-7.600;-1.155;-14.305
9801.102;-25.481;-42.468;-35.278;-30.957;-36.582;-10.170;-2.272;-21.756
9801.110;-26.301;-43.623;-37.923;-32.634;-28.387;-9.537;-1.416;-20.713
9801.118;-9.127;-14.119;-31.292;-13.970;-15.497;-1.863;8.680;-8.792
9801.126;-12.815;-23.060;-32.559;-13.784;-19.595;-7.525;5.215;-15.460
9801.134;-26.450;-37.104;-40.717;-22.762;-19.595;-3.688;10.878;-21.271
9801.142;-8.792;-12.964;-14.491;-9.350;-8.233;1.900;14.938;-18.179
9801.150;-12.666;-12.293;-22.352;-12.927;-20.713;-5.662;5.700;-23.693
9801.158;-2.682;-14.268;-21.122;-11.809;-17.136;-0.186;9.090;-15.944
9801.166;-4.880;-13.150;-20.042;-14.044;-18.254;-0.559;4.061;-14.156
9801.174;-13.784;-14.640;-34.645;-9.462;-26.152;-2.496;0.671;-19.707
9801.182;3.017;-1.006;-7.004;0.931;0.410;9.984;16.019;-5.104
9801.190;3.465;-11.809;2.421;-3.092;10.654;22.985;29.616;7.637
9801.198;-7.749;-20.452;-13.858;-21.607;-11.884;9.090;13.933;-8.941
9801.206;-12.815;-9.276;-31.106;-12.703;-21.942;-0.857;3.874;-15.199
9801.214;-11.176;-4.061;-34.906;3.837;-15.534;1.118;3.763;-8.605
9801.222;-1.825;-7.264;-22.016;-1.639;-14.827;-3.502;0.224;-9.388
9801.230;-0.522;-1.304;-9.909;-7.860;-12.666;-0.075;3.614;-4.955
9801.213;-5.290;-6.817;-5.625;-9.201;2.719;-4.806;0.782;-15.944
9801.221;-2.868;-10.170;-18.217;-6.780;-3.055;-5.662;5.439;-16.838
9801.229;-2.645;-15.795;-27.902;-0.931;-10.580;3.427;16.540;-3.725
9801.237;14.044;11.511;2.496;15.572;7.115;10.915;19.409;7.227
9801.245;4.917;2.868;-0.447;3.390;-0.671;5.625;10.468;-0.708
9801.253;-9.015;-1.751;-19.632;-8.903;-10.766;2.533;6.296;-7.227
9801.261;-4.619;3.651;-22.724;1.639;-8.903;11.213;14.529;2.943
9801.269;-1.714;-4.396;-10.654;-1.080;2.161;10.990;15.981;2.347
9801.277;-4.172;-27.046;-26.301;-19.632;-11.474;-6.184;-2.645;-12.405
9801.285;-11.921;-32.559;-26.338;-16.168;-16.876;-7.525;-2.719;-7.674
9801.293;-13.746;-4.955;-19.260;-4.657;-9.760;-13.933;-6.780;-10.133
9801.301;-18.142;-7.525;-29.840;-7.339;-18.589;-16.838;-6.780;-11.548
9801.309;-16.131;-20.415;-31.106;-11.511;-18.738;-1.900;13.560;0.596
9801.317;-22.054;-20.936;-38.669;-18.887;-26.636;-4.880;12.070;-5.737
9801.325;-20.973;-19.036;-44.219;-15.721;-30.696;-0.112;11.399;0.894
9801.333;-2.012;-13.337;-6.519;0.261;-8.754;12.890;18.999;15.385
9801.341;-14.305;-30.324;-19.781;-10.617;-25.369;0.410;3.278;-0.335
9801.349;-34.757;-36.694;-47.609;-26.263;-38.780;-0.633;1.863;-3.874
9801.357;1.155;6.072;-7.041;15.087;-7.935;-0.447;5.811;-3.241
9801.365;17.248;13.672;-2.757;29.244;-21.681;1.118;6.445;3.278
9801.373;28.796;32.410;19.185;33.937;-16.317;-1.714;6.966;0.373
9801.381;38.445;43.996;32.745;44.517;-7.749;-0.633;11.548;-0.037
9801.389;38.184;50.068;19.036;51.446;-10.654;5.402;20.899;4.955
9801.397;41.164;42.059;21.420;57.705;-9.499;8.047;23.991;6.445
9801.406;33.304;36.322;16.317;42.282;-7.711;10.617;25.928;3.614
9801.414;33.379;35.800;21.122;38.259;-16.876;11.586;21.718;5.178
9801.422;29.542;32.149;27.008;39.078;-18.030;18.701;20.452;17.695
9801.430;35.055;34.645;25.444;47.237;-13.448;33.379;32.224;32.447
9801.438;24.065;23.656;10.692;33.379;-21.644;17.472;16.615;11.586
9801.446;16.354;14.417;10.543;29.467;-27.604;18.999;21.011;7.674
9801.454;15.385;18.701;2.272;29.765;-35.651;21.532;30.473;6.482
9801.462;11.548;26.338;-5.588;27.604;-35.316;19.036;36.620;8.456
9801.470;25.667;32.708;5.104;38.594;-21.867;24.065;46.752;21.979
9801.478;15.274;18.552;7.711;30.547;-27.120;8.009;28.946;10.133
9801.486;2.123;-7.637;-5.998;8.494;-43.027;4.433;20.042;6.817
9801.494;14.752;0.075;-3.017;24.214;-34.496;23.209;38.333;22.613
9801.502;27.306;36.247;11.809;49.435;-15.534;36.284;48.652;34.086
9801.510;29.802;45.076;8.643;50.217;-28.051;34.645;44.629;30.436
9801.518;19.372;21.346;6.296;26.897;-34.347;18.664;26.599;15.162
9801.526;21.197;12.591;16.764;26.636;-21.197;26.636;34.235;18.105
9801.534;21.867;39.488;13.895;46.901;-12.591;41.910;51.558;28.424
9801.542;14.231;21.234;-2.831;31.218;-30.920;37.439;45.821;27.195
9801.550;12.629;13.337;-14.901;30.175;-45.970;40.494;45.821;32.485
9801.558;29.281;27.195;20.377;46.492;-16.093;40.419;48.466;35.278
9801.566;28.908;23.805;31.255;41.910;8.531;48.168;57.593;43.511
9801.574;28.126;40.457;27.008;39.712;14.976;43.139;52.638;39.898
9801.582;31.926;29.765;8.866;27.381;-1.639;29.169;37.327;20.266
9801.590;33.900;38.035;25.518;29.579;-4.396;39.041;40.904;32.149
9801.615;36.173;36.247;26.673;34.310;-5.811;43.996;41.388;44.145
9801.623;13.560;7.264;11.660;21.085;-13.821;37.439;33.341;37.365
9801.631;8.009;5.662;10.133;14.156;-7.562;31.739;28.983;29.020
9801.639;11.623;10.580;6.855;14.044;-11.735;23.060;24.959;16.578
9801.647;29.206;28.946;32.037;30.920;6.333;43.325;48.503;38.035
9801.655;32.857;34.980;25.444;36.433;-1.714;42.394;43.772;39.265
9801.663;30.771;37.290;10.654;41.276;-4.508;36.992;38.035;34.757
9801.671;16.466;23.209;5.774;34.124;2.086;27.791;33.975;24.661
9801.679;-1.788;3.390;-6.519;17.062;-7.041;19.297;22.501;15.907
9801.687;6.072;8.494;9.947;22.911;-13.188;22.128;22.240;21.122
9801.695;23.469;14.082;15.795;19.073;-13.448;24.885;23.544;24.810
9801.703;11.064;21.718;2.310;13.933;-14.529;26.301;26.263;22.426
9801.711;5.849;18.105;-5.327;23.618;-14.752;31.739;32.112;27.455
9801.719;22.314;17.956;14.789;36.024;6.333;36.135;33.118;31.702
9801.727;25.854;28.163;20.452;35.502;11.101;35.763;32.298;27.753
9801.735;19.968;14.380;18.105;20.899;6.966;25.705;18.589;24.363
9801.743;7.302;13.262;11.958;15.609;-9.350;22.054;11.362;26.077
9801.751;34.422;44.964;24.475;41.872;6.594;18.999;9.686;26.822
9801.759;33.192;47.758;6.557;52.638;-5.290;17.285;7.972;25.295
9801.767;27.344;33.490;14.044;53.607;-15.423;15.721;7.451;19.483
9801.775;19.409;15.050;26.710;44.480;-5.737;4.657;-4.061;8.456
9801.783;25.332;29.653;20.117;54.166;-6.743;15.981;12.182;23.209
9801.791;45.560;45.970;29.691;61.877;3.204;27.269;26.822;32.485
9801.799;24.438;40.717;16.466;46.045;-6.370;15.162;15.907;15.609
9801.814;18.403;37.663;10.841;45.188;-17.025;18.626;17.844;14.380
9801.822;19.185;35.577;4.694;58.785;-21.011;22.240;20.824;17.993
9801.830;33.379;41.127;19.930;62.399;1.863;31.702;27.008;32.857
9801.838;30.100;43.325;26.822;54.762;-3.241;13.970;9.872;10.841
9801.846;8.978;15.460;4.508;30.212;-12.405;-1.714;-3.390;-5.551
9801.854;8.158;6.966;-8.084;41.164;-15.050;5.588;5.402;5.774
9801.862;18.403;34.943;10.319;59.791;-6.706;13.113;15.870;13.821
9801.870;32.857;47.125;30.212;63.889;9.760;24.252;27.046;28.573
9801.878;36.880;44.182;36.657;46.305;16.540;17.174;17.323;26.450
9801.886;20.117;32.224;14.268;45.225;-3.539;5.849;3.874;15.870
9801.894;14.044;19.558;-0.894;44.219;-10.543;9.388;3.763;15.423
9801.902;16.987;23.097;17.583;45.523;3.204;12.517;3.874;19.819
9801.910;12.591;26.785;10.878;39.563;-2.347;14.231;4.284;22.985
9801.918;14.454;24.922;-2.161;39.414;-9.611;9.835;0.708;16.950
9801.926;17.211;32.671;3.763;37.253;-10.170;7.674;-1.304;14.752
9801.934;22.054;32.745;12.703;47.237;3.055;20.601;11.846;23.022
9801.942;32.336;30.287;41.313;53.830;24.363;28.014;15.050;31.963
9801.950;31.330;43.325;29.616;57.295;16.131;28.312;9.798;36.024
9801.958;28.610;56.550;7.972;62.548;0.186;22.054;1.267;34.012
9801.966;24.587;27.567;11.548;47.572;3.874;12.368;-7.264;27.232
9801.974;34.496;32.298;39.674;45.411;27.642;20.079;3.874;25.891
9801.982;34.980;44.703;37.439;56.103;30.436;27.567;8.680;32.447
9801.990;21.793;42.953;20.713;54.725;5.066;23.767;4.768;32.373
9801.998;28.163;43.660;16.615;57.705;2.235;23.842;10.990;27.381
9802.006;24.177;32.820;16.317;46.082;18.328;19.185;6.109;25.779
9802.014;43.251;40.419;35.390;60.312;42.506;28.871;16.056;31.739
9802.022;43.362;56.624;44.480;69.663;28.871;25.257;13.001;28.349
9802.030;31.404;53.346;28.536;57.332;5.811;22.352;8.196;29.318
9802.038;53.048;69.663;41.574;75.400;20.713;36.992;25.108;40.568
9802.046;60.275;55.358;52.117;83.111;36.769;34.384;24.550;41.202
9802.054;40.606;38.072;33.267;64.261;14.864;18.030;10.096;23.320
9802.062;30.957;58.413;24.028;63.442;13.821;10.245;1.676;16.652
9802.070;37.663;64.112;34.198;71.414;15.907;18.850;12.405;25.444
9802.078;56.438;46.343;44.592;62.250;14.156;18.328;12.219;26.487
9802.086;40.829;48.652;20.899;54.203;8.382;3.390;-8.121;14.529
9802.094;15.721;25.481;15.162;44.666;-1.639;-8.084;-18.552;-1.639
9802.102;15.944;25.444;13.337;47.572;1.229;-7.041;-12.740;-1.118
9802.110;34.124;35.316;28.424;53.123;7.525;0.857;-3.427;7.339
9802.118;33.788;47.013;36.247;56.252;8.158;3.055;-2.086;12.480
9802.126;26.710;41.202;24.214;52.601;-1.527;4.061;-2.198;18.924
9802.134;17.807;26.152;5.253;41.872;-3.316;2.645;-4.135;17.136
9802.142;30.138;35.018;17.732;48.950;-2.310;-2.533;-6.147;11.921
9802.150;26.748;24.624;14.491;54.277;-7.413;4.284;1.453;17.919
9802.158;24.065;31.330;15.646;56.289;0.410;2.049;-1.006;17.658
9802.166;5.811;25.928;16.987;42.431;-8.456;-11.623;-17.956;8.270
9802.174;19.632;34.571;10.207;41.500;-15.311;-8.494;-14.864;2.682
9802.182;18.477;22.799;3.800;40.643;-13.150;-6.743;-9.611;1.416
9802.190;17.844;24.959;11.250;48.988;-11.511;-2.049;-5.849;5.998
9802.173;37.216;44.256;36.247;67.614;8.754;11.474;2.347;19.670
9802.181;41.090;47.646;38.296;69.253;12.033;17.397;7.078;27.232
9802.189;34.794;48.913;12.405;52.266;-8.009;4.321;-3.688;12.219
9802.197;29.318;47.050;16.578;58.822;-3.390;0.931;-0.633;9.425
9802.205;18.813;32.000;5.476;49.323;-10.133;0.037;-2.161;14.715
9802.213;0.149;7.264;5.253;37.923;-21.495;-10.096;-17.472;3.129
9802.221;5.811;4.806;-1.863;35.688;-16.354;-7.153;-14.193;7.004
9802.229;28.722;34.980;26.673;50.925;4.806;14.044;10.431;26.971
9802.237;33.118;42.245;27.940;54.725;2.608;11.250;7.004;25.183
9802.245;21.644;26.971;9.052;39.078;-12.554;-0.335;-5.625;12.629
9802.253;5.439;15.646;2.421;40.792;-12.405;-4.806;-10.058;6.296
9802.261;20.452;29.914;11.213;51.297;-5.923;-4.061;-7.525;4.992
9802.269;18.589;35.018;-2.906;46.454;-17.658;-1.229;-2.496;4.806
9802.277;6.855;17.397;-5.253;28.908;-12.964;-2.906;-4.955;7.488
9802.285;16.280;11.623;13.001;35.278;-2.794;6.631;0.000;14.566
9802.293;28.163;35.912;31.926;58.934;3.763;20.117;12.107;24.289
9802.301;46.603;51.893;43.362;67.428;24.289;27.306;16.578;35.092
9802.309;33.155;44.070;32.783;54.687;5.960;14.715;5.811;25.444
9802.317;15.385;28.536;9.350;36.508;-3.576;-0.559;-9.947;10.058
9802.325;17.174;19.968;12.107;39.078;5.849;10.952;0.708;22.352
9802.333;23.246;18.403;26.375;45.784;1.900;15.236;5.588;23.283
9802.341;33.677;30.771;20.601;42.692;5.811;5.998;-2.012;14.976
9802.349;30.957;46.901;23.507;44.666;9.499;7.302;4.917;11.735
9802.357;31.479;38.855;29.765;52.117;21.569;6.855;3.502;9.499
9802.396;47.684;52.527;42.133;68.806;28.685;27.642;20.154;29.989
9802.404;41.053;40.010;30.473;55.172;6.407;14.380;5.364;17.621
9802.412;19.819;19.707;19.483;30.026;-6.519;3.986;-7.823;13.337
9802.420;11.064;25.146;13.970;26.971;6.258;6.445;-3.465;17.732
9802.428;22.389;33.155;24.810;38.631;15.274;3.278;-6.296;19.372
9802.436;31.255;22.389;22.650;39.935;3.949;6.594;0.633;20.713
9802.444;30.659;30.138;18.664;47.274;4.657;9.798;9.537;21.607
9802.452;31.814;45.076;34.682;40.755;12.666;5.327;3.874;17.509
9802.460;36.284;50.925;34.571;53.123;29.728;18.142;12.442;30.249
9802.468;33.565;36.694;24.289;49.919;20.377;10.319;0.894;18.217
9802.476;21.234;19.073;23.618;34.794;7.860;5.215;-4.470;6.706
9802.484;30.100;28.834;33.192;34.422;13.784;7.711;-4.694;13.076
9802.492;19.595;28.089;14.380;29.616;1.565;0.671;-15.274;11.139
9802.500;12.033;20.899;14.007;38.855;5.290;3.166;-8.382;13.113
9802.508;35.092;40.866;36.992;48.131;25.705;9.425;3.353;16.205
9802.516;31.330;38.631;28.014;40.233;12.591;11.325;8.866;19.483
9802.524;25.742;44.927;24.736;41.872;13.001;7.786;8.903;18.030
9802.532;18.738;30.771;18.775;43.884;12.815;5.513;5.700;14.082
9802.540;34.235;34.682;16.280;48.429;10.766;21.048;22.613;27.753
9802.548;24.289;25.444;7.935;40.457;17.174;13.821;16.652;21.644
9802.556;7.674;13.225;21.271;27.604;3.017;3.800;5.998;15.944
9802.564;18.962;35.949;27.008;32.000;6.035;-6.333;-5.737;6.221
9802.572;18.626;32.037;14.640;27.679;0.000;-15.683;-20.191;-3.502
9802.580;32.634;40.643;27.344;42.580;14.454;7.823;-0.559;16.913
9802.576;43.400;53.905;33.304;61.281;39.376;22.352;13.858;35.278
9802.584;35.614;51.782;42.915;56.438;37.514;19.595;14.529;34.235
9802.592;40.345;59.009;43.362;47.907;30.398;15.274;13.821;26.785
9802.600;34.682;36.135;33.751;46.343;27.455;20.228;17.285;32.336
9802.608;30.585;16.056;14.380;39.451;9.313;22.277;19.148;32.708
9802.616;30.436;39.339;17.509;38.445;10.952;18.664;17.136;29.355
9802.624;22.985;49.509;34.720;37.551;23.656;15.423;9.127;24.214
9802.632;22.501;43.772;32.745;39.637;26.636;19.558;13.076;26.301
9802.640;27.530;33.863;34.347;38.184;29.057;26.599;22.538;37.998
9802.648;19.819;19.446;18.515;27.344;12.107;6.184;5.923;13.635
9802.656;16.131;20.750;14.342;26.114;4.359;-6.892;-9.052;0.633
9802.664;17.285;26.003;18.924;28.536;25.257;-4.284;-10.282;9.798
9802.672;31.106;40.755;37.737;34.049;35.278;11.884;1.490;33.602
9802.680;29.542;44.145;32.336;43.772;24.177;13.001;3.800;38.072
9802.688;23.469;36.657;16.317;39.823;26.636;9.909;1.304;30.734
9802.696;6.482;19.744;5.960;28.610;5.625;-2.310;-11.437;15.609
9802.704;8.941;16.131;19.483;33.751;7.227;1.080;-2.496;18.217
9802.712;20.526;30.659;26.450;29.691;23.507;-3.278;-0.894;15.721
9802.720;14.007;9.462;12.554;25.146;10.245;-4.061;-2.943;13.746
9802.728;26.785;26.748;32.671;41.090;28.387;16.540;15.981;32.708
9802.736;23.432;48.354;24.475;37.402;18.477;9.276;4.470;29.802
9802.744;18.924;41.462;21.234;39.414;13.560;8.456;4.694;20.228
9802.752;17.285;19.260;23.469;34.273;14.156;9.276;4.582;16.913
9802.760;15.721;18.701;22.873;28.498;8.494;8.754;6.221;19.893
9802.759;24.922;28.834;28.275;34.608;7.898;12.517;15.907;25.630
9802.767;28.126;30.510;23.320;39.637;10.878;11.548;14.864;29.914
9802.775;14.603;26.189;13.635;36.061;0.000;10.543;9.499;28.312
9802.783;4.023;16.838;3.688;23.395;-10.580;13.262;9.276;30.659
9802.791;13.225;19.260;18.366;23.358;-8.084;19.073;15.944;35.241
9802.799;21.979;24.252;29.393;29.095;7.488;23.916;22.724;34.422
9802.807;20.005;35.539;19.595;32.373;1.192;22.948;22.650;30.324
9802.815;7.711;18.142;17.174;29.169;-1.676;12.740;10.878;23.767
9802.823;20.489;26.263;18.775;29.951;5.327;8.680;9.015;25.630
9802.831;29.877;26.561;26.189;36.173;4.582;5.402;10.952;25.146
9802.839;22.724;17.472;18.477;36.210;-0.857;6.482;13.188;20.154
9802.847;28.908;48.503;28.349;48.652;10.990;10.543;11.213;24.661
9802.855;25.593;49.695;33.453;40.010;14.529;19.483;18.626;34.049
9802.863;27.232;26.412;25.965;25.257;2.682;22.538;19.632;36.508
9802.871;12.890;11.101;13.299;20.973;-11.288;28.759;21.942;44.368
9802.879;23.469;30.771;28.461;32.634;-2.719;39.302;33.863;52.117
9802.887;7.153;20.526;6.892;29.057;-9.164;19.446;13.970;32.000
9802.895;5.886;6.407;9.276;5.625;-11.921;11.437;4.992;24.661
9802.903;27.046;24.587;32.373;23.358;7.972;18.924;15.497;33.006
9802.911;17.546;29.840;23.209;32.820;-1.192;11.846;9.090;24.475
9802.919;15.721;16.615;17.211;26.189;-16.540;10.878;8.196;21.234
9802.927;13.821;17.770;19.222;27.753;-0.298;10.394;3.874;27.083
9802.935;9.015;23.320;12.219;22.165;3.241;16.615;12.331;27.679
9802.943;25.705;24.103;18.254;24.177;0.782;19.632;12.815;30.622
9802.951;22.650;18.105;27.306;24.065;-3.055;15.087;8.345;28.238
9802.959;10.692;20.191;10.021;18.142;-15.609;20.266;12.033;36.433
9802.967;12.442;29.206;25.779;27.679;6.929;14.268;6.668;29.765
9802.975;5.960;4.508;9.611;9.425;-2.645;15.050;9.015;30.398
9802.983;15.534;9.015;7.935;10.133;-7.711;13.746;6.706;26.673
9802.991;28.387;22.464;40.270;23.134;19.632;24.326;19.930;39.749
9802.999;-4.731;-12.890;5.588;-3.986;-5.662;6.929;7.749;20.340
9803.007;-12.927;-4.172;-14.231;-4.396;-17.732;-10.505;-8.382;1.416
9803.015;0.224;-2.384;-2.012;3.353;-3.129;-1.900;1.080;7.488
9803.023;15.460;5.662;17.509;7.004;5.588;9.015;10.245;19.111
9803.031;17.881;16.652;27.791;11.995;10.282;19.483;18.626;27.530
9803.039;16.764;13.113;24.214;16.466;15.050;26.375;21.197;31.032
9803.047;1.378;-0.224;4.731;6.519;-3.949;9.015;2.384;16.615
9803.055;12.480;18.813;7.749;15.870;0.112;11.213;5.625;20.862
9803.063;16.466;18.552;14.156;22.948;23.693;17.472;13.784;25.705
9803.071;12.890;10.692;9.686;9.127;4.955;17.323;14.007;30.622
9803.079;2.943;15.646;25.779;14.752;0.335;9.425;10.915;23.171
9803.087;16.876;17.919;23.507;21.122;11.995;7.711;10.133;23.320
9803.095;25.295;25.444;18.887;16.429;13.486;11.995;15.199;28.871
9803.103;10.133;5.811;6.109;13.262;10.170;11.660;15.050;22.650
9803.111;1.378;-4.806;-1.155;3.055;1.900;11.660;9.127;16.652
9803.119;6.668;14.268;13.411;10.990;6.072;25.369;19.222;25.667
9803.127;1.416;11.809;12.442;19.632;2.198;21.458;13.746;23.209
9803.135;19.930;24.214;28.461;21.905;20.675;21.830;14.789;25.965
9803.136;15.423;12.591;18.328;16.466;20.638;18.738;13.262;24.661
9803.144;4.992;4.619;-6.482;0.782;4.731;4.247;-1.565;11.660
9803.152;-4.433;2.235;1.341;1.155;-4.247;1.863;-4.731;1.229
9803.160;26.561;25.705;28.238;19.111;17.807;18.589;11.772;19.781
9803.168;17.434;22.873;28.946;9.835;26.561;20.936;10.952;26.189
9803.176;-1.416;-0.484;8.084;-5.811;5.960;2.123;-8.978;4.843
9803.184;-3.651;2.198;-2.645;-3.017;8.792;-1.341;-13.374;4.247
9803.192;22.352;17.956;25.406;17.136;28.275;25.705;15.832;30.175
9803.200;26.301;23.134;30.585;18.552;24.326;28.275;20.079;32.671
9803.208;9.499;12.964;10.021;9.537;11.809;22.389;14.268;26.561
9803.216;16.168;22.650;24.922;6.594;27.791;11.884;3.763;23.320
9803.224;18.440;28.387;33.416;20.787;32.522;6.557;1.006;20.564
9803.232;14.752;16.503;16.093;15.832;14.976;7.227;3.576;19.483
9803.240;2.310;12.070;7.600;10.915;11.846;2.123;-1.043;14.342
9803.248;-0.149;13.039;2.123;3.502;1.118;2.980;0.969;7.041
9803.256;5.029;6.407;-4.098;-4.470;8.829;3.539;1.155;7.004
9803.264;-3.316;-3.390;2.235;-8.158;20.899;-2.161;-7.823;2.049
9803.272;-9.649;-1.453;-10.468;-11.362;3.614;-2.570;-5.960;-0.671
9803.280;8.866;9.760;9.350;-4.321;15.236;1.863;-2.645;6.892
9803.288;10.058;13.523;21.942;-11.325;31.851;6.296;-2.719;16.354
9803.296;2.719;-3.502;12.219;-19.111;28.647;2.198;-10.319;14.454
9803.304;-5.849;-8.866;-1.304;-20.787;28.871;2.906;-10.692;20.675
9803.312;-10.170;-1.304;1.788;-25.108;20.526;3.837;-5.327;18.738
9803.320;-12.554;-10.915;-3.390;-30.026;19.446;-2.086;-12.368;7.078
9803.356;-4.806;-9.947;-1.863;-39.041;17.211;4.694;-8.680;8.047
9803.364;-11.399;-6.892;10.878;-26.599;17.732;5.290;-6.482;10.468
9803.372;-17.770;-15.050;0.373;-23.656;26.450;3.986;-7.786;8.978
9803.380;-0.820;-1.527;1.267;-16.280;29.802;12.852;2.310;20.005
9803.388;7.898;-6.370;4.396;-17.583;26.338;11.027;4.619;21.309
9803.396;6.892;10.021;17.099;-20.191;33.490;8.382;5.141;19.893
9803.404;-13.970;9.090;-1.155;-16.652;13.150;-9.127;-10.803;6.780
9803.412;-23.022;-9.127;-8.382;-16.354;-1.751;-10.133;-14.119;5.662
9803.420;-17.919;-10.952;-8.419;-30.249;12.666;-3.800;-11.027;12.964
9803.428;7.562;15.534;-0.969;-14.901;39.376;9.388;0.857;26.524
9803.436;25.406;28.163;25.555;9.537;48.466;25.332;17.397;39.600
9803.444;9.276;0.261;18.701;-6.445;39.153;9.201;0.484;20.526
9803.452;-13.411;-12.852;-4.321;-17.360;18.328;-2.757;-12.480;10.505
9803.460;-22.538;4.359;-9.499;-22.165;0.484;-4.135;-9.909;7.115
9803.468;-3.278;4.768;-1.006;-25.183;23.693;-7.935;-12.517;6.892
9803.476;-2.794;2.086;3.092;-20.042;31.926;5.290;0.894;26.636
9803.484;-17.770;-21.346;-5.327;-26.450;25.369;-8.829;-14.491;5.700
9803.492;-30.771;-32.857;-9.090;-36.582;9.723;-24.624;-31.181;-12.442
9803.500;-17.323;-12.070;1.900;-24.661;16.801;-9.276;-14.156;2.161
9803.508;7.227;4.023;14.454;-8.158;26.263;2.384;-3.986;18.515
9803.516;6.706;9.984;9.835;-8.792;27.902;10.692;5.104;27.753
9803.524;-9.723;-1.080;-5.700;-18.477;21.681;5.364;-0.708;16.615
9803.532;-21.793;-16.727;-14.119;-22.575;17.397;1.863;-4.843;10.431
9803.540;-4.992;9.686;9.947;-6.631;27.455;7.451;-0.484;16.987
9803.521;9.239;16.131;19.930;-5.439;24.550;12.629;3.576;26.859
9803.529;0.894;-3.390;5.737;-22.389;12.368;10.841;5.290;25.705
9803.537;-4.023;-9.350;4.917;-22.352;12.927;12.591;8.754;27.567
9803.545;-10.245;-13.933;1.863;-16.242;14.305;10.356;5.066;25.034
9803.553;-5.588;2.719;-4.321;-4.843;18.291;8.903;4.843;17.025
9803.561;0.559;8.494;15.125;-6.370;13.150;3.986;2.161;11.846
9803.569;4.843;7.339;16.727;-12.107;12.927;11.027;9.276;18.142
9803.577;2.570;11.697;11.325;-9.798;14.380;18.217;16.317;23.842
9803.585;-4.843;1.118;11.288;-11.958;15.572;9.313;8.903;17.062
9803.593;15.572;10.766;12.778;2.049;22.352;14.044;17.174;20.936
9803.601;14.678;5.476;12.368;-7.339;29.691;3.204;4.731;10.654
9803.609;12.070;4.843;9.462;-15.236;17.509;1.527;0.931;11.958
9803.617;6.072;4.470;23.991;-10.617;20.638;2.645;2.757;13.784
9803.625;-11.362;-13.933;6.407;-31.218;11.437;-3.614;-3.763;11.362
9803.633;7.041;-4.396;14.156;-12.554;17.472;6.482;8.456;19.185
9803.641;8.084;8.158;4.284;-15.832;19.222;7.451;9.649;17.472
9803.649;3.353;7.674;5.923;-13.374;21.309;9.872;9.835;16.317
9803.657;8.605;16.317;29.206;-0.373;23.805;16.838;17.509;21.383
9803.665;13.039;12.591;33.118;2.831;26.859;22.501;24.773;29.504
9803.673;0.112;-11.958;8.419;-12.778;6.631;0.857;3.465;1.825
9803.681;0.484;-3.874;-5.998;-15.348;-0.298;-6.929;-4.061;-2.645
9803.689;-4.880;-4.806;-8.456;-23.991;8.009;-0.261;6.333;7.823
9803.697;-6.035;-5.625;-0.522;-22.501;12.815;0.820;6.594;12.740
9803.705;-3.092;0.000;9.574;-10.207;14.640;9.909;14.193;24.177
9803.730;-14.715;-18.850;-0.857;-19.222;0.224;12.666;16.913;23.283
9803.738;-19.446;-13.895;-15.162;-20.787;-7.115;11.474;10.431;22.091
9803.746;-11.288;-9.649;-2.459;-21.458;3.092;14.529;10.170;25.742
9803.754;2.272;-8.121;7.153;-24.810;6.929;-0.708;-2.831;8.456
9803.762;2.049;-8.270;16.242;-14.007;24.065;3.278;7.227;13.635
9803.770;8.270;17.397;15.050;5.104;26.748;12.964;19.111;23.842
9803.778;19.111;22.575;24.512;4.210;25.816;6.966;11.697;21.905
9803.786;7.935;11.288;13.933;-9.760;12.815;3.055;9.164;17.434
9803.794;3.278;0.335;6.929;-16.689;8.345;-0.335;3.986;12.815
9803.802;-13.374;-24.438;8.829;-28.014;15.609;-3.390;-1.714;9.313
9803.810;-0.969;-16.205;11.772;-14.752;14.268;5.253;7.525;12.331
9803.818;2.235;5.737;7.674;-11.250;21.420;-1.118;-2.198;8.009
9803.826;16.466;18.366;12.256;-6.594;30.473;9.388;7.376;20.973
9803.834;20.154;20.936;23.507;0.633;27.344;18.440;17.844;28.759
9803.842;2.608;0.559;19.893;-14.454;12.368;8.345;8.270;15.907
9803.850;1.267;-9.574;23.879;-8.829;24.028;2.198;7.302;6.892
9803.858;11.809;7.860;28.983;2.161;34.198;-0.447;7.749;6.482
9803.866;12.368;10.245;17.323;-0.447;23.209;1.602;9.537;8.643
9803.874;23.469;17.285;29.057;13.374;40.792;10.617;17.583;22.054
9803.882;9.499;11.399;14.082;-5.625;20.266;-7.898;-4.508;10.505
9803.890;-11.772;-8.494;-1.900;-22.203;7.451;-16.913;-14.380;-10.207
9803.898;-7.749;-3.725;8.419;-14.938;10.468;-7.153;-6.072;-0.931
9803.906;15.162;17.285;21.681;8.903;30.994;13.523;15.683;19.260
9803.914;13.597;17.807;16.540;2.198;31.553;20.862;23.991;27.865
9803.922;5.066;4.396;15.385;-15.423;21.197;5.923;5.215;17.434
9803.930;10.952;4.061;21.122;-9.015;31.739;2.533;2.608;15.758
9803.938;11.250;-1.043;28.424;-5.104;44.852;5.662;8.680;21.756
9803.946;12.256;4.210;31.516;-15.497;31.404;2.757;9.239;16.019
9803.956;7.860;-7.860;30.287;-22.613;31.069;-8.829;-0.149;-0.596
9803.964;0.000;-1.825;17.211;-21.867;30.063;-11.586;-5.066;-4.284
9803.972;11.697;27.828;19.372;-5.551;28.871;-2.049;2.012;5.625
9803.980;7.339;10.543;9.499;-9.723;22.426;-3.539;2.570;7.562
9803.988;0.261;-4.992;17.993;-19.260;27.642;-1.639;5.700;8.680
9803.996;12.890;1.714;22.091;-14.231;30.920;-0.522;4.508;6.519
9804.004;6.445;-5.588;7.786;-12.964;14.640;-3.055;2.757;3.353
9804.012;-6.929;5.849;9.015;-13.411;13.150;-9.015;-1.751;-0.112
9804.020;-2.757;2.794;10.692;-19.446;22.165;-12.890;-4.955;2.682
9804.028;7.898;-6.147;6.407;-20.340;23.954;-10.990;-0.298;6.184
9804.036;-2.533;-4.321;3.651;-20.601;26.375;-12.219;-2.049;6.743
9804.044;-6.407;-4.694;9.127;-21.048;27.493;-11.474;-5.066;5.476
9804.052;-3.353;-5.476;3.986;-25.965;14.864;-13.448;-9.686;-0.633
9804.060;-15.795;-19.819;-0.112;-36.135;4.731;-28.908;-25.705;-18.589
9804.068;-24.922;-24.438;-11.064;-39.302;-8.270;-28.126;-24.587;-17.583
9804.076;-5.066;-19.334;-1.155;-36.880;11.474;-19.521;-13.970;-7.525
9804.084;-3.651;-12.256;4.284;-31.330;33.230;-9.723;-5.513;4.284
9804.092;5.774;-0.559;20.154;-16.987;41.127;-5.551;-0.633;2.161
9804.100;-6.035;-19.073;11.772;-34.198;23.134;-18.142;-15.162;-5.476
9804.108;-22.426;-20.824;-11.325;-33.081;3.576;-23.954;-21.718;-11.735
9804.116;-7.860;-6.668;-7.488;-10.058;13.188;-16.578;-12.219;-1.639
9804.124;-13.448;-19.260;-13.448;-38.482;1.416;-31.218;-27.046;-13.076
9804.132;-21.346;-28.722;-18.217;-43.772;5.737;-30.845;-24.810;-19.111
9804.140;-15.087;-22.203;-13.448;-42.059;22.165;-24.065;-19.222;-12.368
9804.181;-18.254;-21.905;-1.974;-43.623;17.956;-11.660;-4.210;0.894
9804.189;-11.511;-15.013;2.310;-26.822;17.658;-4.508;2.310;4.321
9804.197;-9.649;-11.772;4.284;-18.291;17.546;-0.745;2.645;7.860
9804.205;-11.846;-17.621;-7.078;-29.467;11.995;-8.009;-2.645;1.900
9804.213;-22.613;-46.976;-19.707;-51.595;11.139;-28.834;-21.644;-12.815
9804.221;-23.171;-46.566;-17.434;-54.389;10.505;-28.685;-24.512;-12.033
9804.229;-23.395;-35.539;-26.487;-41.202;12.480;-21.085;-19.819;-3.614
9804.237;-22.538;-18.254;-19.521;-27.679;16.764;-13.895;-11.139;1.490
9804.245;-15.125;-18.924;-4.284;-24.550;10.431;-12.964;-8.084;-0.447
9804.253;-13.299;-12.033;-5.476;-15.683;13.784;-15.423;-11.511;-2.682
9804.261;-6.296;-11.362;-5.178;-13.709;22.687;-12.927;-9.313;-4.098
9804.269;5.923;-17.956;0.671;-15.274;30.510;-14.454;-15.832;-4.694
9804.277;12.629;-0.373;8.456;-11.660;36.545;0.559;-1.267;12.591
9804.285;4.210;3.092;-7.376;-6.631;24.624;-0.708;-0.969;11.250
9804.293;19.707;17.695;15.497;8.196;50.403;21.122;16.429;37.774
9804.301;44.703;29.542;48.168;23.767;73.165;46.901;39.004;64.410
9804.309;36.620;17.732;42.506;26.077;64.075;37.067;32.149;48.243
9804.317;31.739;22.575;37.588;25.518;63.889;33.341;30.920;42.915
9804.325;64.485;44.070;54.874;37.253;88.103;54.017;49.360;62.808
9804.333;58.487;39.637;52.378;43.288;90.525;48.541;40.680;58.301
9804.341;55.954;38.780;49.844;37.849;82.999;54.389;47.274;65.044
9804.349;67.465;61.691;69.439;49.248;98.124;63.814;54.203;76.853
9804.357;54.017;48.168;61.393;44.107;94.548;58.189;50.701;64.522
9804.365;54.240;33.900;54.203;37.216;84.229;55.060;54.352;57.630
9804.315;53.272;26.487;50.366;29.467;92.760;55.656;57.332;61.654
9804.323;56.513;36.955;38.706;34.571;91.046;56.475;58.264;57.071
9804.331;55.060;35.912;25.108;34.906;84.080;48.466;51.334;52.638
9804.339;43.549;20.824;40.829;22.016;75.847;46.641;49.099;53.234
9804.347;51.409;48.466;68.843;37.365;82.962;55.768;52.899;59.754
9804.355;58.189;48.801;62.920;45.411;91.307;60.536;55.060;65.714
9804.363;51.297;32.932;48.243;35.688;95.181;54.576;48.839;52.936
9804.371;59.679;17.099;45.039;18.440;89.891;44.256;34.608;41.053
9804.379;63.069;23.618;44.592;33.192;95.330;54.762;43.847;62.026
9804.387;57.332;49.993;53.644;43.921;94.436;53.272;45.672;56.326
9804.395;49.062;52.005;48.764;35.167;90.562;42.766;34.086;44.592
9804.403;45.039;30.920;37.104;17.695;76.704;34.310;22.538;40.084
9804.411;37.998;20.713;39.749;15.683;65.528;25.891;14.082;32.187
9804.419;47.982;15.572;41.798;18.068;70.333;32.261;19.595;44.331
9804.427;64.261;32.000;50.440;38.035;97.118;48.615;36.955;60.648
9804.435;64.708;34.980;59.158;40.047;110.455;55.842;45.188;64.410
9804.443;55.879;38.147;58.599;37.402;101.663;53.942;41.500;58.897
9804.451;64.112;43.996;65.491;42.580;100.285;51.558;36.508;59.977
9804.459;77.598;54.985;66.608;51.782;93.579;52.303;40.121;62.771
9804.467;71.302;62.697;51.782;50.776;83.521;52.154;47.088;55.134
9804.475;58.524;47.460;52.340;38.072;74.729;41.462;32.932;43.958
9804.483;56.177;28.200;46.827;17.546;86.464;31.479;20.079;36.620
9804.491;49.956;24.624;45.337;20.191;88.774;25.742;15.572;34.496
9804.499;57.220;33.304;57.258;35.912;87.284;26.971;18.664;43.735
9804.513;52.229;27.902;44.666;29.653;73.314;12.890;2.347;27.344
9804.521;47.944;29.281;32.783;29.616;63.628;1.676;-8.792;9.462
9804.529;63.330;26.338;43.698;31.255;72.420;18.626;8.233;23.395
9804.537;82.254;50.701;68.396;52.154;96.858;37.625;27.157;42.021
9804.545;74.804;46.976;61.132;40.419;92.238;33.975;23.656;39.414
9804.553;69.812;48.280;53.681;29.318;84.005;20.675;7.898;25.593
9804.561;73.723;61.207;63.479;42.655;97.714;24.214;10.021;32.485
9804.569;85.905;65.863;73.686;56.364;97.193;35.204;26.040;44.554
9804.577;110.790;79.833;99.614;71.451;111.796;51.819;41.984;67.763
9804.585;108.816;73.053;92.424;67.763;112.653;59.977;50.291;77.449
9804.593;82.403;35.912;68.098;44.331;97.267;41.313;32.447;48.056
9804.601;73.649;29.765;56.401;31.516;92.909;37.029;28.908;47.497
9804.609;70.855;50.478;51.409;35.018;81.919;27.418;16.205;37.365
9804.617;56.997;37.961;47.386;29.057;77.300;12.480;-3.576;20.415
9804.625;64.969;42.841;48.913;27.604;77.933;22.650;6.743;33.230
9804.633;56.326;35.167;36.694;17.844;64.038;19.111;1.825;28.089
9804.641;45.784;18.924;34.310;10.654;57.258;3.651;-12.144;11.213
9804.649;48.764;21.160;30.510;13.337;67.391;12.815;-2.161;22.538
9804.657;66.869;29.691;46.901;17.434;76.517;12.182;-3.837;17.583
9804.665;71.600;39.935;58.450;26.263;74.618;10.729;-7.264;19.521
9804.673;71.153;38.259;56.736;28.461;74.357;14.044;-2.645;24.401
9804.681;63.255;28.051;55.321;20.713;74.878;3.055;-11.735;13.560
9804.689;66.496;36.582;49.546;18.477;74.208;2.794;-13.299;14.752
9804.697;49.733;12.927;32.634;9.425;61.840;-12.405;-27.642;-1.788
9804.706;39.078;2.533;15.944;1.453;57.891;-16.280;-29.095;-2.868
9804.714;46.305;11.101;20.787;-5.327;48.578;-22.128;-33.304;-17.658
9804.722;54.985;25.257;39.637;8.009;59.269;-13.709;-27.865;-8.419
9804.730;48.876;20.191;35.651;8.754;55.842;-3.800;-17.583;4.582
9804.738;42.394;6.370;27.455;-1.043;50.478;-6.296;-20.973;2.794
9804.746;43.549;6.743;26.897;2.757;55.768;-3.763;-14.603;4.582
9804.754;41.388;3.837;26.301;-1.490;57.444;-1.416;-12.331;10.245
9804.762;38.147;7.562;20.638;-10.580;47.460;-15.125;-29.877;-5.960
9804.770;48.168;21.122;21.160;6.147;53.793;-10.319;-25.257;-6.631
9804.778;49.919;9.574;28.498;2.198;60.536;-9.537;-26.971;-6.370
9804.786;64.187;29.393;52.340;11.064;73.351;5.662;-13.039;14.231
9804.794;77.076;38.147;67.428;15.981;87.209;20.526;6.407;31.479
9804.802;55.954;10.431;36.769;-9.388;82.850;-0.261;-8.866;2.012
9804.810;45.896;9.984;19.819;-7.004;71.526;-4.731;-12.442;-0.633
9804.818;52.415;18.850;41.090;5.737;61.244;-1.304;-10.319;2.719
9804.826;74.357;33.453;55.023;24.997;74.245;20.824;11.846;26.375
9804.834;65.938;22.687;50.515;16.801;80.541;18.366;1.863;25.891
9804.842;55.544;15.907;38.892;8.903;68.396;3.353;-18.515;12.182
9804.850;53.495;4.806;38.147;4.359;80.690;11.213;-7.078;18.179
9804.858;54.911;6.855;38.370;-0.112;66.534;7.004;-4.135;16.317
9804.866;67.092;55.768;44.890;31.702;71.451;9.760;3.241;19.483
9804.874;69.737;51.260;53.123;34.161;75.959;10.692;4.955;17.844
9804.882;73.276;42.580;46.007;24.363;63.293;4.433;-6.407;18.924
9804.890;58.375;21.905;28.275;4.694;56.811;-1.378;-14.864;14.938
9804.905;53.756;16.540;35.241;7.488;71.451;0.969;-11.772;14.901
9804.913;59.307;16.950;38.482;15.087;73.314;14.529;1.490;30.287
9804.921;53.309;16.466;41.611;5.364;54.389;4.470;-10.654;14.566
9804.929;60.946;19.707;49.323;13.188;55.991;5.551;-10.170;15.758
9804.937;72.122;34.384;45.933;20.266;47.013;9.574;-1.080;21.234
9804.945;72.345;55.470;49.323;35.837;61.169;13.672;6.631;17.956
9804.953;63.740;27.232;37.178;19.744;63.851;17.546;8.866;23.022
9804.961;64.932;24.810;36.024;12.778;61.020;18.142;7.972;23.693
9804.969;56.550;30.845;50.217;16.168;62.063;18.366;5.625;27.828
9804.977;68.881;31.367;44.666;14.491;51.968;18.179;7.525;34.198
9804.985;74.171;24.214;40.680;15.050;55.954;13.039;3.651;30.287
9804.993;72.271;36.359;50.813;20.079;69.663;12.629;-1.714;28.536
9805.001;83.521;58.115;66.422;29.281;69.961;22.389;5.066;35.986
9805.009;68.732;32.783;53.421;16.354;60.275;25.742;9.164;43.549
9805.017;65.602;32.373;44.815;16.578;61.430;32.298;22.314;38.631
9805.025;126.362;79.870;100.732;66.608;111.163;74.692;61.616;77.263
9805.033;153.184;99.987;127.032;88.364;136.532;99.167;87.582;104.308
9805.041;160.821;120.923;145.957;100.546;145.175;109.449;98.348;125.356
9805.049;51.744;17.770;26.934;-5.551;33.043;2.608;-8.717;5.588
9805.057;17.919;-20.713;-7.749;-36.880;4.396;-18.142;-32.745;-11.399
9805.065;65.081;13.709;46.119;7.115;50.105;11.846;-3.017;17.062
