Timestamp,AFz,AF3,AF4,AF7,AF8,Pz,P3,P4,2024-04-18 12:27:17.856,fs=125
3028368.894;68.173;61.244;37.886;8.382;100.620;30.659;49.546;45.300
3028368.902;77.114;71.898;47.535;21.495;120.327;35.539;58.450;51.260
3028368.910;81.025;74.804;56.438;26.003;127.330;39.153;63.591;53.942
3028368.918;78.231;66.981;54.687;16.056;124.238;42.506;63.591;57.667
3028368.926;70.035;56.103;47.460;12.927;111.461;43.474;59.642;60.238
3028368.934;54.352;45.858;27.902;-4.843;89.630;38.743;48.503;59.791
3028368.942;53.532;50.999;27.530;2.272;87.209;35.726;45.076;61.430
3028368.950;55.209;52.974;29.095;9.760;94.213;33.453;47.013;61.207
3028368.958;49.509;43.474;19.781;-2.421;83.968;24.661;43.400;51.968
3028368.966;46.827;41.649;19.372;-4.694;75.549;18.366;43.623;42.990
3028368.974;53.197;45.747;26.375;3.986;83.782;19.670;50.254;44.405
3028368.982;53.495;47.572;24.699;3.166;80.988;19.222;51.968;45.858
3028368.990;52.080;48.056;27.530;3.725;78.976;15.832;49.323;45.896
3028368.998;54.762;51.111;29.430;9.164;90.897;13.709;49.360;48.168
3028369.006;51.185;44.703;28.312;2.049;83.596;15.944;52.229;51.782
3028369.014;60.834;63.218;40.457;17.844;91.158;23.246;58.115;61.505
3028369.022;58.934;62.920;36.769;21.085;87.582;14.342;48.466;56.103
3028369.030;43.698;45.225;20.489;4.135;69.924;0.224;33.416;44.703
3028369.038;35.316;34.720;12.964;-6.668;64.820;-11.250;22.948;36.545
3028369.046;37.178;39.972;21.867;2.272;79.796;-15.460;19.968;32.522
3028369.054;32.708;41.574;14.044;6.184;74.841;-20.303;15.013;28.498
3028369.062;33.937;39.376;18.068;1.080;75.214;-19.930;15.274;28.685
3028369.070;29.951;30.436;15.125;-6.370;65.491;-20.340;13.374;28.238
3028369.078;33.490;38.333;16.503;-0.149;65.826;-13.821;20.452;33.043
3028369.074;47.982;54.687;26.301;20.564;71.637;-3.055;35.316;40.978
3028369.082;39.190;50.664;20.340;9.276;67.465;-12.144;27.753;33.192
3028369.090;27.344;34.645;13.076;-5.141;68.992;-17.509;21.830;29.951
3028369.098;31.255;40.531;16.950;-5.774;66.496;-10.021;29.504;37.029
3028369.106;49.174;54.315;34.049;13.933;80.951;4.321;42.394;50.291
3028369.114;52.713;57.705;37.290;13.672;82.962;7.488;44.554;52.452
3028369.122;41.835;42.357;29.169;-2.533;72.084;-0.298;34.347;46.641
3028369.130;28.946;30.771;16.168;-17.248;60.461;-2.049;29.951;44.964
3028369.138;23.358;29.318;6.221;-11.288;50.403;-5.662;25.854;41.686
3028369.146;19.483;21.867;3.092;-8.456;54.277;-10.021;22.762;40.606
3028369.154;27.865;32.596;13.262;-5.551;60.461;-8.270;27.567;40.643
3028369.162;35.651;44.890;21.011;2.123;69.998;-5.029;34.124;42.357
3028369.170;28.946;36.359;11.511;-1.192;54.464;-6.147;34.347;40.084
3028369.178;33.975;36.396;23.618;7.376;68.508;-2.757;37.663;42.208
3028369.186;42.468;49.695;29.057;13.709;79.758;-0.969;37.327;45.225
3028369.194;39.376;49.323;23.618;5.886;68.545;-1.416;34.608;43.996
3028369.202;32.336;35.539;16.578;-2.384;57.407;-0.298;34.012;48.354
3028369.210;29.840;36.396;10.058;-0.186;55.842;0.820;34.571;50.552
3028369.218;30.436;38.333;13.933;6.966;56.736;0.447;35.278;51.633
3028369.226;24.550;30.361;5.960;-1.565;49.323;-4.806;31.888;48.354
3028369.234;18.738;26.524;-0.782;-11.325;36.843;-8.047;32.708;42.506
3028369.242;18.068;29.989;3.614;-10.468;39.823;-20.973;25.034;30.138
3028369.250;7.376;17.174;-5.662;-13.672;38.184;-37.886;11.921;14.976
3028369.258;-26.077;-20.154;-38.967;-49.882;9.313;-79.796;-28.051;-24.773
3028369.255;-36.955;-26.301;-52.527;-56.997;-11.548;-94.660;-42.245;-39.265
3028369.263;-44.368;-29.020;-60.499;-60.126;-24.848;-102.036;-51.185;-46.864
3028369.271;-49.211;-36.769;-61.914;-65.789;-28.498;-105.314;-54.315;-51.558
3028369.279;-53.383;-41.202;-66.422;-76.443;-29.914;-102.893;-51.595;-51.633
3028369.287;-51.931;-39.190;-63.106;-74.767;-19.036;-95.591;-45.337;-45.225
3028369.295;-47.050;-30.547;-56.028;-55.879;-12.778;-85.384;-35.018;-36.396
3028369.303;-51.036;-40.643;-58.003;-66.087;-19.073;-81.398;-31.441;-35.800
3028369.311;-57.295;-48.354;-64.522;-77.672;-25.406;-84.378;-35.763;-37.774
3028369.319;-57.593;-50.254;-65.006;-78.268;-24.550;-90.413;-41.090;-40.084
3028369.327;-52.266;-41.276;-62.063;-73.016;-24.475;-90.338;-40.159;-37.998
3028369.335;-43.921;-31.255;-53.532;-67.092;-27.083;-92.052;-41.537;-38.780
3028369.343;-40.159;-31.665;-51.595;-56.289;-13.374;-92.760;-41.649;-43.139
3028369.351;-37.402;-25.630;-47.237;-47.944;-9.499;-94.511;-42.804;-45.113
3028369.359;-41.425;-23.618;-46.827;-50.515;-5.625;-92.946;-43.288;-45.300
3028369.367;-44.480;-26.748;-48.280;-54.799;-9.909;-88.550;-41.388;-42.319
3028369.375;-31.255;-17.062;-36.061;-45.262;-1.416;-79.013;-33.118;-34.831
3028369.383;-25.555;-12.256;-28.126;-46.082;1.192;-75.623;-32.634;-33.937
3028369.391;-16.503;-3.800;-21.569;-33.528;4.433;-71.414;-31.143;-30.808
3028369.399;-1.416;14.380;-9.015;-13.001;8.717;-66.981;-26.003;-27.269
3028369.407;5.215;26.785;-1.006;-1.006;22.724;-72.457;-29.355;-32.373
3028369.415;16.838;34.645;16.317;6.557;42.282;-79.088;-35.018;-37.886
3028369.423;30.287;55.470;34.310;13.821;57.407;-77.374;-33.118;-35.949
3028369.431;30.994;57.481;33.863;16.429;60.089;-81.956;-40.717;-37.290
3028369.439;40.755;72.010;45.896;41.649;66.422;-80.802;-44.294;-34.496
3028369.449;59.940;90.934;63.479;65.565;88.811;-63.479;-28.089;-17.583
3028369.457;59.381;93.207;58.860;53.532;85.868;-62.548;-25.518;-16.615
3028369.465;49.174;84.825;53.644;50.776;79.423;-66.385;-28.685;-21.942
3028369.473;46.715;75.065;48.764;51.484;76.517;-67.949;-30.212;-23.209
3028369.481;36.396;65.751;31.926;37.178;54.352;-71.898;-32.857;-26.971
3028369.489;22.911;54.240;15.199;21.309;36.471;-73.127;-31.590;-31.330
3028369.497;11.027;41.202;4.657;7.860;29.393;-77.561;-34.049;-35.390
3028369.505;-5.849;23.283;-18.552;-2.459;6.594;-81.994;-36.508;-39.637
3028369.513;-18.254;5.253;-27.567;-21.979;1.341;-84.005;-38.706;-39.227
3028369.521;-25.034;-9.350;-34.533;-31.255;7.711;-81.062;-38.929;-33.453
3028369.529;-37.625;-28.573;-45.598;-37.402;-13.188;-81.956;-41.835;-30.585
3028369.537;-57.966;-58.375;-67.130;-61.356;-32.745;-83.558;-43.102;-30.920
3028369.545;-64.969;-59.009;-77.635;-74.506;-43.958;-84.899;-43.213;-33.081
3028369.553;-57.146;-29.989;-68.955;-57.854;-31.404;-88.178;-46.007;-35.875
3028369.561;-60.983;-40.792;-66.943;-61.914;-29.169;-89.817;-43.958;-38.184
3028369.569;-61.654;-45.858;-73.537;-61.616;-36.843;-86.464;-38.631;-37.551
3028369.577;-66.608;-56.028;-83.409;-66.869;-49.472;-84.676;-37.439;-36.471
3028369.585;-74.953;-61.393;-84.862;-74.580;-47.795;-88.252;-41.872;-41.239
3028369.593;-78.231;-58.711;-90.823;-75.698;-47.311;-88.513;-42.208;-42.431
3028369.601;-86.538;-71.637;-100.620;-89.966;-60.871;-89.854;-42.282;-45.300
3028369.609;-80.019;-68.545;-93.393;-85.682;-60.573;-80.280;-33.043;-37.625
3028369.617;-78.380;-62.510;-92.164;-77.784;-56.811;-71.488;-24.065;-29.989
3028369.625;-88.997;-70.967;-99.801;-77.896;-60.983;-78.902;-30.808;-35.390
3028369.633;-100.061;-81.584;-111.684;-91.605;-75.772;-94.175;-47.237;-46.864
3028369.645;-99.391;-82.515;-111.274;-95.293;-72.382;-89.929;-41.872;-42.841
3028369.653;-94.697;-81.174;-103.936;-103.302;-67.167;-85.384;-35.763;-39.525
3028369.661;-88.699;-72.569;-96.075;-97.975;-57.146;-81.137;-30.845;-34.831
3028369.669;-77.710;-60.610;-87.358;-79.088;-45.188;-64.708;-14.715;-19.185
3028369.677;-81.509;-69.514;-91.903;-85.048;-53.570;-60.461;-12.629;-15.423
3028369.685;-80.243;-65.491;-89.556;-80.951;-50.962;-57.220;-8.233;-14.566
3028369.693;-90.636;-71.824;-101.216;-79.498;-60.163;-61.020;-12.890;-17.956
3028369.701;-113.472;-103.712;-123.233;-115.298;-80.578;-75.921;-31.367;-31.926
3028369.709;-122.078;-116.155;-131.540;-130.050;-84.937;-81.882;-39.339;-37.886
3028369.717;-101.291;-84.750;-113.994;-101.738;-74.618;-61.430;-16.354;-22.016
3028369.725;-81.174;-59.791;-91.009;-71.861;-45.411;-38.557;5.923;-3.166
3028369.733;-91.232;-78.082;-99.987;-82.217;-48.168;-44.778;-2.272;-9.462
3028369.741;-102.781;-89.929;-114.851;-96.336;-70.706;-53.346;-11.995;-20.005
3028369.749;-103.861;-82.701;-115.559;-86.352;-75.847;-49.472;-9.276;-20.862
3028369.757;-104.606;-85.346;-111.535;-84.154;-67.502;-52.415;-14.529;-21.271
3028369.765;-109.673;-91.679;-114.627;-91.568;-66.198;-56.438;-21.383;-23.171
3028369.773;-125.989;-109.039;-132.360;-115.782;-80.951;-79.349;-42.282;-47.572
3028369.781;-126.101;-107.475;-136.495;-121.854;-98.199;-75.661;-37.402;-44.629
3028369.789;-97.267;-77.598;-101.179;-84.229;-62.399;-69.924;-31.926;-38.967
3028369.797;-64.820;-46.268;-66.049;-57.444;-15.609;-55.432;-15.870;-27.940
3028369.805;-34.384;-22.762;-33.565;-46.045;26.412;-36.247;3.502;-8.568
3028369.813;-31.330;-18.440;-28.759;-50.999;27.977;-43.437;-5.066;-15.385
3028369.821;-35.986;-15.646;-40.196;-60.461;16.578;-49.286;-14.938;-20.787
3028369.829;-42.394;-25.481;-45.598;-67.763;15.236;-56.587;-25.555;-28.573
3028369.854;-48.168;-31.404;-48.466;-73.873;19.446;-63.144;-34.794;-33.528
3028369.862;-56.252;-38.408;-59.940;-78.417;8.084;-70.296;-40.755;-39.041
3028369.870;-54.911;-39.563;-59.493;-75.400;2.533;-65.677;-36.843;-33.826
3028369.878;-61.728;-46.194;-63.106;-85.160;5.476;-66.049;-36.806;-34.198
3028369.886;-58.264;-40.643;-55.693;-88.513;28.871;-67.316;-35.875;-36.322
3028369.894;-45.076;-24.587;-43.362;-61.430;40.643;-59.344;-28.200;-26.971
3028369.902;-40.308;-17.434;-44.368;-46.007;29.132;-56.662;-24.810;-24.512
3028369.910;-45.933;-25.146;-42.990;-56.066;29.206;-58.562;-26.673;-28.908
3028369.918;-54.613;-34.012;-53.346;-72.643;24.401;-58.413;-27.567;-29.020
3028369.926;-70.482;-53.830;-74.580;-85.980;0.522;-62.771;-33.416;-37.290
3028369.934;-65.044;-46.082;-72.718;-80.280;3.241;-51.484;-23.656;-28.387
3028369.942;-59.605;-40.457;-63.442;-76.331;12.890;-48.056;-21.942;-23.991
3028369.950;-49.546;-25.220;-54.091;-56.587;19.707;-44.778;-19.409;-18.887
3028369.958;-40.643;-14.305;-44.107;-50.701;27.530;-39.227;-15.013;-10.692
3028369.966;-48.131;-26.263;-54.985;-62.361;9.499;-47.423;-21.942;-17.062
3028369.974;-54.538;-39.600;-62.399;-68.918;4.657;-54.128;-26.114;-22.352
3028369.982;-55.134;-41.761;-60.387;-76.033;14.976;-47.497;-17.658;-16.764
3028369.990;-40.568;-18.515;-46.007;-59.083;31.628;-43.884;-13.635;-13.970
3028369.998;-25.928;-4.582;-34.124;-48.056;38.743;-42.692;-12.740;-15.013
3028370.006;-26.524;-2.533;-36.880;-50.291;30.063;-40.866;-11.660;-17.807
3028370.014;-29.914;-8.903;-38.482;-56.773;33.639;-42.692;-12.703;-18.850
3028370.022;-42.915;-33.639;-53.942;-76.406;11.213;-47.758;-18.030;-25.071
3028370.030;-38.706;-27.679;-51.074;-61.095;13.448;-42.096;-14.156;-20.601
3028370.038;-33.863;-8.307;-45.188;-52.564;39.227;-40.568;-15.087;-19.744
3028370.035;-32.708;-6.445;-40.270;-47.386;44.927;-34.533;-11.139;-19.036
3028370.043;-29.430;-7.898;-33.788;-51.036;36.173;-28.275;-6.109;-15.087
3028370.051;-24.959;-3.166;-32.037;-43.921;35.800;-22.426;-0.857;-10.952
3028370.059;-34.533;-15.646;-43.176;-52.303;31.516;-32.708;-11.586;-21.197
3028370.067;-26.003;-13.113;-37.476;-48.913;41.202;-30.026;-9.052;-18.179
3028370.075;-20.340;-2.868;-30.659;-38.967;32.410;-20.377;-0.857;-10.654
3028370.083;-24.624;-2.645;-31.441;-45.449;29.206;-20.117;-3.353;-10.990
3028370.091;-23.656;-1.378;-30.845;-44.517;41.015;-16.019;-0.894;-6.594
3028370.099;-16.876;2.794;-25.108;-40.196;47.609;-13.784;1.267;-2.719
3028370.107;-22.016;-3.576;-30.734;-43.623;37.327;-17.881;-4.806;-4.508
3028370.115;-24.810;-7.339;-35.651;-42.468;29.057;-21.867;-8.307;-8.941
3028370.123;-22.240;-3.055;-38.110;-38.035;30.547;-23.171;-6.706;-11.139
3028370.131;-12.703;3.465;-26.710;-31.814;37.663;-19.744;-0.931;-9.276
3028370.139;-3.874;15.125;-13.970;-32.708;55.172;-16.689;2.384;-6.780
3028370.147;0.261;19.334;-11.660;-26.822;50.142;-9.909;7.562;-0.373
3028370.155;-3.800;17.174;-18.775;-17.583;35.763;-6.557;8.382;1.863
3028370.163;-4.843;16.987;-18.105;-19.632;47.162;-4.359;9.090;5.066
3028370.171;-9.686;9.872;-23.507;-29.206;42.319;-0.820;14.268;6.631
3028370.179;-8.792;17.472;-22.985;-19.968;43.251;-0.596;16.540;3.576
3028370.187;-9.947;17.174;-21.197;-27.418;45.151;-2.496;16.168;1.751
3028370.195;-12.591;9.164;-23.805;-35.018;34.794;-7.115;10.021;-3.129
3028370.203;-12.107;11.139;-28.200;-24.438;28.722;-3.427;10.729;-0.857
3028370.211;-12.740;6.445;-24.512;-26.450;34.198;0.224;9.947;2.012
3028370.219;-12.517;3.241;-20.526;-31.590;42.282;-0.410;10.468;-0.633
3028370.215;-13.150;10.841;-26.189;-25.779;32.075;-2.421;9.835;-2.608
3028370.223;-16.429;6.929;-30.100;-26.040;26.524;0.000;10.282;-1.825
3028370.231;-23.767;-3.017;-36.880;-37.514;24.401;-5.178;3.576;-6.333
3028370.239;-19.036;6.072;-26.673;-33.118;25.705;-6.482;0.708;-4.210
3028370.247;-15.981;5.588;-23.916;-28.238;42.580;-3.725;4.843;-1.043
3028370.255;-14.082;1.900;-25.369;-27.418;35.316;2.123;11.548;3.576
3028370.263;-18.775;3.427;-30.696;-35.539;27.120;0.186;10.096;-0.075
3028370.271;-4.843;16.317;-15.311;-21.271;40.568;-3.316;6.817;-3.055
3028370.279;-1.863;10.654;-12.666;-21.122;37.663;-4.545;4.172;-1.863
3028370.287;-23.097;-7.637;-38.631;-39.935;5.066;-9.537;-2.459;-3.614
3028370.295;-24.140;-13.411;-34.235;-36.322;15.087;-18.291;-6.631;-11.101
3028370.303;-2.049;16.242;-10.580;-8.680;53.346;-2.049;12.554;3.465
3028370.311;4.880;23.916;-5.625;-1.080;50.887;3.166;17.285;9.574
3028370.319;-1.751;15.311;-15.236;-2.459;43.251;-2.570;9.984;4.284
3028370.327;-9.313;5.849;-23.842;-12.554;26.859;-2.123;9.127;3.614
3028370.335;-20.899;-4.061;-33.453;-23.246;11.325;27.455;37.700;27.977
3028370.343;-29.355;-20.191;-41.574;-40.121;15.087;15.721;24.289;13.933
3028370.351;-30.398;-22.799;-44.480;-53.346;13.597;-1.937;5.774;-6.035
3028370.359;-15.721;0.298;-31.330;-16.168;20.899;-10.580;-2.310;-15.013
3028370.367;0.782;29.132;-10.543;15.721;54.352;9.350;20.601;5.625
3028370.375;-23.842;-3.017;-35.651;-11.064;23.991;3.092;20.117;3.129
3028370.383;-53.793;-44.070;-66.943;-55.917;-7.227;-2.049;21.122;-1.974
3028370.391;-68.322;-57.481;-84.490;-79.498;-29.095;-5.029;22.128;-3.204
3028370.399;-57.630;-38.221;-76.406;-50.627;-34.347;-8.047;21.867;-6.147
3028370.410;-67.614;-50.254;-82.739;-61.356;-50.403;-17.472;16.391;-15.460
3028370.418;-81.845;-63.218;-95.330;-78.976;-70.035;-23.991;11.288;-21.383
3028370.426;-98.646;-79.572;-110.269;-96.485;-87.395;-28.014;7.339;-27.940
3028370.434;-116.937;-98.087;-128.299;-117.868;-106.804;-34.198;-0.671;-36.620
3028370.442;-124.201;-103.489;-134.706;-123.084;-113.361;-36.284;-5.849;-43.474
3028370.450;-127.777;-113.174;-137.724;-120.960;-117.645;-37.365;-8.456;-48.205
3028370.458;-125.282;-103.563;-139.624;-123.717;-121.966;-33.230;-6.221;-47.423
3028370.466;-115.931;-85.980;-128.709;-108.182;-107.028;-30.845;-6.184;-48.541
3028370.474;-109.859;-81.286;-123.531;-97.901;-102.371;-28.498;-1.602;-44.182
3028370.482;-105.277;-78.976;-120.699;-96.373;-94.771;-27.716;0.335;-43.400
3028370.490;-98.683;-71.377;-114.441;-91.158;-87.284;-25.183;2.272;-42.543
3028370.498;-99.801;-77.449;-116.676;-92.834;-85.682;-25.034;0.224;-41.574
3028370.506;-101.924;-85.309;-116.639;-100.583;-89.258;-24.848;-4.061;-42.431
3028370.514;-95.293;-79.796;-111.572;-91.903;-90.972;-18.105;-1.080;-35.651
3028370.522;-89.444;-75.921;-109.337;-85.458;-86.203;-7.413;8.158;-23.320
3028370.530;-89.705;-69.998;-110.455;-81.882;-79.498;-8.605;5.886;-22.464
3028370.538;-82.329;-60.461;-99.353;-64.634;-65.081;-18.962;-4.172;-32.596
3028370.546;-71.898;-59.046;-88.029;-59.679;-56.997;-15.944;-2.868;-30.287
3028370.554;-62.212;-51.558;-78.827;-50.738;-51.260;-8.494;1.416;-23.134
3028370.562;-57.667;-45.411;-77.039;-41.537;-48.429;-3.763;8.121;-18.962
3028370.570;-60.722;-49.695;-81.584;-46.417;-56.997;-6.594;5.588;-22.016
3028370.578;-55.768;-49.546;-78.157;-38.929;-46.827;-1.639;9.239;-19.483
3028370.586;-52.080;-48.392;-68.881;-38.035;-39.041;4.508;11.139;-17.807
3028370.594;-48.839;-39.600;-67.949;-31.553;-32.857;7.376;6.892;-16.987
3028370.620;-46.976;-45.449;-64.708;-43.102;-31.441;6.557;1.118;-20.154
3028370.628;-47.870;-44.592;-62.510;-29.989;-25.183;1.490;-5.588;-26.077
3028370.636;-52.899;-51.633;-69.812;-35.800;-29.504;8.531;-1.974;-19.558
3028370.644;-48.429;-40.755;-70.147;-22.352;-32.410;9.798;0.335;-17.509
3028370.652;-42.133;-39.227;-64.969;-17.211;-32.596;5.029;-1.527;-19.856
3028370.660;-46.268;-45.002;-69.626;-30.026;-46.082;8.531;0.633;-19.297
3028370.668;-45.598;-42.655;-70.706;-18.254;-53.830;12.331;0.447;-17.919
3028370.676;-45.411;-44.368;-71.861;-16.131;-61.132;22.203;10.692;-8.792
3028370.684;-47.646;-43.213;-72.569;-18.254;-62.957;29.169;18.887;-2.831
3028370.692;-57.556;-52.713;-85.644;-23.805;-76.965;27.232;18.142;-3.017
3028370.700;-66.422;-65.416;-95.591;-35.241;-88.699;16.056;5.923;-14.603
3028370.708;-53.458;-53.905;-82.031;-16.317;-72.904;22.985;15.199;-10.543
3028370.716;-46.194;-42.617;-70.818;-4.545;-54.576;24.140;18.403;-8.009
3028370.724;-50.366;-46.380;-73.090;-8.047;-55.581;16.131;13.225;-13.672
3028370.732;-53.346;-53.421;-78.902;-5.700;-59.456;9.127;10.245;-16.652
3028370.740;-46.156;-46.678;-72.867;-5.737;-52.489;13.486;17.919;-12.591
3028370.748;-44.703;-48.429;-69.924;-19.968;-42.990;14.827;19.073;-10.394
3028370.756;-43.809;-43.772;-71.451;0.782;-56.811;17.248;22.128;-4.731
3028370.764;-44.331;-41.761;-73.388;13.113;-59.307;17.025;22.985;-4.768
3028370.772;-50.105;-47.535;-77.933;7.935;-60.201;13.113;20.266;-7.115
3028370.780;-51.558;-48.876;-82.143;-1.267;-62.399;10.431;19.819;-9.574
3028370.788;-55.581;-57.742;-81.137;-10.841;-68.657;0.112;12.144;-19.744
3028370.796;-48.652;-52.303;-69.737;-7.525;-55.023;1.527;14.752;-19.856
3028370.804;-44.256;-42.021;-67.502;4.768;-49.882;-0.596;12.368;-23.134
3028370.799;-42.878;-36.992;-64.746;18.962;-46.305;-3.763;7.376;-26.412
3028370.807;-40.941;-44.219;-61.318;14.380;-43.325;-1.416;7.935;-24.363
3028370.815;-35.129;-37.253;-57.556;6.109;-48.019;-0.186;8.829;-18.738
3028370.823;-27.493;-23.842;-48.503;20.936;-33.118;3.837;13.076;-10.394
3028370.831;-31.516;-31.218;-53.160;22.054;-33.937;8.196;16.466;-2.496
3028370.839;-40.978;-43.884;-64.187;11.325;-47.609;9.425;14.864;1.676
3028370.847;-28.238;-28.871;-51.074;25.555;-39.116;5.104;9.872;-2.682
3028370.855;-39.153;-36.992;-63.665;14.119;-56.326;1.192;6.929;-7.227
3028370.863;-40.494;-38.780;-66.273;16.615;-67.465;3.539;10.468;-4.210
3028370.871;-45.486;-47.162;-69.998;10.319;-74.320;4.098;11.735;-6.147
3028370.879;-46.380;-47.274;-73.723;6.184;-78.753;2.347;8.605;-10.692
3028370.887;-43.511;-48.913;-72.829;9.276;-76.257;2.235;6.296;-11.995
3028370.895;-42.357;-46.752;-69.700;12.740;-79.460;8.531;12.852;-6.855
3028370.903;-42.990;-43.288;-67.055;9.201;-86.054;11.064;14.678;-3.427
3028370.911;-45.933;-45.560;-68.210;21.271;-75.772;9.835;13.784;-7.823
3028370.919;-49.211;-48.243;-74.022;22.873;-69.030;15.795;20.005;-4.582
3028370.927;-41.649;-33.267;-61.952;27.083;-59.195;18.999;20.824;-3.055
3028370.935;-39.972;-34.906;-59.716;21.942;-62.548;16.131;14.678;-8.717
3028370.943;-39.600;-41.053;-59.418;17.844;-55.544;21.011;17.248;-4.023
3028370.951;-40.941;-40.047;-64.075;17.472;-61.616;25.891;24.363;-0.186
3028370.959;-44.256;-42.915;-67.987;17.285;-79.386;28.498;30.585;2.198
3028370.967;-45.076;-43.474;-66.906;13.262;-71.675;30.324;34.347;3.278
3028370.975;-47.311;-47.497;-71.004;11.437;-79.833;30.287;35.204;3.874
3028370.983;-41.686;-44.927;-65.155;14.193;-71.712;28.461;35.800;5.849
3028371.008;-38.967;-42.245;-59.120;19.148;-55.060;27.865;35.912;8.084
3028371.016;-30.883;-27.828;-55.097;25.295;-51.409;28.647;33.677;11.325
3028371.024;-28.685;-22.352;-52.452;40.010;-59.046;30.957;33.975;14.938
3028371.032;-27.418;-25.742;-53.979;35.726;-62.212;33.490;35.278;17.248
3028371.040;-26.673;-27.567;-49.695;31.814;-42.953;32.373;32.932;18.030
3028371.048;-30.100;-28.461;-52.787;32.224;-40.866;32.522;32.037;18.775
3028371.056;-24.959;-23.954;-49.658;34.384;-44.666;37.812;37.551;24.475
3028371.064;-16.578;-27.604;-40.270;38.557;-35.688;41.984;44.182;30.808
3028371.072;-24.959;-26.822;-50.515;27.269;-54.464;28.387;34.086;22.054
3028371.080;-14.082;-9.276;-36.657;40.941;-40.606;18.515;29.318;14.789
3028371.088;-7.078;-7.711;-28.275;44.592;-23.171;22.538;38.743;20.713
3028371.096;-10.729;-12.517;-38.035;40.457;-43.847;26.450;42.468;26.561
3028371.104;-12.144;-13.411;-40.643;44.107;-44.741;28.461;43.139;29.393
3028371.112;-11.213;-13.895;-33.416;47.386;-35.390;27.232;41.947;29.244
3028371.120;-7.637;-11.362;-26.897;46.603;-24.475;28.200;44.666;33.490
3028371.128;-15.534;-23.246;-37.402;32.671;-44.405;26.226;40.643;35.018
3028371.136;-14.938;-18.217;-40.010;33.490;-46.864;22.836;37.178;32.373
3028371.144;-12.070;-9.015;-35.465;46.007;-29.244;22.985;37.923;32.075
3028371.152;-20.750;-20.377;-41.910;39.116;-45.337;18.515;33.341;28.089
3028371.160;-21.234;-20.862;-47.982;35.577;-47.870;21.495;38.445;31.851
3028371.168;-14.119;-16.242;-39.451;35.837;-37.216;26.971;47.348;37.663
3028371.176;-13.150;-14.305;-37.588;36.620;-38.110;29.169;52.378;39.823
3028371.184;-19.372;-23.022;-43.474;30.175;-48.541;24.661;47.460;35.800
3028371.192;-13.337;-14.454;-36.769;42.915;-49.546;25.034;47.460;37.067
3028371.174;-9.127;-6.370;-32.373;50.068;-39.227;21.756;44.182;33.900
3028371.182;-7.562;-9.350;-28.200;50.031;-28.647;17.360;40.792;27.791
3028371.190;-7.600;-12.890;-28.573;45.709;-30.734;15.274;37.886;24.997
3028371.198;-5.439;-5.364;-27.791;44.182;-37.961;16.391;36.471;24.661
3028371.206;-6.109;-1.267;-26.636;50.664;-35.018;12.964;30.436;20.303
3028371.214;-8.903;-11.548;-30.696;42.170;-37.588;9.052;26.450;16.466
3028371.222;-12.033;-14.156;-32.112;41.351;-41.500;5.923;23.656;11.958
3028371.230;-13.635;-13.709;-30.138;42.319;-34.310;3.763;20.936;10.468
3028371.238;-15.274;-16.578;-27.567;31.739;-38.370;4.955;23.134;10.394
3028371.246;-10.282;-9.984;-25.854;43.288;-32.634;11.884;31.516;15.832
3028371.254;-5.253;-5.774;-23.544;49.435;-37.812;14.827;34.235;20.415
3028371.262;2.310;-0.522;-11.101;52.713;-18.887;7.674;28.387;14.156
3028371.270;0.671;-1.527;-13.895;47.795;-19.968;3.129;22.613;11.288
3028371.278;-2.719;-2.719;-20.638;49.323;-29.616;-1.490;17.472;6.407
3028371.286;-4.247;-2.570;-22.240;50.403;-33.639;-0.633;17.025;9.127
3028371.294;-9.872;-9.313;-20.713;43.027;-37.625;-4.582;8.568;7.600
3028371.302;-10.356;-8.941;-20.899;40.494;-29.542;-7.898;1.974;2.757
3028371.310;-7.004;-7.562;-19.260;36.843;-27.530;-7.190;3.465;2.831
3028371.318;0.894;4.359;-8.941;51.893;-25.444;-2.049;10.207;5.253
3028371.326;4.657;9.201;-5.104;61.691;-16.727;-1.974;12.182;3.614
3028371.334;8.009;8.158;-2.272;59.269;-17.546;-2.496;8.643;3.912
3028371.342;10.654;8.643;3.427;57.966;-12.480;-0.894;6.221;5.215
3028371.350;19.595;21.718;15.832;63.628;3.763;-1.080;4.359;5.104
3028371.358;30.883;35.278;28.908;74.431;16.056;4.247;8.941;9.052
3028371.370;38.259;44.107;33.490;85.868;14.976;8.941;16.242;11.325
3028371.378;62.585;64.783;59.791;101.700;34.794;13.486;22.799;16.578
3028371.386;76.555;85.309;74.022;124.425;53.197;19.446;27.232;23.022
3028371.394;89.929;98.012;89.668;133.514;67.949;21.495;25.742;27.567
3028371.402;111.014;120.252;111.572;153.631;87.172;27.195;29.802;33.937
3028371.410;126.213;140.108;129.193;165.142;97.007;29.057;32.708;34.049
3028371.418;137.575;159.033;141.039;186.786;109.226;28.610;32.224;32.932
3028371.426;141.896;164.025;144.802;197.403;109.412;23.097;25.816;26.375
3028371.434;148.006;171.624;152.923;204.965;115.260;21.644;26.375;25.071
3028371.442;154.115;176.318;155.829;208.057;126.138;32.187;35.949;35.502
3028371.450;142.790;157.431;141.822;188.909;123.158;35.949;37.961;40.047
3028371.458;122.376;138.991;117.607;167.936;94.138;34.794;34.608;40.270
3028371.466;105.426;125.803;102.073;159.070;67.018;34.086;32.410;37.961
3028371.474;89.072;104.606;83.894;146.627;59.120;32.224;31.330;35.539
3028371.482;77.151;84.974;67.353;128.336;46.566;34.980;33.826;37.625
3028371.490;62.175;63.591;54.426;96.746;27.642;32.783;30.249;32.708
3028371.498;53.272;59.269;42.282;89.183;20.526;32.671;28.722;31.218
3028371.506;43.437;47.982;29.765;84.303;7.860;29.281;27.418;28.946
3028371.514;35.688;36.061;25.891;72.606;3.465;24.699;24.587;25.406
3028371.522;30.771;31.628;21.160;67.130;4.582;23.544;23.991;24.550
3028371.530;29.430;31.032;16.503;65.006;3.465;20.787;23.209;23.842
3028371.538;28.573;26.301;21.271;59.977;-6.817;17.025;21.569;21.420
3028371.546;27.232;23.246;23.209;61.058;9.649;13.709;18.813;18.328
3028371.554;24.587;24.289;19.372;62.138;8.754;15.944;20.526;21.085
3028371.578;18.999;14.193;13.225;48.988;-3.316;17.472;22.277;25.034
3028371.586;10.617;5.998;4.955;39.339;-13.597;17.136;24.810;23.618
3028371.594;11.697;11.027;2.161;47.348;-12.554;21.197;32.522;26.524
3028371.602;10.058;6.594;-2.943;46.752;-21.160;22.948;37.849;25.816
3028371.610;9.611;5.886;1.229;43.772;-24.289;17.546;31.516;21.607
3028371.618;8.270;6.482;0.857;45.262;-21.011;11.176;22.426;18.403
3028371.626;8.717;8.345;-1.676;52.676;-20.824;7.823;18.477;16.727
3028371.634;8.941;1.080;1.378;39.041;-21.011;6.370;18.030;18.068
3028371.642;14.342;9.798;10.654;42.208;-8.084;10.952;24.326;20.564
3028371.650;10.766;8.903;7.376;47.870;-3.725;13.225;29.467;20.750
3028371.658;16.950;15.609;12.852;59.269;1.714;8.382;27.195;17.621
3028371.666;8.605;4.917;3.055;44.629;-20.340;4.694;22.016;16.503
3028371.674;-3.949;-12.927;-10.841;20.228;-34.049;0.782;15.907;16.019
3028371.682;-4.880;-13.113;-11.921;24.773;-39.600;0.745;15.348;15.162
3028371.690;-5.700;-9.090;-11.586;21.234;-39.712;2.198;16.540;14.156
3028371.698;-3.353;-4.619;-9.947;26.822;-33.863;3.949;18.105;11.101
3028371.706;-3.725;-4.768;-10.207;38.296;-39.376;2.868;16.317;9.350
3028371.714;-5.774;-12.182;-12.033;31.330;-45.300;-2.496;9.574;8.084
3028371.722;-4.768;-7.898;-11.586;36.620;-39.637;-4.023;8.307;7.004
3028371.730;-9.164;-8.941;-14.156;25.183;-34.757;-6.966;4.619;1.974
3028371.738;-11.101;-13.411;-14.491;16.056;-35.763;-8.829;1.378;-0.931
3028371.746;-7.227;-12.144;-7.190;25.108;-41.798;-11.735;-0.410;-5.923
3028371.754;-1.565;-0.112;-3.502;38.035;-25.071;-6.296;7.078;-2.943
3028371.762;-9.760;-13.150;-13.858;32.894;-35.428;-7.339;5.364;-2.123
3028371.759;-18.850;-24.959;-25.816;22.165;-48.280;-9.090;1.416;0.447
3028371.767;-18.589;-13.299;-29.653;21.979;-56.922;-4.359;2.719;7.115
3028371.775;-22.091;-17.397;-28.089;18.403;-54.985;-8.866;-4.657;3.316
3028371.783;-23.395;-21.830;-30.138;17.993;-54.054;-8.270;-3.166;2.831
3028371.791;-20.042;-22.165;-23.283;15.423;-51.819;-6.407;-0.373;0.224
3028371.799;-16.056;-19.111;-19.558;20.340;-49.137;-8.121;-4.545;-2.608
3028371.807;-13.746;-14.044;-18.552;28.685;-47.758;-9.239;-4.321;-3.614
3028371.815;-9.201;-13.150;-13.970;23.693;-41.053;-8.680;-1.565;-2.980
3028371.823;-5.476;-3.688;-10.952;29.691;-43.772;-9.872;-0.596;-4.210
3028371.831;-6.966;-7.823;-5.923;30.324;-28.275;-13.374;-4.508;-7.600
3028371.839;-10.729;-9.276;-10.841;31.106;-31.739;-13.672;-6.929;-7.115
3028371.847;-11.772;-9.686;-14.305;27.344;-41.798;-9.947;-2.831;-3.539
3028371.855;6.482;1.527;6.370;34.086;-26.822;-11.623;-4.880;-4.917
3028371.863;19.632;20.117;19.856;49.882;-15.534;-8.158;-3.576;0.149
3028371.871;36.061;35.726;38.631;70.147;0.335;-9.164;-3.465;1.229
3028371.879;47.758;46.231;50.291;71.190;9.313;-8.307;-2.459;5.811
3028371.887;52.191;48.876;58.822;62.808;11.884;-5.700;-2.012;10.021
3028371.895;55.730;58.077;62.585;77.039;27.306;-7.041;-3.204;11.064
3028371.903;55.060;56.401;62.585;81.249;29.169;-7.339;-0.931;12.666
3028371.911;51.670;48.354;57.779;82.813;19.744;-4.359;5.104;15.534
3028371.919;43.139;35.055;45.449;67.055;13.150;-6.109;3.427;12.703
3028371.927;27.977;20.824;29.951;46.641;0.484;-12.778;-5.104;5.811
3028371.935;27.940;23.469;31.106;57.407;-5.513;-12.331;-4.284;6.035
3028371.943;32.559;28.685;38.855;61.169;0.224;-9.239;-0.298;8.531
3028371.957;32.112;30.920;39.712;68.881;9.984;-3.278;5.476;13.113
3028371.965;35.539;34.571;39.525;76.033;8.047;4.657;13.374;20.489
3028371.973;28.349;27.977;29.653;67.875;0.633;2.123;10.133;20.862
3028371.981;22.575;29.542;29.504;62.883;1.341;-0.745;8.568;20.340
3028371.989;18.030;22.799;22.836;68.694;-8.233;-3.055;7.264;20.750
3028371.997;9.276;7.935;11.697;49.844;-19.185;-7.339;3.166;16.019
3028372.005;14.566;12.666;19.595;54.911;-12.778;-2.421;8.978;19.968
3028372.013;13.001;12.331;16.242;59.083;-13.337;-3.651;6.184;18.701
3028372.021;10.058;7.451;14.901;51.558;-14.491;-9.499;-2.086;14.603
3028372.029;16.652;19.260;19.483;54.874;-16.242;-9.462;-3.316;17.546
3028372.037;20.079;21.160;22.054;62.212;-11.437;-8.307;-2.608;17.136
3028372.045;17.397;15.013;17.397;56.066;-13.188;-6.966;-1.453;15.870
3028372.053;9.164;-0.745;9.574;36.880;-23.060;-4.955;-0.037;16.280
3028372.061;9.760;8.456;11.139;39.376;-26.934;-0.186;4.433;18.775
3028372.069;14.603;15.423;16.652;53.979;-18.142;-1.341;4.545;17.285
3028372.077;10.468;9.872;11.213;56.624;-23.395;-2.645;3.539;13.933
3028372.085;4.172;2.906;8.047;42.729;-23.767;-4.061;1.341;13.672
3028372.093;-0.224;-3.055;1.006;29.616;-26.599;-4.321;1.229;16.801
3028372.101;2.496;2.235;6.706;38.221;-30.324;-3.725;2.086;20.713
3028372.109;2.645;2.235;7.749;41.351;-23.022;-3.353;0.298;25.071
3028372.117;2.496;-3.427;8.531;40.606;-25.965;-3.316;0.782;26.487
3028372.125;7.823;5.849;10.654;43.586;-21.867;-1.676;1.565;28.312
3028372.133;7.674;3.427;9.276;29.840;-26.152;-3.465;-0.112;25.369
3028372.141;4.955;1.714;8.754;31.926;-25.295;-7.637;-3.688;20.005
3028372.135;-1.565;-4.210;6.743;33.155;-26.077;-9.090;-5.253;20.564
3028372.143;-0.075;-1.900;6.668;32.149;-25.705;-3.576;-0.075;28.685
3028372.151;14.603;13.597;19.632;47.646;-20.303;-0.820;3.539;32.559
3028372.159;17.360;15.199;22.016;48.131;-12.778;-0.782;5.774;32.447
3028372.167;16.019;20.303;18.403;48.056;-23.767;-6.221;3.204;25.220
3028372.175;8.047;2.719;9.201;32.522;-28.200;-9.425;0.186;21.905
3028372.183;6.780;5.178;14.938;37.476;-24.475;-11.139;-2.570;18.850
3028372.191;11.250;15.199;18.850;43.996;-22.203;-10.394;-3.614;18.217
3028372.199;17.323;21.607;23.469;53.532;-7.637;-6.929;-0.559;20.899
3028372.207;15.460;18.589;20.787;54.128;-8.680;-11.660;-3.502;14.007
3028372.215;11.325;12.815;15.944;43.958;-19.111;-9.537;0.373;12.815
3028372.223;11.064;13.560;19.744;40.010;-18.738;-8.419;0.559;11.511
3028372.231;12.405;13.411;20.452;42.096;-20.079;-10.617;-1.900;11.474
3028372.239;10.505;15.162;15.423;49.435;-23.693;-14.640;-5.960;9.649
3028372.247;7.339;13.039;12.293;44.703;-24.773;-15.460;-7.562;8.717
3028372.255;9.909;15.721;17.323;44.517;-17.136;-16.615;-8.494;9.462
3028372.263;11.884;13.970;14.603;45.560;-22.314;-12.144;-3.539;14.119
3028372.271;13.039;11.623;17.583;35.986;-24.512;-14.566;-5.625;14.342
3028372.279;18.142;17.770;21.458;47.870;-12.591;-15.087;-5.513;14.342
3028372.287;10.692;15.050;11.362;33.565;-32.224;-22.314;-14.864;5.886
3028372.295;11.250;14.901;16.280;34.571;-23.618;-19.185;-12.480;6.258
3028372.303;16.652;20.266;19.744;45.709;-10.990;-9.872;-1.714;11.809
3028372.311;17.919;17.583;17.546;46.641;-15.125;-4.284;5.141;17.211
3028372.319;13.374;9.313;13.597;35.688;-32.373;-6.333;1.155;20.005
3028372.329;10.580;13.858;13.560;35.241;-26.561;-11.511;-5.513;20.005
3028372.337;13.597;20.601;17.583;50.142;-16.280;-9.760;-3.763;23.805
3028372.345;11.735;10.580;16.913;36.061;-8.382;-6.855;-1.192;25.891
3028372.353;4.061;5.923;4.843;29.802;-29.355;-10.580;-4.359;25.369
3028372.361;6.668;2.868;12.591;29.542;-28.126;-13.150;-4.843;23.916
3028372.369;11.288;13.113;18.775;38.818;-10.990;-13.858;-5.029;23.693
3028372.377;6.855;11.995;10.021;35.837;-25.369;-16.801;-6.668;19.558
3028372.385;8.717;12.144;10.058;34.943;-21.569;-18.179;-4.843;15.721
3028372.393;17.099;17.099;16.764;46.901;-11.772;-10.692;2.384;23.618
3028372.401;21.122;24.065;24.252;49.174;-9.499;-3.576;9.723;28.834
3028372.409;18.515;19.111;25.630;47.050;-11.846;1.080;13.709;31.777
3028372.417;16.280;17.323;22.911;40.904;-11.213;-5.551;5.141;27.716
3028372.425;14.119;17.770;20.340;36.657;-16.913;-17.323;-7.227;18.738
3028372.433;9.462;13.821;13.262;38.520;-19.930;-23.767;-15.013;15.870
3028372.441;4.619;5.625;11.437;33.416;-22.613;-25.705;-17.248;15.683
3028372.449;-0.224;-0.820;4.843;27.828;-27.493;-25.854;-17.956;15.460
3028372.457;1.043;0.931;2.682;27.381;-29.616;-23.097;-15.683;16.391
3028372.465;0.484;5.811;4.172;22.426;-29.728;-23.581;-13.523;12.256
3028372.473;7.004;14.752;10.692;36.135;-22.389;-19.856;-6.147;12.219
3028372.481;17.062;24.661;18.813;48.093;-18.328;-19.073;-3.874;10.617
3028372.489;17.025;19.297;21.271;41.500;-14.678;-19.595;-8.382;10.468
3028372.497;14.864;17.397;19.334;39.712;-18.179;-17.881;-10.654;14.566
3028372.505;6.892;2.384;12.666;26.487;-15.236;-13.746;-9.462;19.521
3028372.513;4.210;5.960;10.319;22.091;-20.489;-10.580;-8.307;22.501
3028372.538;6.221;14.938;12.480;27.306;-28.051;-11.735;-8.866;20.340
3028372.546;4.880;9.462;13.597;26.561;-25.705;-16.280;-12.964;13.746
3028372.554;4.545;9.276;13.635;33.192;-21.085;-19.036;-13.262;8.829
3028372.562;9.313;15.348;17.695;43.176;-20.973;-19.744;-12.331;4.210
3028372.570;15.050;16.801;24.512;38.929;-13.635;-19.968;-15.609;2.757
3028372.578;15.981;21.942;24.289;32.857;-13.560;-16.056;-12.591;4.843
3028372.586;14.044;20.713;21.532;45.039;-14.752;-16.168;-11.697;2.570
3028372.594;11.362;14.529;19.930;39.749;-17.099;-18.366;-13.560;0.782
3028372.602;12.368;20.601;22.575;36.880;-19.856;-12.442;-8.345;5.290
3028372.610;13.858;21.122;21.383;40.792;-14.156;-4.955;-2.086;13.374
3028372.618;7.451;13.001;14.864;35.614;-16.168;-9.015;-9.462;11.511
3028372.626;5.923;13.411;10.878;37.923;-22.836;-11.288;-15.609;8.382
3028372.634;7.302;14.678;14.529;34.273;-22.911;-8.903;-14.007;8.643
3028372.642;6.333;13.597;15.646;35.018;-27.008;-5.253;-9.723;7.004
3028372.650;8.754;15.013;15.609;36.955;-18.328;-9.611;-13.374;-1.192
3028372.658;18.924;35.167;22.464;48.988;-13.076;-10.170;-12.927;-4.061
3028372.666;20.899;37.067;23.507;53.681;-8.345;-14.789;-15.870;-10.319
3028372.674;23.693;32.671;26.971;51.185;-8.158;-15.721;-17.397;-11.958
3028372.682;25.295;28.610;32.373;48.392;-3.763;-13.299;-19.111;-10.356
3028372.690;27.455;31.702;31.218;53.383;-6.109;-12.890;-21.607;-6.594
3028372.698;29.169;40.904;32.298;48.280;-8.680;-12.442;-21.569;-2.645
3028372.706;27.530;38.110;31.516;49.062;-0.633;-10.580;-20.117;1.937
3028372.714;28.051;35.577;29.653;50.738;-0.373;-8.494;-15.832;6.855
3028372.722;23.693;30.883;28.498;39.972;-5.998;-10.878;-14.901;4.470
3028372.719;20.862;25.928;27.716;42.431;-12.293;-10.803;-11.735;0.820
3028372.727;26.263;32.596;33.639;48.801;-0.410;-1.751;-1.490;5.923
3028372.735;29.951;43.623;36.359;55.060;3.353;-2.235;-1.714;3.800
3028372.743;32.894;48.541;32.037;61.281;-5.551;-4.061;-1.229;1.378
3028372.751;35.092;46.790;37.700;61.281;-4.470;-1.043;2.794;3.800
3028372.759;36.433;51.297;40.606;64.746;1.639;-3.129;1.378;5.104
3028372.767;30.249;38.370;33.788;54.389;-3.017;-2.868;2.347;7.674
3028372.775;27.083;29.132;33.788;48.690;-4.582;-3.912;1.229;8.643
3028372.783;27.381;39.041;30.696;49.174;-7.004;-8.345;-2.719;8.643
3028372.791;29.318;41.910;32.298;53.644;-3.651;-11.474;-6.221;9.909
3028372.799;30.324;41.947;33.639;49.844;1.863;-12.405;-8.717;13.672
3028372.807;24.326;33.602;26.897;40.829;-9.127;-11.995;-8.009;12.703
3028372.815;20.638;20.340;28.238;39.712;-4.098;-10.915;-4.470;11.176
3028372.823;28.238;37.402;33.006;50.329;-3.986;-6.855;1.006;16.242
3028372.831;29.020;44.107;27.642;50.999;-9.350;-12.405;-2.980;12.331
3028372.839;27.865;38.855;27.157;48.839;-12.666;-20.750;-9.537;6.221
3028372.847;24.401;32.745;25.705;48.801;-8.792;-22.128;-10.431;4.731
3028372.855;24.997;32.298;30.994;44.443;-3.427;-16.019;-5.178;9.239
3028372.863;22.948;28.051;25.779;46.007;-12.405;-9.164;-1.192;18.068
3028372.871;16.987;30.398;19.111;37.439;-19.222;-10.580;-4.545;18.254
3028372.879;16.913;27.902;18.366;36.955;-15.348;-17.881;-12.033;14.082
3028372.887;13.895;23.246;17.062;29.691;-12.740;-22.911;-18.552;11.325
3028372.895;10.356;16.354;13.709;18.626;-19.148;-21.532;-18.068;12.256
3028372.903;11.846;18.887;13.113;22.538;-24.959;-20.750;-16.242;13.188
3028372.914;11.139;14.044;13.374;22.575;-26.152;-21.718;-17.062;12.740
3028372.922;3.353;3.204;3.316;10.356;-33.006;-27.083;-22.054;7.674
3028372.930;4.247;7.674;4.657;12.144;-26.897;-25.406;-20.079;8.866
3028372.938;-1.416;1.192;1.453;10.021;-27.455;-26.599;-23.693;8.047
3028372.946;-4.023;3.166;-2.347;15.758;-35.129;-25.332;-22.762;9.313
3028372.954;-3.017;4.061;-1.490;14.007;-34.757;-16.131;-12.554;15.534
3028372.962;5.178;8.903;8.009;14.529;-21.011;-5.513;-0.373;23.544
3028372.970;3.502;6.519;9.462;13.895;-20.042;-5.923;-1.267;22.389
3028372.978;-3.316;3.837;3.614;10.803;-25.257;-7.190;-2.570;21.383
3028372.986;4.247;12.666;9.313;15.721;-21.420;-3.465;4.098;26.599
3028372.994;12.368;16.913;21.942;15.162;-10.021;-6.109;2.161;26.450
3028373.002;26.152;31.181;35.726;26.748;4.508;-3.614;3.912;29.244
3028373.010;36.098;38.669;45.262;36.955;12.107;-4.321;3.092;26.859
3028373.018;50.366;55.954;62.771;56.364;28.424;-3.874;3.837;25.593
3028373.026;67.502;78.157;80.504;67.800;43.586;-2.757;3.800;26.487
3028373.034;80.056;89.668;95.256;85.309;51.633;0.261;5.104;28.946
3028373.042;97.603;117.421;119.209;109.486;72.718;-0.335;2.496;29.095
3028373.050;113.547;138.395;132.956;134.744;81.919;4.433;7.302;32.820
3028373.058;124.723;154.600;140.145;151.135;89.593;7.488;12.070;34.384
3028373.066;129.417;156.239;144.579;145.324;103.787;4.023;9.574;30.212
3028373.074;132.807;153.072;148.490;138.022;105.500;-0.335;4.023;23.916
3028373.082;133.477;151.098;151.843;144.020;111.163;-2.235;1.714;20.713
3028373.090;130.087;152.625;150.464;146.851;107.475;0.633;5.178;21.160
3028373.098;116.713;145.026;131.354;147.335;89.966;-2.794;2.570;18.068
3028373.094;106.581;132.434;118.539;127.889;81.807;-5.886;-1.304;16.317
3028373.102;91.568;110.753;101.365;109.226;60.722;-10.319;-6.072;9.909
3028373.110;79.609;93.430;87.097;87.097;48.280;-13.001;-7.972;8.121
3028373.118;72.122;86.017;81.658;76.965;46.976;-10.580;-7.674;10.803
3028373.126;61.877;76.331;70.520;76.480;35.278;-9.425;-10.282;12.890
3028373.134;57.183;69.030;67.540;64.224;35.539;-10.058;-10.803;12.964
3028373.142;42.357;54.687;52.154;52.191;24.550;-20.601;-18.366;0.447
3028373.150;33.900;44.852;40.233;47.646;5.960;-24.699;-20.862;-4.582
3028373.158;33.341;41.984;37.588;47.907;5.588;-23.954;-20.526;-3.465
3028373.166;27.828;38.557;30.585;45.151;4.135;-25.034;-22.203;-5.364
3028373.174;19.558;26.897;23.507;32.596;-2.086;-24.103;-21.942;-3.129
3028373.182;14.454;25.518;17.062;26.040;-3.465;-19.819;-19.372;-0.373
3028373.190;14.417;30.547;15.311;38.743;-8.047;-17.695;-18.291;2.831
3028373.198;10.692;20.713;9.350;29.653;-16.168;-16.689;-19.968;2.943
3028373.206;9.350;14.119;9.164;22.128;-15.944;-15.497;-21.383;3.166
3028373.214;8.903;14.119;11.474;22.203;-9.649;-14.380;-20.713;3.539
3028373.222;1.751;4.470;2.682;14.193;-21.122;-17.546;-22.650;-1.043
3028373.230;-0.782;5.774;1.118;12.219;-19.707;-18.142;-22.277;-2.049
3028373.238;-7.153;2.794;-6.407;9.052;-22.911;-16.168;-20.526;-3.241
3028373.246;-11.064;-5.811;-13.039;3.912;-33.341;-13.448;-18.142;-4.247
3028373.254;-8.121;-5.439;-3.278;3.986;-27.679;-10.170;-15.274;-5.141
3028373.262;-8.568;0.782;-4.470;4.321;-24.624;-7.413;-12.517;-6.780
3028373.270;-11.325;-1.565;-10.356;0.745;-25.406;-8.792;-14.640;-9.499
3028373.278;-6.631;-4.210;-8.568;3.241;-30.100;-2.533;-8.978;-3.614
3028373.290;-7.302;3.092;-7.749;7.041;-36.471;-2.645;-9.909;-2.235
3028373.298;-7.488;3.427;-7.302;10.096;-32.373;-9.388;-17.099;-5.737
3028373.306;-11.064;5.402;-15.460;5.402;-37.067;-13.448;-21.532;-10.319
3028373.314;-15.944;0.037;-19.893;-2.235;-41.164;-15.609;-23.171;-12.368
3028373.322;-16.652;-8.009;-20.973;-6.147;-39.078;-10.431;-15.944;-7.115
3028373.330;-18.366;-15.050;-21.830;-7.488;-35.278;-6.258;-12.927;-2.757
3028373.338;-16.838;-15.646;-14.752;-14.603;-32.932;-3.353;-10.990;-1.304
3028373.346;-23.767;-18.328;-19.148;-22.724;-43.660;-10.245;-18.552;-7.898
3028373.354;-22.464;-13.299;-20.377;-15.758;-48.727;-15.385;-24.028;-10.543
3028373.362;-17.174;-6.631;-21.942;-5.327;-36.322;-15.497;-21.160;-8.903
3028373.370;-17.248;-10.170;-21.197;-3.912;-39.302;-18.068;-22.650;-8.494
3028373.378;-15.683;-10.617;-17.919;-9.052;-31.851;-19.595;-24.065;-7.674
3028373.386;-10.580;-5.849;-10.356;-5.588;-24.140;-17.956;-21.346;-6.817
3028373.394;-12.778;-5.811;-16.801;3.800;-36.806;-19.222;-21.532;-6.519
3028373.402;-16.093;-2.049;-22.501;-4.247;-34.384;-18.291;-21.644;-5.439
3028373.410;-18.589;-9.388;-21.011;-8.941;-33.379;-21.160;-25.816;-8.605
3028373.418;-21.756;-15.497;-23.432;-13.970;-39.451;-20.154;-24.326;-8.494
3028373.426;-18.552;-9.164;-18.179;-11.474;-37.178;-14.752;-17.807;-4.768
3028373.434;-15.274;-9.462;-17.472;-7.525;-30.845;-9.574;-11.809;1.527
3028373.442;-19.446;-20.377;-16.615;-18.999;-31.851;-15.907;-17.844;-2.794
3028373.450;-21.979;-19.781;-19.968;-19.297;-34.496;-25.220;-25.854;-11.288
3028373.458;-13.411;-6.743;-15.013;-10.803;-27.455;-23.879;-23.469;-9.276
3028373.466;-4.321;-1.192;-4.135;-1.825;-22.165;-18.142;-19.073;-3.725
3028373.474;-2.123;0.261;-3.912;-0.782;-23.805;-20.154;-21.867;-4.210
3028373.499;-8.568;-4.210;-9.313;-5.290;-21.867;-23.879;-25.816;-6.482
3028373.507;-15.087;-9.909;-16.615;-9.611;-25.034;-24.103;-25.406;-8.494
3028373.515;-19.222;-22.687;-21.532;-16.838;-31.516;-23.469;-23.171;-9.015
3028373.523;-25.183;-22.464;-22.948;-27.455;-37.700;-22.016;-22.016;-9.611
3028373.531;-21.942;-12.182;-21.160;-15.087;-38.184;-16.876;-17.546;-5.253
3028373.539;-18.030;-9.798;-20.787;-10.096;-35.949;-17.099;-16.987;-3.837
3028373.547;-18.105;-11.437;-22.165;-14.417;-40.457;-21.048;-20.675;-4.955
3028373.555;-16.838;-7.674;-19.632;-10.952;-30.063;-22.240;-21.346;-5.104
3028373.563;-19.222;-21.085;-16.205;-21.048;-25.854;-22.985;-22.650;-7.935
3028373.571;-12.070;-10.654;-12.219;-11.921;-29.802;-20.675;-20.117;-8.643
3028373.579;-6.892;0.969;-7.898;2.235;-17.583;-18.440;-17.993;-8.158
3028373.587;-14.417;-9.649;-14.752;-2.384;-25.630;-17.621;-17.956;-6.631
3028373.595;-17.621;-9.052;-16.838;-7.264;-26.301;-22.836;-21.644;-10.468
3028373.603;-14.082;-11.176;-11.884;-9.201;-25.742;-24.326;-22.724;-8.941
3028373.611;-9.537;-14.715;-7.264;-15.423;-15.646;-20.340;-21.085;-2.943
3028373.619;-12.554;-12.964;-7.674;-10.133;-20.154;-22.613;-24.885;-3.837
3028373.627;-16.764;-10.729;-12.182;-6.668;-21.160;-25.518;-25.891;-6.929
3028373.635;-14.380;-5.662;-11.995;-7.413;-17.546;-22.613;-19.781;-5.513
3028373.643;-14.156;-8.531;-15.423;-9.388;-25.667;-16.242;-14.268;-1.676
3028373.651;-11.511;-11.027;-10.058;-14.640;-22.016;-12.927;-12.629;0.857
3028373.659;-10.692;-13.188;-9.611;-6.296;-15.013;-9.276;-8.829;4.061
3028373.667;-12.480;-6.966;-14.938;2.235;-29.020;-8.270;-9.537;5.066
3028373.675;-9.239;-1.937;-8.680;-0.745;-17.099;-18.179;-20.526;-0.075
3028373.683;-10.990;-6.109;-12.182;-9.350;-21.458;-21.830;-23.060;-3.688
3028373.679;-6.333;-3.204;-8.754;-5.253;-20.675;-20.899;-21.569;-1.639
3028373.687;-12.703;-10.729;-9.686;-13.113;-22.501;-24.587;-24.401;-5.215
3028373.695;-10.319;-8.494;-4.731;-1.565;-12.107;-21.867;-21.569;-3.129
3028373.703;-7.190;-3.800;-3.763;-1.267;-11.548;-21.011;-21.569;-2.012
3028373.711;-5.625;-2.086;-4.880;-6.184;-22.389;-15.385;-14.827;-1.863
3028373.719;-6.631;-3.576;-4.433;-5.998;-13.374;-10.431;-7.972;-1.192
3028373.727;-7.004;-3.949;-6.557;2.012;-16.466;-8.307;-5.290;-0.857
3028373.735;-11.250;-7.115;-10.282;-7.190;-24.289;-10.543;-10.356;-3.055
3028373.743;-14.044;-8.903;-12.554;-12.591;-27.865;-13.411;-15.832;-3.614
3028373.751;-16.503;-11.064;-17.136;-5.104;-29.504;-18.105;-21.309;-6.780
3028373.759;-14.156;-10.580;-15.013;-2.012;-28.349;-24.065;-27.195;-11.250
3028373.767;-14.491;-11.958;-12.256;-13.150;-21.681;-31.628;-34.980;-17.509
3028373.775;-15.274;-11.772;-11.250;-12.927;-21.346;-31.404;-32.745;-17.732
3028373.783;-12.703;-10.952;-11.958;-11.437;-19.521;-25.369;-26.710;-11.921
3028373.791;-16.131;-12.591;-12.033;-7.115;-26.748;-22.650;-28.796;-10.580
3028373.799;-13.970;-9.388;-9.835;-3.912;-21.718;-17.248;-26.003;-7.041
3028373.807;-14.305;-8.047;-14.268;-9.276;-25.593;-7.153;-15.534;-1.378
3028373.815;-25.257;-19.260;-25.742;-26.263;-36.433;-3.837;-11.921;-1.080
3028373.823;-30.436;-28.275;-28.685;-30.324;-39.488;-0.708;-9.313;1.080
3028373.831;-26.450;-21.569;-26.114;-25.034;-44.852;1.043;-7.637;1.416
3028373.839;-22.873;-20.713;-20.750;-18.328;-37.961;2.347;-7.302;2.906
3028373.847;-28.200;-30.771;-26.263;-25.034;-36.024;-4.247;-14.640;-3.912
3028373.855;-28.200;-23.767;-30.436;-25.518;-38.445;-7.637;-17.732;-6.072
3028373.863;-21.458;-14.715;-21.160;-14.491;-35.092;-11.325;-19.744;-8.158
3028373.874;-19.073;-14.193;-15.534;-7.637;-27.828;-14.268;-21.830;-12.480
3028373.882;-12.033;-14.491;-10.021;-9.425;-24.401;-4.470;-11.548;-7.972
3028373.890;-10.431;-12.107;-9.947;-12.368;-21.979;7.041;-2.310;-1.453
3028373.898;-20.303;-15.907;-23.469;-18.924;-38.147;7.786;-3.986;-2.831
3028373.906;-26.450;-23.209;-28.573;-20.824;-41.723;5.290;-10.058;-2.719
3028373.914;-26.189;-21.085;-24.326;-18.962;-34.012;8.121;-11.586;2.161
3028373.922;-22.501;-20.303;-20.079;-30.398;-27.418;14.193;-6.631;6.855
3028373.930;-19.372;-16.131;-20.340;-20.191;-29.244;18.515;-2.868;6.370
3028373.938;-16.801;-12.964;-16.317;-13.672;-28.200;18.291;-1.267;2.421
3028373.946;-14.827;-9.611;-16.987;-5.662;-34.794;10.431;-5.215;-5.364
3028373.954;-18.142;-15.683;-16.578;-12.629;-30.994;-1.676;-13.411;-18.924
3028373.962;-16.056;-9.686;-13.001;-15.460;-19.036;-5.141;-15.646;-22.128
3028373.970;-22.948;-20.862;-23.209;-24.065;-31.292;-6.296;-17.993;-21.569
3028373.978;-27.791;-28.014;-24.959;-31.069;-38.259;-3.427;-16.838;-14.268
3028373.986;-25.332;-25.146;-20.601;-28.014;-35.800;4.545;-9.611;-1.006
3028373.994;-27.269;-22.165;-26.971;-29.504;-39.265;10.207;-4.880;6.035
3028374.002;-29.244;-26.189;-30.585;-24.028;-42.804;14.156;-2.049;9.388
3028374.010;-30.957;-24.475;-30.212;-30.100;-33.304;14.342;-2.496;8.643
3028374.018;-34.794;-29.802;-33.639;-35.763;-43.623;8.978;-5.998;3.204
3028374.026;-28.349;-30.734;-27.679;-26.152;-34.086;7.786;-4.098;1.900
3028374.034;-24.177;-19.483;-24.401;-18.030;-33.602;0.782;-10.580;-4.321
3028374.042;-18.924;-15.274;-17.695;-20.787;-32.336;-4.396;-15.348;-7.749
3028374.050;-10.170;-4.433;-6.557;-6.519;-19.595;1.118;-7.264;-3.166
3028374.058;-14.119;-8.643;-7.786;-16.093;-9.164;-0.596;-9.462;-4.247
3028374.055;-25.816;-23.618;-20.787;-25.593;-28.275;-7.786;-17.732;-7.413
3028374.063;-30.063;-28.498;-28.051;-31.851;-38.184;-6.147;-15.907;-4.582
3028374.071;-27.269;-25.779;-27.083;-30.138;-35.316;1.751;-8.754;4.396
3028374.079;-30.734;-27.567;-29.691;-32.596;-36.694;3.278;-7.525;5.960
3028374.087;-37.998;-34.422;-35.428;-35.875;-42.692;-3.986;-15.050;-1.043
3028374.095;-34.384;-29.467;-32.596;-36.769;-41.723;-5.439;-17.323;-2.831
3028374.103;-24.401;-19.781;-25.369;-23.246;-27.306;-6.258;-17.919;-6.184
3028374.111;-17.993;-15.572;-21.234;-11.250;-33.118;-6.370;-15.311;-8.270
3028374.119;-5.737;0.298;-5.886;-1.267;-19.521;-5.886;-13.746;-9.537
3028374.127;-10.692;-8.531;-10.617;-9.835;-18.217;-8.829;-16.093;-14.454
3028374.135;-11.995;-6.706;-14.193;-17.211;-19.930;-6.258;-12.554;-11.735
3028374.143;-10.170;-4.470;-8.456;-10.654;-17.434;-2.533;-7.339;-6.519
3028374.151;-14.678;-13.486;-11.325;-13.672;-17.993;-0.335;-6.407;-1.080
3028374.159;-21.979;-18.030;-20.079;-25.928;-28.796;-2.868;-11.101;-2.459
3028374.167;-23.507;-18.813;-19.744;-20.973;-27.232;-2.012;-11.548;-2.943
3028374.175;-19.930;-17.323;-18.179;-18.850;-22.314;6.147;-3.986;5.215
3028374.183;-24.103;-20.005;-22.203;-32.298;-29.504;2.086;-9.425;1.378
3028374.191;-24.587;-22.501;-20.154;-27.567;-31.739;-5.066;-17.509;-3.614
3028374.199;-16.764;-15.236;-13.709;-10.245;-23.209;-9.798;-19.260;-8.903
3028374.207;-11.064;-7.413;-6.072;-2.645;-11.176;-12.703;-18.515;-14.640
3028374.215;-12.182;-3.092;-9.872;-10.058;-14.342;-12.293;-18.142;-12.256
3028374.223;-18.962;-14.566;-15.423;-26.934;-18.552;-13.895;-21.011;-13.597
3028374.231;-16.205;-13.262;-13.001;-17.323;-22.538;-10.133;-17.136;-9.611
3028374.239;-15.013;-15.385;-10.319;-6.855;-25.295;-7.786;-14.603;-7.562
3028374.249;-22.426;-24.252;-19.968;-20.117;-29.989;-8.047;-16.391;-8.158
3028374.257;-22.613;-21.383;-21.830;-23.246;-32.261;-6.258;-14.640;-5.029
3028374.265;-20.415;-12.517;-12.666;-17.099;-20.117;-8.121;-16.242;-7.339
3028374.273;-19.036;-13.299;-15.609;-11.995;-20.489;-9.276;-15.832;-7.376
3028374.281;-22.762;-18.887;-21.569;-13.597;-28.238;-13.374;-17.174;-12.331
3028374.289;-18.030;-17.136;-12.964;-16.093;-23.618;-15.758;-19.111;-14.789
3028374.297;-10.729;-8.866;-7.823;-8.345;-18.775;-19.372;-23.693;-14.566
3028374.305;-16.242;-13.486;-14.938;-12.368;-31.143;-26.152;-30.845;-20.154
3028374.313;-15.646;-17.658;-15.311;-19.073;-24.028;-20.787;-26.673;-14.752
3028374.321;-10.505;-7.600;-4.843;-13.262;-12.368;-9.239;-17.881;-5.700
3028374.329;-13.113;-9.649;-10.096;-9.984;-19.968;-4.321;-15.199;-4.210
3028374.337;-20.601;-19.595;-18.515;-12.740;-28.051;-5.327;-17.174;-6.258
3028374.345;-22.911;-23.358;-21.718;-21.048;-33.639;-7.935;-19.483;-8.829
3028374.353;-24.103;-24.736;-19.744;-26.599;-31.516;-12.890;-22.948;-12.256
3028374.361;-30.100;-31.851;-24.922;-32.112;-31.628;-16.317;-24.699;-14.193
3028374.369;-38.557;-37.514;-32.037;-39.376;-38.259;-22.948;-29.951;-22.091
3028374.377;-38.967;-35.577;-33.304;-34.608;-41.611;-23.991;-31.032;-24.103
3028374.385;-36.918;-31.516;-32.634;-29.206;-40.606;-21.718;-28.834;-21.160
3028374.393;-36.173;-35.316;-35.204;-29.244;-46.827;-17.434;-26.338;-15.348
3028374.401;-35.428;-34.682;-31.739;-32.112;-38.594;-10.580;-23.246;-9.611
3028374.409;-35.800;-30.473;-32.559;-31.665;-37.551;-6.929;-21.197;-8.978
3028374.417;-34.869;-29.318;-30.063;-26.897;-46.864;-3.539;-17.770;-8.233
3028374.425;-36.173;-32.596;-27.679;-35.800;-41.388;-1.900;-15.721;-12.070
3028374.433;-38.370;-37.178;-34.012;-38.892;-46.864;-3.465;-15.832;-16.168
3028374.459;-34.161;-35.577;-33.006;-21.197;-45.560;-2.570;-13.150;-16.131
3028374.467;-21.942;-18.701;-19.819;-9.649;-35.241;-2.421;-12.033;-14.454
3028374.475;-14.938;-18.552;-6.668;-21.122;-12.815;-5.923;-15.832;-13.001
3028374.483;-19.707;-26.077;-10.319;-26.412;-19.483;-10.058;-21.420;-15.199
3028374.491;-19.222;-22.165;-13.523;-20.601;-28.908;-1.490;-16.056;-5.849
3028374.499;-22.613;-22.501;-22.389;-15.609;-30.175;6.445;-12.703;0.857
3028374.507;-28.089;-30.659;-25.816;-23.581;-41.164;13.374;-8.270;2.161
3028374.515;-31.218;-34.049;-25.257;-37.178;-34.943;15.348;-7.562;0.522
3028374.523;-34.906;-38.557;-24.997;-42.915;-33.714;12.033;-11.921;-4.284
3028374.531;-28.573;-26.226;-23.134;-20.899;-35.241;8.047;-15.125;-8.233
3028374.539;-18.664;-13.560;-14.976;-9.313;-27.567;4.657;-16.950;-13.225
3028374.547;-17.881;-17.360;-11.697;-15.944;-21.756;-2.012;-22.464;-21.607
3028374.555;-16.391;-19.036;-14.752;-19.073;-21.867;-3.874;-23.544;-22.091
3028374.563;-16.727;-18.328;-13.672;-19.483;-23.283;-7.413;-26.301;-23.581
3028374.571;-14.119;-13.001;-10.915;-17.919;-18.440;-3.241;-23.060;-16.429
3028374.579;-13.262;-8.754;-10.058;-11.064;-16.615;-0.186;-20.340;-12.442
3028374.587;-9.835;-4.955;-3.576;-5.215;-11.399;2.235;-18.366;-12.256
3028374.595;-13.039;-11.474;-6.743;-8.270;-15.758;3.651;-17.062;-10.058
3028374.603;-12.815;-13.113;-7.711;-19.446;-24.401;4.359;-15.795;-10.915
3028374.611;-10.729;-15.311;-6.407;-20.973;-17.658;6.594;-12.890;-10.692
3028374.619;-8.233;-10.468;-5.476;-7.264;-6.109;0.857;-16.838;-16.280
3028374.627;-9.052;-6.184;-9.835;-8.233;-15.497;-6.631;-22.240;-22.687
3028374.635;-13.560;-11.511;-11.995;-7.562;-26.040;-12.815;-26.450;-25.891
3028374.643;-14.417;-15.497;-7.972;-15.348;-20.042;-19.260;-31.590;-29.244
3028374.638;-16.019;-17.099;-11.399;-17.956;-14.193;-18.813;-29.989;-25.518
3028374.646;-20.862;-19.148;-20.862;-18.291;-24.885;-8.941;-22.352;-15.199
3028374.654;-23.283;-27.791;-20.191;-24.028;-29.206;0.596;-15.683;-5.588
3028374.662;-23.246;-22.762;-20.415;-23.767;-24.028;4.433;-13.784;-1.155
3028374.670;-25.108;-23.134;-23.097;-23.507;-30.547;-0.075;-16.354;-6.482
3028374.678;-24.177;-24.699;-18.589;-27.493;-26.524;-8.717;-20.638;-15.385
3028374.686;-17.881;-16.019;-9.909;-16.615;-6.258;-10.580;-16.205;-19.297
3028374.694;-15.870;-18.403;-5.849;-11.921;-11.548;-12.070;-13.225;-21.532
3028374.702;-9.909;-14.268;-3.986;-8.978;-10.245;-11.548;-11.288;-19.521
3028374.710;-12.256;-12.293;-7.637;-15.646;-14.752;-17.025;-17.621;-24.140
3028374.718;-17.434;-14.119;-14.603;-26.859;-20.228;-18.626;-21.979;-24.699
3028374.726;-10.841;-7.749;-7.339;-12.219;-12.070;-14.789;-18.403;-17.770
3028374.734;-15.162;-12.740;-10.282;-14.305;-19.744;-9.164;-13.635;-13.039
3028374.742;-23.358;-26.450;-11.288;-28.498;-15.981;-8.270;-15.534;-13.113
3028374.750;-27.120;-31.330;-18.738;-28.163;-19.744;-2.533;-10.952;-8.903
3028374.758;-21.122;-22.762;-20.005;-27.679;-20.638;3.763;-4.396;-2.757
3028374.766;-20.154;-10.096;-19.595;-14.007;-21.383;-2.459;-10.394;-8.270
3028374.774;-20.787;-13.635;-19.744;-16.429;-30.808;-8.941;-16.093;-14.938
3028374.782;-21.271;-17.434;-16.950;-19.483;-29.579;-12.256;-17.658;-18.813
3028374.790;-20.787;-20.675;-15.758;-21.905;-20.564;-17.732;-20.340;-25.071
3028374.798;-24.252;-25.257;-19.222;-30.063;-18.254;-22.426;-25.183;-28.312
3028374.806;-22.613;-12.405;-17.621;-18.068;-22.873;-23.209;-28.908;-26.338
3028374.814;-20.824;-17.732;-15.311;-22.538;-26.040;-26.710;-34.645;-28.647
3028374.822;-15.385;-10.319;-13.150;-9.276;-19.297;-23.469;-29.802;-23.954
3028374.851;-18.217;-16.689;-15.870;-19.558;-18.552;-20.936;-25.034;-23.469
3028374.859;-14.193;-14.715;-6.184;-22.389;-14.193;-17.770;-20.266;-21.122
3028374.867;-16.503;-11.921;-8.158;-14.566;-14.268;-21.197;-22.091;-23.767
3028374.875;-22.836;-18.328;-15.683;-19.111;-12.554;-25.965;-26.934;-25.928
3028374.883;-26.599;-26.897;-22.165;-31.628;-21.160;-29.728;-32.708;-24.065
3028374.891;-20.638;-16.391;-16.056;-18.477;-21.644;-34.720;-38.780;-28.051
3028374.899;-17.658;-15.646;-11.176;-15.162;-19.744;-35.129;-41.127;-28.983
3028374.907;-22.016;-19.148;-15.497;-25.369;-22.128;-37.178;-44.443;-33.081
3028374.915;-22.314;-17.844;-18.626;-14.119;-18.552;-35.092;-40.047;-32.745
3028374.923;-18.403;-12.852;-15.199;-10.282;-23.581;-32.783;-35.837;-28.946
3028374.931;-19.446;-17.732;-9.313;-17.434;-15.721;-31.963;-34.347;-30.398
3028374.939;-20.675;-23.246;-13.597;-23.209;-15.721;-28.983;-29.877;-28.498
3028374.947;-16.876;-13.672;-13.225;-18.366;-14.193;-29.504;-30.585;-30.287
3028374.955;-12.033;-4.359;-5.253;-9.276;-11.921;-28.536;-30.883;-28.834
3028374.963;-11.399;-9.164;-4.768;-6.035;-7.413;-20.415;-24.252;-18.775
3028374.971;-17.583;-15.721;-11.101;-12.666;-16.317;-16.093;-22.799;-17.509
3028374.979;-16.503;-11.958;-10.282;-10.356;-17.956;-7.749;-16.838;-11.697
3028374.987;-18.701;-12.517;-13.895;-10.207;-14.976;-1.416;-10.952;-7.749
3028374.995;-20.266;-16.168;-15.199;-15.609;-14.566;-3.055;-11.362;-9.350
3028375.003;-17.732;-15.646;-14.156;-19.595;-23.730;-5.253;-12.442;-10.729
3028375.011;-13.299;-10.170;-9.388;-4.098;-15.423;-8.792;-13.709;-15.795
3028375.019;-7.600;2.794;-3.763;8.643;-10.654;-16.317;-17.360;-20.750
3028375.027;-15.199;-8.680;-11.772;-7.488;-18.217;-23.656;-23.283;-24.214
3028375.035;-19.744;-14.976;-15.870;-16.168;-31.218;-23.693;-22.948;-21.495
3028375.014;-19.334;-17.881;-10.729;-19.222;-18.477;-17.583;-18.999;-14.380
3028375.022;-22.724;-21.271;-14.827;-16.056;-9.909;-8.941;-13.635;-8.196
3028375.030;-27.865;-23.469;-26.710;-16.801;-25.518;-4.061;-10.766;-8.270
3028375.038;-22.128;-18.887;-18.142;-20.452;-25.332;1.304;-6.780;-8.866
3028375.046;-19.111;-9.798;-10.803;-12.293;-23.097;3.763;-5.290;-8.643
3028375.054;-18.924;-9.090;-15.348;-4.731;-20.303;1.267;-7.600;-10.133
3028375.062;-19.297;-18.179;-14.082;-7.562;-15.162;-4.247;-12.815;-16.838
3028375.070;-17.211;-16.578;-11.623;-16.205;-14.193;-8.978;-15.311;-21.309
3028375.078;-13.150;-4.247;-8.121;-10.617;-17.434;-10.915;-14.082;-23.171
3028375.086;-19.222;-7.004;-16.242;-5.327;-24.475;-22.128;-22.836;-32.969
3028375.094;-23.469;-16.838;-23.171;-18.217;-32.596;-26.636;-29.542;-33.416
3028375.102;-24.252;-24.512;-18.477;-29.355;-18.515;-26.524;-33.490;-30.100
3028375.110;-32.336;-34.049;-25.928;-29.877;-25.518;-19.707;-31.553;-23.991
3028375.118;-30.659;-29.653;-24.028;-23.283;-30.473;-5.290;-19.744;-13.001
3028375.126;-27.604;-19.707;-22.911;-24.065;-21.271;2.719;-10.543;-9.984
3028375.134;-19.036;-10.543;-16.429;-22.911;-18.999;8.121;-3.278;-7.562
3028375.142;-14.603;-11.660;-9.835;-13.150;-13.523;10.133;1.378;-6.817
3028375.150;-16.429;-12.144;-11.399;-11.176;-14.529;5.402;-1.937;-7.972
3028375.158;-14.082;-6.184;-10.766;-6.445;-17.956;0.969;-5.811;-12.182
3028375.166;-15.721;-9.499;-13.150;-10.245;-20.750;-3.539;-9.574;-15.944
3028375.174;-17.658;-15.832;-15.832;-11.809;-16.689;-12.964;-17.993;-19.185
3028375.182;-22.501;-16.578;-20.154;-14.491;-19.856;-22.314;-25.816;-24.624
3028375.190;-17.732;-10.654;-15.944;-10.431;-16.205;-18.291;-20.638;-18.440
3028375.198;-20.005;-12.629;-19.781;-14.789;-24.214;-12.182;-15.460;-13.970
3028375.223;-22.091;-13.746;-19.856;-19.819;-19.819;-6.780;-10.170;-13.225
3028375.231;-16.168;-12.480;-19.632;-14.268;-16.689;-2.272;-3.465;-12.182
3028375.239;-12.256;-7.041;-10.356;-8.345;-14.752;0.782;-0.186;-12.182
3028375.247;-9.127;-0.298;-4.992;3.502;-6.333;2.161;1.788;-10.394
3028375.255;-12.554;-4.172;-8.084;-1.937;-8.866;-2.682;-2.608;-11.064
3028375.263;-22.911;-23.358;-18.254;-22.426;-19.111;-14.901;-13.113;-18.552
3028375.271;-28.536;-25.667;-28.089;-24.773;-31.739;-26.710;-22.016;-24.661
3028375.279;-27.902;-16.876;-28.349;-15.013;-34.347;-31.404;-23.022;-27.046
3028375.287;-29.989;-27.381;-27.083;-24.065;-30.585;-33.006;-23.060;-25.183
3028375.295;-34.012;-37.439;-25.146;-35.092;-20.638;-30.994;-23.581;-22.054
3028375.303;-36.508;-31.777;-31.702;-31.926;-23.879;-22.948;-19.297;-17.285
3028375.311;-27.455;-13.113;-26.301;-12.629;-30.026;-12.442;-10.617;-11.772
3028375.319;-22.203;-9.723;-20.936;-6.929;-18.440;-9.388;-6.966;-14.417
3028375.327;-18.552;-11.846;-18.030;-4.657;-16.652;-10.207;-5.923;-16.540
3028375.335;-20.340;-22.613;-18.328;-23.171;-22.240;-10.468;-6.147;-14.789
3028375.343;-26.524;-26.673;-24.252;-25.481;-25.071;-19.111;-16.838;-21.346
3028375.351;-22.687;-12.219;-17.919;-9.984;-11.474;-27.269;-25.295;-23.618
3028375.359;-21.234;-12.554;-15.609;-10.468;-4.508;-30.920;-26.822;-24.028
3028375.367;-17.434;-12.815;-10.617;-16.950;-5.700;-27.753;-24.699;-21.234
3028375.375;-20.303;-20.601;-13.486;-25.481;-17.136;-22.613;-18.962;-16.727
3028375.383;-19.372;-15.870;-11.064;-22.799;-19.446;-18.738;-16.838;-12.107
3028375.391;-1.863;7.972;7.637;2.570;5.998;-7.488;-7.600;-1.416
3028375.399;9.164;15.646;18.440;10.952;18.403;0.410;-1.416;4.023
3028375.407;12.554;17.919;20.079;15.497;20.154;1.453;-1.229;1.416
3028375.404;16.503;22.873;22.538;13.821;12.852;2.794;1.825;-0.782
3028375.412;34.161;44.405;41.649;31.069;35.502;0.224;1.788;-6.519
3028375.420;54.874;67.130;63.851;58.226;53.197;1.863;6.445;-4.992
3028375.428;59.083;71.377;67.838;63.851;53.346;4.135;10.058;-1.267
3028375.436;67.912;85.309;77.002;76.108;53.458;-1.565;3.353;-0.745
3028375.444;70.632;91.121;81.696;84.192;65.751;-5.998;-2.310;-1.788
3028375.452;67.651;91.903;72.345;86.576;55.321;-7.153;-5.402;-2.459
3028375.460;59.456;80.355;61.728;77.933;41.761;-2.496;-3.390;3.129
3028375.468;49.099;69.439;54.315;70.743;40.531;7.153;4.731;10.096
3028375.476;29.057;49.435;32.522;47.274;22.203;5.625;5.253;4.098
3028375.484;9.239;24.848;9.984;19.148;9.425;-0.969;2.719;-5.923
3028375.492;-7.972;6.929;-8.754;-2.421;-5.066;-6.668;-0.782;-12.107
3028375.500;-22.426;-15.832;-19.558;-24.363;-22.054;-7.227;-1.900;-12.107
3028375.508;-35.167;-34.645;-31.963;-38.780;-29.393;-14.119;-9.350;-18.105
3028375.516;-34.422;-33.341;-32.037;-33.863;-23.618;-15.497;-12.778;-17.285
3028375.524;-49.621;-52.154;-49.584;-46.343;-41.984;-24.810;-24.550;-24.438
3028375.532;-54.725;-47.162;-59.567;-52.601;-55.283;-21.122;-25.779;-18.403
3028375.540;-59.791;-51.670;-62.808;-57.630;-58.264;-16.913;-25.816;-13.113
3028375.548;-67.241;-67.428;-64.112;-65.267;-52.303;-10.543;-21.420;-9.947
3028375.556;-62.287;-58.301;-58.897;-55.097;-46.976;-3.241;-11.697;-5.290
3028375.564;-56.475;-53.011;-53.309;-50.925;-43.660;4.396;-1.602;-1.378
3028375.572;-57.518;-54.836;-57.332;-53.942;-48.690;3.502;-0.112;-3.353
3028375.580;-63.293;-58.450;-62.399;-61.505;-55.879;-10.841;-12.629;-15.795
3028375.588;-68.843;-62.548;-62.697;-59.716;-57.817;-18.701;-19.707;-22.911
3028375.615;-78.529;-72.531;-77.039;-61.914;-69.253;-20.228;-21.756;-24.065
3028375.623;-73.202;-73.798;-69.775;-64.485;-58.189;-10.245;-10.431;-18.068
3028375.631;-68.732;-67.763;-63.442;-72.382;-56.736;-5.551;-5.029;-16.801
3028375.639;-62.920;-58.301;-61.505;-58.524;-57.109;0.559;-1.863;-11.176
3028375.647;-63.479;-53.532;-62.361;-46.529;-43.884;4.172;1.267;-8.419
3028375.655;-68.620;-58.934;-68.657;-57.481;-57.518;0.745;-2.906;-12.256
3028375.663;-69.663;-67.279;-65.342;-62.063;-60.275;3.241;-2.123;-11.623
3028375.671;-75.065;-75.586;-71.861;-74.990;-63.628;2.645;-5.737;-11.697
3028375.679;-76.406;-73.016;-74.618;-72.792;-61.765;-1.825;-10.766;-15.572
3028375.687;-78.194;-70.184;-76.629;-71.526;-65.342;-3.166;-11.437;-18.030
3028375.695;-71.526;-68.471;-66.496;-66.236;-56.364;2.831;-5.513;-11.213
3028375.703;-72.531;-72.345;-67.763;-63.144;-57.556;15.795;6.035;-0.931
3028375.711;-72.941;-68.210;-72.829;-74.469;-67.391;19.036;6.482;-0.633
3028375.719;-62.361;-47.907;-64.895;-53.756;-56.736;14.380;2.719;-5.700
3028375.727;-74.804;-62.846;-78.827;-65.118;-72.196;11.027;0.522;-9.798
3028375.735;-82.254;-77.188;-85.980;-81.472;-80.168;7.637;-1.639;-12.368
3028375.743;-85.533;-84.937;-87.023;-88.364;-78.976;9.313;1.043;-9.201
3028375.751;-87.060;-88.923;-89.072;-83.186;-82.143;8.680;-0.112;-6.706
3028375.759;-92.424;-93.654;-98.571;-90.003;-96.187;8.680;-0.633;-5.215
3028375.767;-90.450;-78.902;-97.640;-79.572;-91.977;9.239;-0.298;-5.104
3028375.775;-85.458;-74.990;-90.152;-75.810;-82.031;6.407;-1.751;-8.009
3028375.783;-81.584;-76.741;-85.272;-73.425;-73.016;7.860;0.633;-5.849
3028375.791;-87.321;-83.037;-87.880;-76.592;-78.417;3.241;-2.310;-10.133
3028375.799;-83.670;-79.386;-88.029;-77.747;-81.174;1.788;-2.459;-11.399
3028375.794;-86.129;-81.807;-91.791;-76.815;-86.054;-2.645;-5.253;-16.764
3028375.802;-89.146;-93.281;-91.568;-84.862;-91.977;-4.843;-5.700;-18.477
3028375.810;-86.837;-79.311;-86.427;-76.815;-78.194;-2.347;-4.061;-14.044
3028375.818;-90.301;-80.205;-90.562;-78.008;-76.927;-1.378;-5.513;-9.649
3028375.826;-103.302;-97.714;-102.632;-96.112;-96.187;-4.247;-10.319;-7.600
3028375.834;-102.445;-95.367;-100.955;-97.267;-91.977;-4.396;-11.176;-5.588
3028375.842;-103.600;-104.606;-102.632;-101.104;-89.481;-8.494;-16.019;-8.568
3028375.850;-97.454;-101.104;-97.491;-91.940;-94.958;-6.407;-11.586;-7.935
3028375.858;-93.095;-85.607;-92.648;-81.770;-82.292;-8.345;-10.766;-12.778
3028375.866;-82.664;-71.414;-79.870;-69.849;-65.267;-4.955;-5.439;-12.852
3028375.874;-79.498;-73.165;-77.859;-69.961;-62.548;-6.407;-5.066;-13.337
3028375.882;-83.745;-77.635;-82.627;-76.704;-75.325;-8.047;-7.749;-12.554
3028375.890;-79.572;-74.953;-77.337;-71.302;-68.881;-1.006;-1.788;-5.737
3028375.898;-80.392;-77.263;-79.088;-72.047;-66.683;-2.831;-3.502;-6.668
3028375.906;-80.168;-73.463;-80.094;-72.457;-70.781;-1.304;-2.496;-4.210
3028375.914;-87.209;-82.590;-83.260;-81.211;-72.122;-6.966;-9.462;-10.170
3028375.922;-90.189;-81.621;-85.905;-83.856;-73.574;-13.150;-15.795;-13.039
3028375.930;-91.642;-85.905;-91.530;-83.335;-85.607;-13.188;-14.640;-10.468
3028375.938;-87.582;-83.409;-88.364;-76.219;-85.719;-13.709;-15.199;-9.872
3028375.946;-85.160;-84.303;-85.682;-75.437;-71.935;-14.715;-15.832;-11.623
3028375.954;-82.217;-76.033;-79.684;-68.508;-65.304;-14.156;-13.337;-13.672
3028375.962;-79.125;-71.973;-75.661;-68.471;-66.683;-14.789;-13.746;-14.715
3028375.970;-75.139;-69.402;-75.065;-68.061;-63.255;-13.486;-14.156;-10.468
3028375.978;-83.558;-79.125;-85.384;-76.778;-77.523;-18.328;-19.297;-14.231
3028375.975;-83.223;-81.286;-84.639;-77.374;-74.618;-17.770;-17.695;-13.560
3028375.983;-74.506;-65.453;-73.761;-62.548;-67.241;-10.096;-8.829;-7.898
3028375.991;-74.618;-69.477;-71.600;-62.287;-54.650;-12.256;-9.723;-12.256
3028375.999;-69.104;-65.789;-64.746;-64.299;-53.272;-11.995;-10.021;-13.150
3028376.007;-74.394;-72.382;-70.073;-64.895;-60.275;-20.526;-19.036;-19.819
3028376.015;-77.523;-76.778;-75.661;-72.196;-70.371;-20.377;-19.409;-16.354
3028376.023;-76.294;-69.104;-76.070;-65.342;-69.588;-13.858;-12.480;-8.941
3028376.031;-74.357;-70.930;-68.434;-72.233;-54.501;-14.789;-14.976;-8.419
3028376.039;-71.153;-65.938;-67.130;-59.009;-56.699;-18.328;-17.844;-10.282
3028376.047;-68.024;-63.144;-62.287;-57.034;-58.264;-20.303;-17.770;-13.188
3028376.055;-65.677;-58.524;-60.685;-56.326;-52.415;-18.366;-15.497;-11.995
3028376.063;-64.112;-58.152;-62.361;-54.501;-56.587;-15.497;-12.033;-10.654
3028376.071;-60.685;-58.524;-60.052;-57.966;-52.676;-13.150;-9.723;-8.233
3028376.079;-62.548;-63.106;-61.616;-61.020;-57.332;-12.442;-9.984;-8.717
3028376.087;-69.290;-68.210;-69.216;-69.477;-74.394;-21.495;-20.638;-17.099
3028376.095;-67.204;-58.711;-62.548;-54.985;-54.725;-29.728;-29.579;-22.724
3028376.103;-66.198;-58.040;-61.132;-47.944;-43.772;-35.502;-34.422;-27.157
3028376.111;-63.144;-59.977;-59.791;-51.223;-47.572;-33.341;-29.504;-26.375
3028376.119;-57.854;-55.172;-53.979;-43.809;-49.509;-26.338;-21.309;-21.271
3028376.127;-59.344;-55.321;-57.183;-53.272;-56.289;-22.352;-16.876;-16.093
3028376.135;-62.771;-49.919;-63.367;-51.148;-67.018;-21.644;-16.727;-15.646
3028376.143;-65.602;-56.438;-62.361;-52.229;-53.644;-18.999;-17.360;-15.199
3028376.151;-68.732;-62.399;-65.714;-54.277;-60.908;-15.087;-16.838;-11.995
3028376.159;-70.930;-66.720;-67.987;-55.097;-65.975;-13.933;-16.168;-13.895
3028376.184;-71.488;-65.379;-67.763;-62.846;-65.416;-15.050;-16.615;-17.211
3028376.192;-66.087;-61.542;-64.969;-56.438;-64.746;-13.188;-13.039;-12.591
3028376.200;-61.430;-50.142;-59.903;-49.472;-61.318;-13.895;-12.964;-12.033
3028376.208;-60.089;-52.005;-56.364;-49.956;-50.776;-14.789;-14.231;-10.990
3028376.216;-65.155;-66.608;-65.044;-60.275;-56.364;-16.019;-15.534;-10.952
3028376.224;-62.771;-59.605;-60.983;-60.052;-63.926;-14.193;-15.646;-10.468
3028376.232;-56.326;-51.856;-54.128;-45.374;-54.017;-7.376;-13.225;-3.688
3028376.240;-63.181;-58.115;-64.336;-51.931;-58.524;-6.370;-15.981;-4.508
3028376.248;-67.391;-66.720;-64.559;-61.840;-64.299;-6.557;-20.117;-9.537
3028376.256;-62.026;-59.456;-57.667;-57.518;-51.111;6.370;-6.333;-2.272
3028376.264;-61.505;-52.862;-57.817;-49.137;-54.985;7.898;-2.719;-4.657
3028376.272;-52.825;-46.976;-49.211;-46.082;-43.400;-4.545;-13.486;-15.311
3028376.280;-58.264;-53.123;-55.209;-59.307;-50.329;-9.611;-17.658;-19.483
3028376.288;-64.187;-63.032;-63.516;-66.571;-59.493;-13.076;-20.862;-21.458
3028376.296;-70.930;-76.666;-72.122;-82.180;-70.855;-12.890;-19.968;-19.111
3028376.304;-69.626;-70.371;-67.353;-72.494;-61.356;-16.168;-24.587;-19.260
3028376.312;-69.626;-66.981;-69.588;-67.428;-57.556;-15.013;-25.742;-16.838
3028376.320;-75.027;-73.835;-73.276;-79.535;-63.218;-13.858;-26.412;-16.093
3028376.328;-73.425;-70.184;-68.694;-73.910;-64.336;-6.631;-19.930;-10.803
3028376.336;-71.563;-70.147;-69.626;-75.996;-65.118;-1.155;-13.635;-6.296
3028376.344;-75.698;-77.933;-74.320;-78.566;-66.832;-6.780;-18.403;-13.150
3028376.352;-72.084;-69.663;-71.041;-70.855;-65.789;-5.998;-15.609;-13.225
3028376.360;-65.751;-61.095;-66.496;-72.084;-63.144;-5.290;-11.958;-11.660
3028376.368;-64.485;-62.734;-62.101;-68.881;-47.088;-11.362;-16.503;-13.337
3028376.365;-68.322;-70.706;-64.038;-73.761;-50.925;-16.242;-21.048;-17.025
3028376.373;-80.429;-80.317;-79.945;-82.180;-70.669;-25.667;-31.330;-23.358
3028376.381;-73.947;-70.408;-71.153;-73.761;-70.632;-23.209;-29.691;-19.297
3028376.389;-65.826;-62.287;-62.510;-69.290;-50.478;-11.213;-16.615;-9.462
3028376.397;-65.528;-62.063;-62.399;-67.949;-51.148;-4.135;-8.382;-4.582
3028376.405;-67.428;-66.012;-62.659;-78.268;-49.956;-1.416;-4.806;-4.247
3028376.413;-70.706;-69.179;-67.391;-72.941;-58.189;-5.849;-8.382;-9.835
3028376.421;-65.044;-64.522;-60.648;-63.032;-52.042;-11.474;-13.337;-13.150
3028376.429;-57.928;-54.315;-50.925;-60.983;-50.552;-13.337;-13.560;-13.113
3028376.437;-57.369;-53.197;-55.991;-56.103;-50.366;-16.540;-14.752;-15.311
3028376.445;-59.009;-59.046;-57.109;-65.081;-51.521;-20.228;-19.036;-17.285
3028376.453;-64.895;-63.479;-61.616;-69.700;-59.530;-23.469;-22.240;-18.403
3028376.461;-63.628;-59.791;-62.622;-63.851;-54.240;-20.862;-20.228;-13.337
3028376.469;-65.602;-58.189;-65.528;-63.516;-57.481;-19.036;-20.191;-12.144
3028376.477;-61.989;-57.481;-58.524;-63.702;-54.874;-13.001;-14.156;-6.519
3028376.485;-53.197;-45.225;-54.054;-48.243;-47.646;-6.706;-6.855;-0.820
3028376.493;-60.722;-57.220;-59.456;-60.983;-48.280;-16.205;-15.981;-12.442
3028376.501;-58.301;-52.825;-54.091;-60.387;-46.343;-18.664;-18.403;-13.262
3028376.509;-56.289;-46.641;-53.309;-50.217;-51.893;-22.613;-21.681;-16.801
3028376.517;-53.048;-49.919;-50.850;-57.928;-49.174;-21.234;-19.483;-15.199
3028376.525;-53.458;-53.495;-53.197;-55.358;-49.286;-20.377;-18.738;-12.554
3028376.533;-51.856;-45.933;-53.421;-45.411;-46.864;-23.805;-22.724;-15.348
3028376.541;-52.117;-48.019;-50.627;-47.162;-40.159;-24.475;-23.097;-15.087
3028376.549;-51.558;-47.907;-50.068;-48.392;-38.221;-21.644;-19.409;-13.523
3028376.558;-46.752;-41.127;-41.574;-48.876;-36.806;-20.303;-18.291;-12.368
3028376.566;-46.976;-44.182;-40.419;-49.770;-36.769;-22.799;-21.607;-14.342
3028376.574;-49.137;-44.405;-47.348;-54.874;-39.637;-24.214;-23.320;-14.491
3028376.582;-46.864;-40.345;-49.733;-41.798;-48.429;-21.346;-21.346;-9.909
3028376.590;-44.256;-40.792;-40.755;-43.660;-36.396;-23.358;-24.140;-11.250
3028376.598;-43.847;-45.002;-39.898;-45.896;-32.447;-25.183;-26.338;-10.729
3028376.606;-41.723;-40.755;-37.700;-46.194;-28.908;-23.805;-24.773;-9.052
3028376.614;-43.288;-37.476;-38.370;-43.809;-31.330;-25.183;-26.412;-11.623
3028376.622;-37.737;-32.932;-33.751;-40.978;-26.822;-19.632;-21.234;-6.147
3028376.630;-37.961;-37.067;-34.496;-42.319;-30.957;-19.409;-21.756;-6.631
3028376.638;-38.147;-40.606;-35.502;-47.684;-32.224;-22.277;-23.693;-8.382
3028376.646;-22.836;-19.148;-21.830;-27.530;-25.369;-23.842;-26.040;-9.686
3028376.654;-19.446;-13.672;-23.842;-18.962;-29.802;-18.254;-20.564;-6.184
3028376.662;-8.866;-7.339;-4.098;-16.354;-15.907;-16.689;-17.099;-4.992
3028376.670;-7.525;-5.141;-0.447;-16.727;-5.104;-12.219;-11.921;-4.284
3028376.678;-8.792;1.080;-6.706;-14.678;-9.462;-11.474;-11.399;-4.172
3028376.686;-12.703;-4.992;-9.388;-15.348;-15.907;-13.560;-13.821;-6.557
3028376.694;-18.850;-16.280;-14.156;-24.028;-23.954;-13.784;-15.348;-5.700
3028376.702;-19.222;-16.242;-12.517;-22.277;-24.922;-9.947;-12.927;-0.857
3028376.710;-24.922;-17.323;-14.901;-26.338;-18.328;-5.513;-9.872;0.484
3028376.718;-28.796;-17.397;-14.938;-30.696;-14.007;-0.745;-6.706;3.614
3028376.726;-25.854;-13.933;-9.984;-27.493;-9.090;2.235;-3.353;6.631
3028376.734;-35.278;-27.344;-21.383;-37.327;-20.862;-2.906;-7.935;1.490
3028376.742;-38.520;-27.418;-28.387;-46.715;-28.834;-5.811;-11.101;-2.123
3028376.753;-42.878;-30.920;-28.722;-45.002;-36.284;-7.004;-12.405;-5.439
3028376.761;-44.405;-31.292;-30.100;-41.723;-31.777;-10.468;-15.870;-6.407
3028376.769;-39.823;-23.320;-25.369;-33.043;-25.891;-11.772;-16.280;-5.215
3028376.777;-33.006;-15.832;-21.458;-27.046;-26.412;-6.594;-9.611;-1.751
3028376.785;-30.063;-15.236;-21.011;-26.859;-27.083;-2.570;-5.178;1.006
3028376.793;-32.969;-20.079;-21.532;-31.590;-24.885;-4.731;-9.499;-3.166
3028376.801;-32.783;-19.297;-19.409;-36.918;-33.379;-1.863;-6.743;-3.427
3028376.809;-32.373;-19.558;-18.440;-34.943;-35.428;0.857;-5.178;-3.204
3028376.817;-37.439;-21.383;-23.842;-36.843;-33.155;-5.625;-13.709;-9.090
3028376.825;-37.029;-19.446;-24.997;-33.602;-25.816;-5.513;-14.007;-9.649
3028376.833;-36.582;-23.134;-25.108;-35.465;-31.963;-2.347;-10.207;-8.717
3028376.841;-38.929;-32.000;-29.281;-43.251;-39.302;-2.719;-11.921;-9.015
3028376.849;-33.267;-22.054;-22.203;-35.688;-38.408;-4.731;-14.342;-10.990
3028376.857;-24.661;-10.282;-7.711;-22.762;-16.987;-1.043;-9.239;-9.239
3028376.865;-21.830;-10.841;-9.313;-22.277;-12.405;5.327;-4.396;-2.682
3028376.873;-31.441;-18.440;-63.032;-35.167;-24.140;1.825;-8.680;-5.439
3028376.881;-38.594;-23.767;-108.220;-42.990;-40.419;-1.006;-12.815;-8.494
3028376.889;-38.520;-29.616;-111.163;-41.984;-37.365;3.465;-10.580;-4.806
3028376.897;-39.078;-30.808;-110.231;-41.090;-32.075;11.586;-3.949;-0.335
3028376.905;-41.127;-26.859;-107.214;-49.472;-32.634;12.256;-4.098;-2.161
3028376.913;-43.847;-25.295;-111.088;-51.334;-38.780;10.692;-5.215;-4.284
3028376.921;-46.231;-33.230;-113.659;-52.974;-40.121;9.686;-5.662;-3.874
3028376.929;-45.672;-33.714;-112.019;-51.148;-38.520;7.637;-7.115;-4.061
3028376.937;-44.107;-29.020;-109.002;-47.460;-36.284;3.390;-9.388;-6.519
3028376.935;-46.603;-39.227;-111.535;-58.375;-44.554;-0.037;-11.660;-8.233
3028376.943;-41.425;-32.000;-104.308;-51.446;-31.404;-0.745;-12.480;-7.674
3028376.951;-32.708;-18.254;-94.995;-46.641;-21.569;-1.527;-14.305;-4.843
3028376.959;-32.336;-15.274;-90.562;-38.184;-22.426;-3.241;-15.572;-3.316
3028376.967;-43.847;-32.894;-102.594;-43.400;-33.528;-8.047;-21.905;-9.239
3028376.975;-51.782;-41.313;-110.529;-59.195;-35.055;-12.554;-27.493;-15.050
3028376.983;-52.005;-36.769;-108.257;-63.702;-40.643;-10.990;-27.083;-14.938
3028376.991;-49.658;-40.494;-107.661;-59.418;-38.780;-4.545;-20.117;-7.227
3028376.999;-46.603;-35.241;-105.985;-57.742;-42.021;-3.055;-16.280;-7.898
3028377.007;-51.223;-36.135;-108.257;-59.940;-47.125;-12.852;-25.444;-17.434
3028377.015;-53.532;-40.270;-106.506;-59.567;-39.637;-20.154;-33.230;-18.999
3028377.023;-52.191;-48.764;-102.781;-65.193;-38.855;-20.452;-31.963;-15.832
3028377.031;-51.893;-41.202;-104.867;-61.281;-42.282;-24.959;-34.906;-17.844
3028377.039;-53.346;-40.904;-104.196;-60.946;-44.927;-24.065;-36.769;-15.125
3028377.047;-51.260;-35.055;-103.526;-61.989;-44.145;-19.819;-33.863;-13.150
3028377.055;-49.584;-39.414;-101.849;-61.877;-43.511;-15.348;-27.530;-11.772
3028377.063;-43.698;-37.067;-90.487;-57.034;-23.022;-6.966;-17.174;-5.141
3028377.071;-54.352;-45.858;-101.253;-66.794;-35.763;-10.096;-22.464;-9.723
3028377.079;-50.552;-44.405;-98.161;-67.353;-39.712;-4.545;-18.924;-2.310
3028377.087;-50.962;-41.910;-99.801;-70.147;-39.339;-5.662;-19.222;-5.029
3028377.095;-41.537;-28.871;-89.929;-58.524;-33.975;-1.565;-14.529;0.186
3028377.103;-36.545;-24.214;-80.355;-50.589;-24.922;-0.559;-13.746;-0.484
3028377.111;-25.928;-18.477;-71.079;-51.260;-16.131;8.158;-4.992;5.960
3028377.119;-28.610;-25.108;-72.047;-54.240;-21.718;2.012;-11.250;2.757
3028377.158;-47.497;-39.004;-88.066;-70.445;-33.677;-12.368;-27.493;-12.293
3028377.166;-49.770;-37.178;-90.003;-74.916;-30.734;-12.554;-31.553;-9.686
3028377.174;-53.756;-42.059;-96.075;-76.480;-38.408;-10.468;-31.106;-4.172
3028377.182;-57.593;-58.226;-96.560;-80.355;-50.217;-10.915;-30.957;-7.339
3028377.190;-49.062;-50.403;-83.707;-80.429;-38.296;-6.966;-25.257;-8.829
3028377.198;-51.036;-39.525;-89.742;-77.523;-47.572;-17.881;-34.608;-19.297
3028377.206;-42.692;-26.897;-81.249;-59.791;-29.244;-15.050;-31.032;-15.162
3028377.214;-42.245;-41.053;-75.698;-71.935;-13.448;-8.792;-24.512;-9.127
3028377.222;-34.459;-24.810;-67.204;-70.520;-22.873;-9.499;-25.183;-11.511
3028377.230;-32.149;-22.389;-63.628;-65.789;-25.593;-14.901;-30.994;-15.609
3028377.238;-34.496;-8.866;-67.130;-45.933;-28.424;-17.174;-35.018;-14.640
3028377.246;-9.723;7.823;-35.614;-30.585;5.253;7.227;-9.276;8.605
3028377.254;-4.210;14.007;-32.075;-34.012;14.864;5.290;-7.451;3.390
3028377.262;-22.911;-9.276;-50.142;-57.630;-4.284;-16.131;-28.983;-18.552
3028377.270;-9.872;9.239;-36.955;-39.227;-1.937;-5.029;-18.403;-9.984
3028377.278;11.697;32.037;-10.170;-7.041;17.881;2.235;-10.543;-1.825
3028377.286;28.946;39.339;8.382;7.525;28.647;-0.261;-12.852;-4.023
3028377.294;39.339;54.911;20.191;8.680;29.877;-2.794;-16.466;-7.525
3028377.302;72.271;123.158;45.076;58.785;64.857;0.000;-14.454;-3.241
3028377.310;92.387;130.236;67.987;74.208;83.968;7.600;-5.253;4.731
3028377.318;114.515;150.837;100.397;99.503;110.045;18.291;7.749;13.672
3028377.326;126.399;164.285;115.521;106.879;130.460;9.313;-1.304;5.029
3028377.334;127.554;178.218;112.019;114.813;117.980;5.439;-5.364;-0.410
3028377.342;127.070;168.830;111.908;101.402;110.529;12.256;1.229;5.290
3028377.325;125.766;155.196;115.074;94.101;123.419;18.477;6.296;10.841
3028377.333;120.327;159.740;109.449;99.204;124.313;16.317;4.992;7.823
3028377.341;101.402;133.812;86.874;70.743;99.763;8.345;-2.943;3.316
3028377.349;91.419;125.356;76.927;57.071;86.538;10.803;-1.043;7.041
3028377.357;106.953;140.108;96.299;72.569;113.696;35.837;23.544;33.043
3028377.365;73.351;92.685;62.250;25.295;86.688;17.919;5.141;15.795
3028377.373;40.643;56.289;23.432;-8.531;45.300;2.682;-10.170;1.974
3028377.381;35.241;68.247;15.274;-12.554;29.020;1.304;-9.909;3.763
3028377.389;26.785;62.957;12.405;-20.228;28.871;-0.931;-9.313;0.186
3028377.397;16.689;39.898;3.390;-32.485;28.946;2.272;-7.302;2.272
3028377.405;20.303;36.061;5.215;-35.428;25.183;11.362;1.118;12.070
3028377.413;22.538;42.170;9.239;-30.957;33.975;10.282;0.186;11.958
3028377.421;23.991;46.603;9.090;-32.783;29.914;14.082;3.874;15.236
3028377.429;0.596;24.065;-14.566;-57.966;3.465;0.484;-12.219;0.075
3028377.437;-12.703;10.207;-29.951;-71.973;-2.310;-5.811;-19.036;-7.637
3028377.445;-11.325;8.531;-26.561;-71.637;0.745;-4.433;-17.807;-6.706
3028377.453;-8.531;12.033;-20.303;-76.070;6.557;0.969;-13.150;-4.321
3028377.461;-13.746;4.321;-28.014;-76.666;3.576;2.384;-11.027;-4.768
3028377.469;-20.899;7.935;-32.037;-83.856;-6.594;-0.969;-14.491;-4.247
3028377.477;-21.383;3.092;-28.312;-85.011;3.316;-3.837;-14.454;-9.499
3028377.485;-3.949;25.928;-11.846;-64.895;16.093;10.319;2.421;1.974
3028377.493;-11.735;14.491;-19.409;-69.141;11.586;4.210;0.075;-2.421
3028377.501;-26.003;-5.141;-40.382;-94.697;-5.364;-6.184;-10.207;-11.958
3028377.509;-27.530;-12.033;-37.514;-103.004;-9.350;4.359;-3.949;2.086
3028377.519;-10.692;23.395;-13.970;-75.959;22.277;19.819;8.345;17.583
3028377.527;-47.982;-16.391;-56.475;-113.249;-18.328;-3.912;-15.944;-11.101
3028377.535;-54.464;-23.395;-63.330;-117.868;-30.361;-18.366;-30.883;-28.946
3028377.543;-29.467;-7.339;-35.651;-106.767;-3.502;-12.480;-24.736;-21.867
3028377.551;-6.407;17.136;-7.227;-99.912;14.491;-0.261;-12.144;-11.735
3028377.559;22.538;52.378;20.489;-74.618;41.761;19.521;5.662;10.021
3028377.567;25.630;54.613;26.822;-79.386;48.429;10.692;-2.161;2.012
3028377.575;0.037;27.977;1.118;-100.881;22.873;-17.583;-28.796;-28.014
3028377.583;10.468;35.129;14.901;-87.619;31.032;-2.161;-13.895;-8.978
3028377.591;22.277;54.799;32.522;-73.239;46.231;5.849;-3.651;1.118
3028377.599;5.290;45.560;14.044;-84.229;28.424;-9.052;-15.721;-12.405
3028377.607;14.007;48.764;22.016;-90.674;43.586;2.831;-2.198;0.075
3028377.615;5.737;35.465;14.454;-97.789;31.926;-2.608;-8.643;-5.253
3028377.623;0.633;28.275;8.419;-101.216;26.450;-6.147;-14.082;-8.307
3028377.631;-17.881;18.775;-10.096;-120.401;10.207;-19.148;-26.822;-27.120
3028377.639;-12.554;24.214;-5.439;-106.730;21.495;-9.723;-17.025;-17.956
3028377.647;-10.803;30.920;-1.937;-106.841;22.985;-3.614;-8.531;-8.531
3028377.655;-29.765;5.960;-17.285;-135.899;9.201;-15.236;-18.552;-17.695
3028377.663;-22.762;4.098;-13.001;-137.202;19.260;-9.201;-10.021;-10.505
3028377.671;1.006;26.710;7.749;-103.302;41.239;7.972;11.809;5.774
3028377.679;10.915;48.503;18.328;-97.379;51.185;8.084;12.778;8.941
3028377.687;-10.021;32.559;-5.625;-109.784;25.854;-15.311;-8.605;-11.735
3028377.695;-10.394;24.475;-9.164;-115.559;23.469;-22.054;-12.293;-18.962
3028377.703;-13.933;14.752;-12.927;-121.705;17.062;-37.886;-27.530;-32.224
3028377.715;-13.821;13.225;-7.860;-117.458;28.200;-40.010;-30.063;-32.037
3028377.723;-11.735;13.784;-5.029;-115.819;36.918;-31.702;-22.314;-23.581
3028377.731;-7.525;19.148;-0.969;-116.006;42.617;-22.165;-11.884;-16.764
3028377.739;-20.005;11.586;-17.844;-125.021;21.346;-33.155;-21.942;-29.355
3028377.747;-16.987;22.985;-19.595;-109.412;19.781;-32.149;-20.452;-26.263
3028377.755;1.267;31.330;7.153;-95.554;52.750;-18.887;-6.631;-14.491
3028377.763;-6.370;20.973;1.565;-112.094;51.484;-23.246;-13.225;-19.260
3028377.771;-12.852;21.793;-12.629;-106.469;38.259;-24.587;-16.131;-17.546
3028377.779;-26.263;4.992;-23.283;-123.158;18.403;-41.127;-29.057;-40.494
3028377.787;-10.580;24.065;-6.333;-115.670;35.949;-27.083;-14.082;-26.487
3028377.795;-10.543;22.613;-3.688;-113.137;41.574;-22.091;-7.674;-22.575
3028377.803;-7.786;24.177;-5.476;-106.357;43.698;-15.944;-3.651;-15.572
3028377.811;4.433;44.778;4.843;-90.674;43.847;-16.056;-4.992;-16.056
3028377.819;7.190;41.649;8.866;-90.785;48.317;-14.678;-1.937;-14.454
3028377.827;12.256;37.812;17.472;-92.834;60.722;-13.895;0.708;-10.431
3028377.835;24.587;48.876;28.424;-86.054;75.884;-3.874;13.113;0.633
3028377.843;16.168;42.245;16.503;-103.116;55.432;-10.245;7.600;-4.582
3028377.851;19.670;46.268;21.681;-86.129;66.198;-12.517;5.439;-5.439
3028377.859;26.338;54.985;26.263;-65.416;79.423;-5.886;13.560;2.123
3028377.867;22.911;53.905;21.607;-74.357;68.247;-8.829;11.064;-4.470
3028377.875;8.419;39.078;14.715;-100.508;59.679;-23.656;-7.227;-16.168
3028377.883;-0.075;27.530;6.966;-97.230;47.348;-31.255;-15.013;-25.071
3028377.891;6.109;37.923;11.735;-84.229;56.736;-23.656;-4.806;-20.936
3028377.899;14.715;47.758;16.727;-77.374;63.516;-6.557;14.305;-3.502
3028377.894;11.772;37.327;11.995;-86.948;57.407;-4.172;17.546;1.080
3028377.902;-2.198;23.581;0.447;-110.455;45.374;-16.131;8.643;-13.895
3028377.910;-16.689;9.388;-15.087;-119.880;29.765;-24.550;-0.745;-19.893
3028377.918;-10.468;20.154;-7.004;-103.675;32.559;-16.578;3.986;-7.041
3028377.926;-2.794;24.512;4.061;-100.434;48.503;-16.987;2.235;-7.451
3028377.934;4.917;30.138;8.456;-109.822;50.180;-16.913;2.235;-9.537
3028377.942;2.347;32.485;7.264;-104.718;47.125;-15.534;3.204;-10.245
3028377.950;1.751;26.599;5.513;-101.738;46.678;-8.531;9.723;-5.439
3028377.958;3.055;26.785;5.402;-104.792;52.303;-3.390;13.895;-0.708
3028377.966;9.723;34.906;12.591;-98.795;55.693;-1.416;13.262;2.421
3028377.974;23.916;49.174;31.292;-79.945;74.059;3.614;16.242;10.990
3028377.982;1.378;21.681;7.786;-100.210;51.036;-8.196;6.221;-1.974
3028377.990;-0.708;20.340;8.158;-101.291;49.695;-6.892;8.978;-1.155
3028377.998;0.894;32.820;7.078;-93.021;56.438;-9.201;7.227;-3.427
3028378.006;-12.629;12.778;-8.717;-110.902;39.041;-18.328;-2.608;-9.537
3028378.014;-2.906;22.613;3.725;-100.695;43.400;-15.274;2.123;-8.456
3028378.022;0.410;23.581;10.654;-94.809;51.185;-14.044;4.396;-7.674
3028378.030;-10.133;9.052;-2.198;-110.641;42.804;-23.395;-5.141;-15.758
3028378.038;18.850;38.892;25.667;-65.304;67.689;7.674;26.003;16.093
3028378.046;10.878;35.949;18.664;-73.351;66.198;1.751;17.509;12.070
3028378.054;-16.429;7.302;-10.654;-101.440;33.639;-26.375;-9.090;-15.758
3028378.062;-13.225;6.668;-11.213;-97.156;29.765;-22.538;-3.912;-14.827
3028378.070;16.466;34.869;19.483;-73.873;61.840;4.321;23.097;9.574
3028378.078;47.311;69.067;53.421;-41.574;96.522;34.198;53.793;39.525
3028378.105;16.689;35.763;20.489;-58.487;66.347;4.284;25.742;9.723
3028378.113;9.947;30.212;8.009;-67.316;52.042;-5.066;17.360;-1.006
3028378.121;10.058;32.037;12.033;-61.467;56.587;-9.723;13.635;-7.451
3028378.129;15.013;39.414;19.334;-56.624;65.155;-7.451;14.305;-5.215
3028378.137;17.695;34.422;22.165;-60.312;65.453;-6.519;12.890;-2.794
3028378.145;17.844;33.043;16.913;-58.413;54.352;-3.725;15.274;0.224
3028378.153;21.867;33.118;21.942;-47.684;57.630;8.158;25.555;8.382
3028378.161;28.089;37.923;32.634;-35.688;80.951;13.784;28.759;6.706
3028378.169;30.622;50.217;36.508;-37.514;93.542;7.637;19.781;0.969
3028378.177;26.561;47.758;30.845;-41.313;84.974;-1.267;9.872;-7.898
3028378.185;27.828;41.500;31.888;-41.015;82.739;1.118;12.442;-7.860
3028378.193;29.542;41.164;33.788;-42.878;81.584;4.210;17.397;-8.270
3028378.201;27.195;37.849;30.957;-46.417;73.873;5.811;18.179;-6.855
3028378.209;35.614;48.131;35.726;-31.926;79.162;9.649;22.501;-3.576
3028378.217;41.723;57.667;44.033;-15.087;90.562;10.617;25.369;-2.198
3028378.225;35.055;47.535;39.302;-26.561;89.183;0.857;17.174;-12.927
3028378.233;37.812;50.701;41.872;-27.306;98.422;1.602;15.236;-8.419
3028378.241;38.780;48.988;43.511;-27.865;95.032;6.147;17.360;1.937
3028378.249;40.121;52.713;44.107;-27.865;91.493;8.866;21.942;3.427
3028378.257;50.291;65.416;50.813;-8.158;101.812;8.941;22.501;4.284
3028378.265;54.128;65.491;56.215;-3.912;108.108;11.735;23.022;10.021
3028378.273;38.445;45.188;28.573;-25.034;96.671;-0.112;12.256;-4.880
3028378.281;43.325;50.217;25.891;-24.773;99.801;5.327;17.099;-0.820
3028378.289;48.168;51.446;38.147;-22.203;99.465;12.591;24.438;7.451
3028378.285;62.473;65.528;56.699;-2.943;117.198;28.051;39.823;26.301
3028378.293;64.224;71.079;59.940;-4.098;120.774;28.424;37.812;24.922
3028378.301;50.217;64.708;42.953;-5.849;107.475;12.666;21.048;7.674
3028378.309;53.793;68.694;48.019;4.359;111.200;14.082;23.097;8.717
3028378.317;39.600;49.621;31.479;-12.964;92.387;4.247;16.242;0.037
3028378.325;41.351;46.343;35.204;-14.044;92.834;15.274;27.716;13.337
3028378.333;51.931;58.487;50.664;-11.474;107.847;36.322;49.397;32.820
3028378.341;63.553;77.784;61.877;4.210;121.035;49.509;63.032;46.641
3028378.349;37.886;46.641;34.347;-21.309;96.075;26.673;42.990;23.767
3028378.357;16.317;17.025;8.680;-44.107;72.420;3.390;20.266;0.931
3028378.365;37.216;43.884;30.175;-15.050;92.201;11.288;28.051;8.717
3028378.373;35.092;47.386;33.528;-9.909;89.146;0.410;16.987;-0.969
3028378.381;25.742;32.783;24.587;-27.157;79.721;-10.431;5.029;-9.909
3028378.389;18.105;19.670;21.011;-38.110;79.088;-18.999;-4.135;-18.589
3028378.397;25.183;37.774;25.295;-16.950;83.335;-13.039;1.229;-13.039
3028378.405;34.496;43.511;37.067;-11.995;98.348;-4.955;9.015;-2.645
3028378.413;46.566;49.844;46.268;1.900;111.833;13.337;28.983;13.225
3028378.421;44.331;56.699;43.176;-3.949;100.732;15.274;32.187;13.411
3028378.429;36.322;49.807;38.557;-9.015;98.534;8.568;25.965;4.731
3028378.437;43.698;48.988;44.368;3.166;111.423;17.621;33.602;13.821
3028378.445;50.068;59.120;48.317;1.043;107.549;23.507;39.078;17.248
3028378.453;41.090;52.378;38.296;-1.527;96.187;15.981;33.081;8.047
3028378.461;31.888;35.837;30.622;-17.546;84.601;7.227;26.710;-1.267
3028378.469;32.485;38.743;31.143;-6.929;91.828;1.788;23.134;-3.614
3028378.480;37.663;45.486;40.531;-2.570;101.514;-2.049;17.956;-4.508
3028378.488;40.233;41.835;40.717;-0.186;99.950;1.416;19.819;-1.378
3028378.496;47.237;51.334;47.199;16.019;105.575;11.437;27.902;11.511
3028378.504;38.594;45.113;41.127;-2.161;91.977;8.456;22.128;9.909
3028378.512;36.322;41.351;42.170;-11.921;100.471;10.952;23.842;9.201
3028378.520;37.961;46.715;44.405;-1.490;109.188;15.907;28.796;10.766
3028378.528;31.181;37.812;32.634;-5.104;93.654;11.176;23.469;6.035
3028378.536;36.322;43.139;38.520;1.378;92.499;19.446;32.037;14.007
3028378.544;38.594;41.761;44.256;4.545;98.906;20.638;34.608;14.268
3028378.552;22.575;19.670;30.696;-22.873;88.140;5.849;19.744;-0.559
3028378.560;33.490;32.820;41.202;-3.316;93.058;11.772;27.232;5.662
3028378.568;44.703;51.893;52.564;16.801;107.139;14.380;31.181;10.729
3028378.576;28.014;32.037;38.072;-1.639;99.316;-5.737;11.064;-8.829
3028378.584;28.461;25.555;37.700;-12.107;97.193;-3.316;11.176;-4.061
3028378.592;18.217;18.030;26.375;-18.179;87.172;-14.119;0.149;-12.815
3028378.600;26.785;32.671;32.820;-1.229;85.309;-8.158;5.774;-6.333
3028378.608;48.839;53.011;57.369;24.252;116.974;22.091;35.614;20.824
3028378.616;43.735;47.758;54.613;17.919;114.664;24.140;39.004;18.217
3028378.624;32.894;33.341;42.915;3.353;100.434;16.801;32.075;10.505
3028378.632;13.784;9.798;20.899;-20.973;78.753;1.192;14.156;-4.321
3028378.640;11.772;10.766;17.062;-14.193;76.070;-0.671;11.250;-4.955
3028378.648;26.226;26.189;33.155;9.276;89.332;-3.576;10.431;-7.674
3028378.656;43.362;43.437;50.627;18.030;105.798;8.009;22.277;5.513
3028378.664;38.445;32.559;47.609;6.743;101.402;5.923;22.091;1.825
3028378.674;40.084;39.823;49.472;6.929;100.993;4.917;19.968;0.261
3028378.682;35.577;32.187;44.145;3.800;91.493;2.049;17.248;-2.347
3028378.690;9.723;0.335;17.621;-15.609;72.122;-18.738;-2.421;-23.209
3028378.698;19.446;16.131;27.232;-4.396;78.790;-4.023;11.474;-9.909
3028378.706;35.055;35.726;43.139;18.105;97.305;13.746;27.381;8.605
3028378.714;23.134;17.248;36.769;9.947;91.791;7.302;19.260;3.241
3028378.722;17.621;14.976;30.808;-5.811;89.221;0.745;13.076;-4.470
3028378.730;38.370;38.892;47.833;16.503;102.073;23.209;36.098;12.890
3028378.738;33.826;31.963;44.517;12.107;100.173;17.732;30.063;5.290
3028378.746;21.793;16.764;33.751;-0.857;89.034;3.539;19.185;-6.929
3028378.754;18.030;18.217;29.802;-1.080;73.165;-0.261;19.111;-7.786
3028378.762;24.401;20.899;39.861;4.172;90.078;2.347;21.830;-5.700
3028378.770;19.111;11.325;30.510;4.023;87.321;2.235;18.664;-5.737
3028378.778;29.914;30.957;39.227;16.205;92.462;17.397;28.834;10.990
3028378.786;42.170;44.070;52.974;23.618;111.125;30.138;35.614;24.140
3028378.794;20.415;17.360;29.951;4.806;90.264;13.299;14.901;6.445
3028378.802;8.233;4.359;18.030;-8.866;75.474;2.235;1.639;-6.892
3028378.810;13.113;10.356;20.415;-2.235;68.992;4.023;4.023;-8.345
3028378.818;13.076;11.176;21.644;0.261;59.865;8.047;7.898;-6.370
3028378.826;33.416;32.075;47.535;18.477;104.494;26.859;26.487;11.213
3028378.834;39.749;34.198;53.048;21.867;114.925;35.129;33.565;21.234
3028378.842;10.543;6.147;22.203;-2.570;76.965;5.029;6.519;-12.144
3028378.850;17.360;13.895;25.555;2.794;80.429;8.978;11.735;-7.637
3028378.858;25.928;17.919;36.508;5.327;96.001;14.976;17.509;-0.149
3028378.868;13.560;7.637;24.475;-4.247;80.876;1.118;2.831;-11.250
3028378.876;10.319;6.855;24.512;-4.247;71.488;0.522;1.676;-11.548
3028378.884;41.462;36.955;53.607;23.060;103.302;38.296;35.875;29.244
3028378.892;32.745;29.951;43.511;15.423;98.199;32.559;26.636;26.226
3028378.900;-2.086;-8.009;8.382;-15.646;64.485;-5.439;-8.754;-18.552
3028378.908;15.907;7.488;25.071;-1.974;77.002;-1.192;-2.608;-15.907
3028378.916;27.269;19.819;36.880;1.602;90.152;14.193;13.411;4.061
3028378.924;23.134;15.646;33.714;-2.570;84.601;5.327;7.302;-4.731
3028378.932;27.008;19.334;39.339;-1.639;92.313;5.849;8.717;-3.092
3028378.940;33.006;30.175;45.709;15.236;98.236;6.445;9.984;-0.522
3028378.948;49.286;47.460;56.624;35.986;113.957;18.999;23.618;12.107
3028378.956;48.801;39.004;49.882;30.920;117.384;22.650;27.642;14.454
3028378.964;27.753;21.309;29.206;7.302;93.244;9.388;12.890;4.210
3028378.972;20.489;18.589;26.375;-1.676;86.762;10.170;11.325;9.015
3028378.980;16.764;11.474;28.051;2.682;87.135;9.835;12.033;8.978
3028378.988;10.319;-1.714;20.713;-14.901;73.761;0.484;5.476;1.192
3028378.996;14.491;7.637;27.753;-15.050;84.229;2.533;8.717;6.333
3028379.004;23.991;17.770;32.671;15.013;88.513;5.737;16.131;4.023
3028379.012;36.061;30.063;42.133;22.836;97.118;15.832;27.418;13.746
3028379.020;49.695;39.712;59.716;34.273;109.114;27.232;38.818;27.381
3028379.028;42.357;27.716;51.372;16.242;104.904;18.105;30.212;20.452
3028379.036;23.358;8.196;31.255;-8.196;79.274;0.857;14.156;-1.937
3028379.044;33.863;29.765;41.090;8.866;84.937;10.654;23.171;9.388
3028379.052;59.716;59.269;68.545;44.592;119.284;35.502;47.162;37.961
3028379.050;56.066;49.658;65.565;41.351;119.321;33.155;46.343;35.316
3028379.058;52.936;40.792;62.399;35.055;108.406;27.902;41.090;27.232
3028379.066;36.843;30.622;48.913;22.948;88.140;9.686;22.314;6.743
3028379.074;45.076;36.843;57.593;30.324;100.099;15.460;28.946;14.640
3028379.082;65.491;53.495;76.182;47.088;123.382;32.596;47.535;34.794
3028379.090;49.323;38.892;58.189;27.865;105.575;15.125;29.504;18.999
3028379.098;51.111;42.170;59.344;28.238;104.792;15.870;29.281;17.993
3028379.106;66.161;56.550;76.592;50.068;128.783;29.542;43.884;28.722
3028379.114;43.325;34.384;56.736;27.791;98.795;4.619;18.477;2.794
3028379.122;78.939;70.930;90.450;62.548;121.184;36.880;50.031;36.061
3028379.130;41.239;32.783;52.601;22.873;88.215;-1.751;9.499;1.714
3028379.138;57.220;43.958;65.379;45.672;108.220;9.909;20.750;15.460
3028379.146;53.197;44.592;59.307;40.866;100.695;2.123;14.640;2.459
3028379.154;55.246;50.217;57.891;45.337;88.625;3.353;13.746;4.619
3028379.162;65.938;61.318;75.772;51.074;117.011;13.039;21.867;13.113
3028379.170;51.558;41.872;64.224;35.763;112.914;1.192;8.233;-2.682
3028379.178;68.657;59.009;83.633;51.893;124.723;17.323;23.022;12.144
3028379.186;90.413;80.839;103.414;75.996;143.088;36.210;41.015;30.585
3028379.194;78.604;56.215;90.785;61.132;133.552;18.552;22.762;15.721
3028379.202;56.960;44.070;64.522;41.611;105.985;-5.141;0.335;-5.774
3028379.210;67.353;57.854;78.529;48.093;121.109;2.719;8.568;3.465
3028379.218;80.317;70.892;92.387;71.302;135.638;14.007;17.434;15.497
3028379.226;94.175;87.917;109.598;84.639;161.193;29.802;28.685;25.779
3028379.234;81.174;68.881;94.883;68.396;145.435;18.813;14.231;11.697
3028379.244;69.253;55.768;81.025;55.805;120.103;13.560;8.456;7.302
3028379.252;65.714;56.885;77.561;60.238;124.797;12.144;7.078;4.545
3028379.260;73.351;65.230;84.750;69.328;131.130;21.495;17.062;12.405
3028379.268;71.377;62.175;84.601;66.385;121.258;18.813;15.013;5.998
3028379.276;69.663;58.524;81.584;73.016;117.980;16.354;14.193;2.682
3028379.284;98.757;95.740;111.461;101.849;150.949;39.525;37.588;28.089
3028379.292;98.869;93.058;110.902;98.422;155.196;32.783;31.069;26.450
3028379.300;63.106;48.652;73.910;60.610;123.084;1.602;-0.261;-2.943
3028379.308;59.009;43.958;68.843;44.182;108.965;5.811;1.788;0.708
3028379.316;69.514;59.493;81.062;65.826;123.084;11.474;6.855;6.109
3028379.324;77.710;65.453;90.860;69.812;134.632;20.564;16.317;14.380
3028379.332;68.881;54.650;80.429;62.436;127.777;20.638;16.466;15.348
3028379.340;61.877;52.825;69.067;61.505;117.682;19.372;14.603;15.385
3028379.348;59.567;50.440;69.402;52.974;113.212;18.626;13.076;14.491
3028379.356;71.302;55.172;80.951;60.797;126.958;29.951;24.177;27.940
3028379.364;45.113;28.163;56.103;37.551;96.448;6.519;0.708;4.359
3028379.372;54.985;44.480;67.130;44.741;107.847;17.136;11.586;16.019
3028379.380;69.477;59.083;80.355;57.444;118.762;25.257;22.314;25.928
3028379.388;65.900;54.017;76.443;52.080;114.478;12.107;11.325;12.182
3028379.396;56.140;44.852;66.422;40.270;103.861;5.327;5.998;3.986
3028379.404;61.691;57.369;72.159;59.493;103.042;15.646;17.658;16.131
3028379.412;55.656;43.027;70.184;52.191;107.586;7.898;8.829;10.729
3028379.420;66.832;49.919;84.527;54.203;117.905;24.959;22.948;29.318
3028379.428;39.451;22.091;53.793;24.326;84.266;7.749;3.837;8.903
3028379.439;60.759;48.615;74.431;44.331;103.302;34.347;30.398;30.957
3028379.447;63.106;50.887;73.723;48.466;109.188;36.769;32.559;32.224
3028379.455;41.574;31.777;52.378;30.920;81.956;16.950;14.007;12.256
3028379.463;42.580;37.737;51.558;36.284;78.976;17.099;16.727;9.462
3028379.471;58.897;47.795;71.451;46.492;95.703;32.596;31.702;22.016
3028379.479;53.644;41.872;64.000;38.259;94.883;24.512;22.911;12.778
3028379.487;40.568;30.994;46.231;27.455;70.855;14.082;12.480;1.229
3028379.495;36.769;25.108;43.176;21.271;60.275;15.944;11.995;2.906
3028379.503;28.200;10.803;14.119;12.033;62.995;11.176;5.960;0.447
3028379.511;43.772;29.281;-8.643;31.888;81.211;27.753;22.277;16.615
3028379.519;54.762;45.560;-2.943;42.319;88.625;35.092;31.814;24.252
3028379.527;45.337;42.021;-2.645;41.537;85.235;21.793;19.409;10.096
3028379.535;39.935;33.081;-10.878;38.184;82.403;13.337;9.984;1.937
3028379.543;47.386;31.218;-5.253;35.055;81.137;20.526;16.317;12.890
3028379.551;43.511;25.816;-5.476;19.446;82.143;15.199;10.543;7.674
3028379.559;51.707;34.533;2.719;41.723;100.024;22.911;17.658;14.938
3028379.567;54.501;44.815;5.998;45.076;100.993;23.432;17.770;16.354
3028379.575;60.908;54.874;9.760;55.544;98.050;28.275;23.991;22.911
3028379.583;59.158;47.684;9.649;50.999;95.628;24.028;20.936;20.713
3028379.591;46.007;29.206;-0.671;35.912;83.745;14.864;11.772;10.878
3028379.599;39.823;25.891;-5.662;24.848;86.948;11.325;7.413;9.350
3028379.607;58.562;47.833;15.870;54.874;107.586;27.195;24.140;25.705
3028379.615;58.748;42.915;12.927;52.825;100.620;23.916;21.793;21.905
3028379.623;23.805;5.886;-24.363;17.211;63.144;-11.846;-14.603;-10.319
3028379.634;30.547;14.342;-14.901;24.177;70.930;-1.788;-4.843;-1.490
3028379.642;47.982;36.620;2.161;41.090;91.717;9.649;8.345;6.370
3028379.650;66.459;56.252;21.569;65.044;111.647;21.569;21.867;17.770
3028379.658;60.946;46.156;16.429;61.579;100.210;21.569;21.085;18.217
3028379.666;79.423;67.502;35.726;78.231;120.178;36.024;33.937;36.247
3028379.674;69.775;57.556;26.114;73.016;109.226;22.464;22.501;22.724
3028379.682;40.680;24.401;-2.123;44.033;81.807;-6.631;-4.023;-9.574
3028379.690;52.676;38.184;6.258;48.764;91.679;1.974;5.737;-0.335
3028379.698;67.540;54.538;21.756;64.932;101.142;23.209;27.195;21.793
3028379.706;52.154;41.425;13.821;52.638;89.034;13.076;15.981;13.486
3028379.714;62.510;52.340;25.183;71.488;97.603;27.083;28.834;29.504
3028379.722;38.967;23.618;2.235;49.658;80.094;0.000;3.502;-0.037
3028379.730;38.594;22.873;1.118;44.480;86.129;-1.825;1.788;-3.055
3028379.738;49.472;40.978;7.525;60.983;79.758;12.703;15.944;17.658
3028379.746;51.409;40.643;5.029;52.825;72.978;13.895;17.621;18.254
3028379.754;46.268;35.241;6.966;54.166;81.547;1.155;6.296;2.459
3028379.762;54.091;38.110;17.360;62.808;91.791;7.376;12.964;10.282
3028379.770;49.882;40.345;11.139;57.444;81.547;8.605;15.050;12.368
3028379.778;53.309;47.758;15.870;71.563;71.935;13.672;21.532;14.007
3028379.786;61.356;50.850;21.830;76.443;80.578;16.466;27.344;12.517
3028379.794;82.031;65.081;44.070;88.774;104.047;39.451;51.223;38.594
3028379.802;78.455;66.534;39.190;82.701;98.832;40.457;51.633;42.319
3028379.810;62.659;54.277;22.352;82.105;85.570;23.022;32.447;26.897
3028379.818;82.962;76.182;45.151;103.116;107.624;42.617;51.484;48.019
3028379.815;65.863;55.507;24.401;73.947;82.478;26.822;36.843;29.802
3028379.823;55.246;42.580;14.827;65.938;59.940;23.991;34.086;27.344
3028379.831;66.236;47.013;32.298;81.249;85.868;36.247;47.758;41.313
3028379.839;78.902;62.399;44.666;94.846;103.079;47.982;60.275;48.764
3028379.847;61.356;55.917;25.071;80.615;77.337;36.098;47.311;38.818
3028379.855;64.857;61.132;25.034;76.331;78.082;36.955;50.329;36.508
3028379.863;59.828;50.589;22.091;74.245;75.474;37.029;48.205;38.072
3028379.871;38.780;26.375;0.484;50.887;47.535;17.174;30.063;17.695
3028379.879;42.133;33.192;9.015;60.648;52.936;17.919;29.914;20.191
3028379.887;49.472;38.855;19.483;69.365;68.285;27.344;36.620;34.012
3028379.895;76.629;64.410;37.067;91.009;81.435;57.518;66.608;68.657
3028379.903;60.722;52.899;17.919;72.904;65.640;42.282;53.942;44.219
3028379.911;54.650;46.268;13.076;62.697;60.871;37.253;48.354;41.798
3028379.919;62.399;51.968;24.475;72.718;64.336;39.488;52.042;42.953
3028379.927;65.640;54.613;32.149;75.549;68.098;39.749;48.764;46.119
3028379.935;66.310;33.565;34.124;70.781;76.592;40.233;47.535;47.907
3028379.943;71.786;-23.283;39.972;83.409;78.678;53.421;60.536;57.705
3028379.951;50.068;-62.063;20.675;54.538;54.091;32.037;38.818;30.771
3028379.959;64.224;-43.958;39.525;59.679;70.520;39.041;46.082;40.382
3028379.967;63.218;-45.821;41.835;63.181;75.661;44.703;52.266;43.511
3028379.975;46.305;-60.424;19.968;54.650;50.552;30.808;38.259;30.100
3028379.983;58.413;-49.397;32.708;67.987;52.266;46.380;52.527;46.045
3028379.991;29.393;-76.741;1.751;38.929;21.048;22.240;28.573;20.266
3028379.999;42.394;-67.726;12.964;48.503;42.431;36.433;42.953;33.863
3028380.008;35.875;-75.251;10.394;36.880;40.419;34.980;41.164;33.341
3028380.016;52.452;-43.772;28.834;66.869;53.532;48.652;55.656;44.927
3028380.024;60.983;-36.843;34.124;78.864;61.095;60.499;68.508;55.358
3028380.032;34.198;-66.906;6.519;50.105;26.114;40.233;48.727;36.880
3028380.040;39.600;-64.187;13.337;48.839;38.855;44.405;53.011;42.282
3028380.048;20.489;-82.627;-4.582;26.375;24.401;24.773;32.745;18.626
3028380.056;20.787;-81.845;-3.688;24.661;19.744;23.097;28.759;16.168
3028380.064;33.528;-66.347;10.617;41.351;31.553;35.092;35.055;29.951
3028380.072;40.941;-58.301;19.670;54.128;45.709;40.680;38.631;35.651
3028380.080;32.224;-66.683;12.144;39.972;35.353;28.014;27.977;18.701
3028380.088;45.113;-53.570;23.991;53.905;45.933;37.700;38.631;27.642
3028380.096;55.842;-42.655;30.957;65.081;54.948;42.617;43.921;31.553
3028380.104;51.819;-50.105;28.461;55.991;46.752;40.047;40.270;26.524
3028380.112;67.800;-31.777;46.976;71.153;63.442;56.103;54.762;42.990
3028380.120;62.920;-34.533;44.256;61.765;61.989;53.123;53.085;36.508
3028380.128;29.765;-70.520;10.096;35.092;27.269;29.914;30.063;10.245
3028380.136;40.792;-58.338;21.122;42.394;34.384;41.127;38.669;24.773
3028380.144;39.749;-59.977;22.575;44.592;28.871;40.196;37.141;21.271
3028380.152;46.380;-47.684;29.206;52.638;44.778;46.790;42.915;28.759
3028380.160;30.175;-63.442;12.703;37.588;32.485;30.957;26.226;14.640
3028380.168;37.514;-56.140;24.028;43.251;39.265;34.682;30.287;20.154
3028380.176;55.321;-35.465;37.812;63.479;49.435;52.936;50.515;41.462
3028380.184;28.759;-63.851;12.405;30.212;26.226;24.252;25.108;9.462
3028380.192;32.634;-60.908;17.621;33.714;29.244;23.805;24.810;12.368
3028380.203;42.096;-48.056;23.842;50.738;34.533;28.871;28.461;20.191
3028380.211;47.237;-43.213;29.169;54.166;39.749;29.281;31.628;19.073
3028380.219;48.876;-37.923;35.316;59.605;46.752;28.089;31.330;18.515
3028380.227;58.487;-26.412;49.025;70.333;55.581;41.462;45.113;29.355
3028380.235;65.714;-21.011;54.762;77.635;65.975;53.197;54.874;44.778
3028380.243;34.310;-51.297;20.154;44.294;38.743;17.062;17.956;6.184
3028380.251;31.665;-55.619;18.440;41.686;30.175;20.899;21.048;11.548
3028380.259;44.219;-37.625;28.871;57.742;35.688;30.659;31.553;22.687
3028380.267;42.915;-37.774;24.401;52.936;35.204;26.040;28.200;18.179
3028380.275;34.720;-48.093;20.973;41.053;25.295;15.683;19.409;5.662
3028380.283;51.297;-33.490;42.245;52.191;52.787;32.075;35.428;22.911
3028380.291;43.251;-44.815;35.651;55.917;50.105;25.332;28.759;18.105
3028380.299;44.331;-42.170;35.502;61.765;46.603;31.218;34.273;23.395
3028380.307;36.061;-40.643;24.326;56.475;24.661;24.401;27.455;17.360
3028380.315;26.710;-50.850;17.770;36.657;27.567;19.334;23.805;13.374
3028380.323;26.971;-50.589;16.056;38.594;26.338;19.036;24.885;13.597
3028380.331;24.736;-55.507;10.356;44.219;14.864;13.262;19.781;7.302
3028380.339;12.852;-67.614;-0.037;30.547;1.080;14.566;20.824;9.015
3028380.347;6.109;-71.935;-2.943;20.415;-0.633;5.811;13.746;-0.112
3028380.355;0.745;-79.833;-10.505;15.497;-7.227;8.941;17.583;2.608
3028380.363;-9.649;-91.083;-22.240;3.800;-18.962;5.588;12.703;0.000
3028380.371;-15.646;-98.348;-28.573;-3.390;-27.716;6.892;14.827;-1.118
3028380.379;-15.609;-98.683;-30.249;-2.868;-29.393;13.933;22.501;5.253
3028380.387;-13.225;-92.238;-27.977;1.714;-24.736;19.968;27.008;12.629
3028380.414;-20.489;-99.055;-34.496;-2.682;-31.814;10.803;16.205;5.215
3028380.422;-30.138;-113.286;-41.388;-15.125;-41.202;2.533;8.307;-2.347
3028380.430;-35.837;-117.794;-44.666;-20.415;-46.305;2.384;10.282;-3.502
3028380.438;-35.502;-118.427;-48.280;-19.595;-51.074;-1.527;7.004;-7.264
3028380.446;-34.906;-116.266;-46.864;-18.738;-50.329;1.602;9.052;-6.184
3028380.454;-38.035;-120.290;-51.484;-17.695;-56.513;-2.794;4.731;-10.096
3028380.462;-42.915;-121.556;-52.378;-21.607;-54.836;-5.066;1.937;-12.778
3028380.470;-41.500;-119.284;-50.217;-20.303;-51.484;-1.304;6.557;-10.207
3028380.478;-44.778;-114.515;-57.332;-13.113;-55.879;-0.857;6.370;-8.419
3028380.486;-47.982;-115.894;-55.656;-8.754;-54.799;-2.086;5.402;-10.096
3028380.494;-51.558;-130.348;-51.893;-26.450;-51.595;-2.012;4.880;-9.388
3028380.502;-52.415;-124.872;-52.303;-15.572;-54.836;-2.235;4.992;-9.984
3028380.510;-55.954;-126.399;-35.316;-13.188;-61.654;-1.602;4.061;-10.245
3028380.518;-53.719;-124.164;-16.987;-11.846;-56.811;-0.820;2.719;-7.302
3028380.526;-51.223;-122.339;-10.170;-9.537;-46.231;-3.949;-0.559;-13.411
3028380.534;-35.912;-101.253;3.539;5.327;-36.061;7.339;12.703;-4.768
3028380.542;-49.621;-114.441;-10.245;-3.055;-53.756;-0.559;2.682;-13.597
3028380.550;-63.479;-125.505;-21.607;-15.944;-64.895;-9.425;-7.302;-24.512
3028380.558;-56.550;-118.092;-14.603;-6.594;-58.040;-5.364;-3.688;-18.291
3028380.566;-46.976;-108.965;-8.158;1.863;-48.168;2.459;4.955;-9.425
3028380.574;-57.928;-121.370;-22.277;-13.188;-64.597;-3.353;-1.043;-14.976
3028380.582;-48.801;-112.951;-7.376;-3.390;-55.209;-15.758;-12.517;-27.008
3028380.590;-36.247;-96.299;9.574;7.823;-38.780;-10.282;-7.823;-21.085
3028380.598;-26.375;-85.905;16.540;16.950;-29.244;4.172;6.407;-4.955
3028380.595;-26.003;-85.123;17.174;12.144;-29.355;3.278;4.955;-7.413
3028380.603;-35.204;-96.262;10.282;-3.725;-36.210;-8.605;-8.866;-20.266
3028380.611;-39.451;-103.265;4.284;-5.588;-42.468;-11.027;-11.399;-21.085
3028380.619;-38.743;-99.391;3.204;-1.937;-38.892;-5.960;-6.668;-16.540
3028380.627;-33.304;-84.862;12.442;13.039;-34.012;3.017;0.447;-7.376
3028380.635;-36.918;-89.742;9.649;23.767;-30.100;-4.657;-6.966;-17.472
3028380.643;-38.892;-89.407;5.811;19.260;-34.906;-4.359;-7.302;-16.168
3028380.651;-37.141;-85.384;7.898;15.125;-35.837;-0.671;-2.608;-16.503
3028380.659;-37.700;-87.582;9.537;15.013;-36.918;7.376;5.662;-8.717
3028380.667;-17.658;-70.184;30.920;30.622;-21.569;30.957;29.504;16.987
3028380.675;-40.866;-93.952;8.792;0.931;-42.543;9.537;6.668;-2.831
3028380.683;-71.637;-127.181;-24.401;-31.218;-70.520;-17.509;-20.862;-31.330
3028380.691;-66.683;-124.164;-20.824;-22.613;-67.353;-15.497;-20.340;-29.802
3028380.699;-53.197;-105.128;-4.061;-8.941;-48.093;-13.113;-16.913;-27.381
3028380.707;-54.874;-99.353;-7.078;1.453;-57.966;-16.578;-19.595;-29.616
3028380.715;-48.690;-95.777;-2.272;9.462;-48.913;-10.356;-14.752;-24.550
3028380.723;-39.153;-94.995;8.903;13.411;-37.476;4.582;-2.198;-6.109
3028380.731;-34.459;-82.888;14.789;26.748;-26.822;9.052;3.204;-5.029
3028380.739;-29.877;-71.228;14.715;30.920;-17.285;16.727;10.915;0.298
3028380.747;-48.317;-92.648;-1.751;-3.763;-46.454;1.565;-5.253;-13.523
3028380.755;-46.752;-84.825;5.290;11.809;-42.208;-3.092;-10.915;-20.079
3028380.763;-43.623;-81.547;6.706;24.028;-37.514;-3.241;-13.970;-20.675
3028380.771;-43.884;-85.942;9.611;15.199;-35.129;-0.261;-13.746;-18.924
3028380.779;-33.490;-81.472;18.515;12.927;-28.200;10.468;-7.339;-10.803
3028380.774;-26.673;-74.357;22.352;16.689;-30.398;16.503;-3.353;-0.224
3028380.782;-23.358;-76.406;31.739;22.165;-15.870;18.291;0.745;-1.490
3028380.790;-26.040;-78.268;28.051;19.260;-24.177;27.753;13.150;4.396
3028380.798;-5.551;-28.461;50.068;64.224;-8.866;26.934;14.938;-0.037
3028380.806;-2.198;-22.948;51.484;77.263;-4.210;27.008;16.540;-0.037
3028380.814;-3.614;-42.059;46.454;62.697;-12.144;25.295;15.721;0.447
3028380.822;-10.654;-52.936;37.737;36.024;-30.100;21.681;11.213;-5.588
3028380.830;-6.631;-31.702;38.892;55.544;-19.111;26.897;15.199;0.335
3028380.838;-10.245;-32.112;35.390;55.321;-17.397;21.160;5.066;-3.502
3028380.846;-23.954;-50.291;23.209;38.333;-35.316;18.626;-0.447;-4.955
3028380.854;-8.196;-39.637;38.184;47.870;-24.177;48.093;31.367;23.507
3028380.862;-3.055;-39.376;45.113;44.107;-15.274;39.861;24.922;14.901
3028380.870;-9.947;-49.882;39.488;28.908;-21.830;21.532;8.270;-3.129
3028380.878;3.241;-34.273;53.011;38.072;-11.548;30.994;19.148;6.407
3028380.886;14.976;-17.658;64.075;54.203;-7.674;42.543;29.840;17.211
3028380.894;26.375;-9.425;73.314;65.640;-2.161;44.554;32.820;16.578
3028380.902;29.504;-5.774;75.772;68.061;5.029;40.457;27.269;14.156
3028380.910;20.117;-5.700;65.193;65.006;-2.906;24.587;8.531;0.335
3028380.918;28.200;2.235;71.675;77.710;1.937;23.693;7.823;-1.714
3028380.926;29.095;3.204;76.331;76.704;1.416;25.891;9.760;-1.304
3028380.934;29.691;7.264;76.443;78.827;0.261;31.330;12.964;6.668
3028380.942;25.481;2.310;71.190;68.769;-7.413;29.206;11.437;4.768
3028380.950;17.248;-7.488;61.020;60.238;-19.148;24.959;7.190;2.421
3028380.958;24.065;-2.421;65.751;67.018;-10.394;37.774;20.973;14.938
3028380.968;6.929;-20.526;48.280;51.819;-24.699;28.349;14.678;1.416
3028380.976;10.021;-13.933;49.025;54.277;-26.189;35.763;23.954;7.451
3028380.984;15.087;-7.711;54.576;68.508;-17.695;38.482;25.779;8.419
3028380.992;14.529;-12.629;56.662;66.981;-21.197;38.892;26.710;6.855
3028381.000;23.209;-1.863;65.677;66.273;-11.064;45.523;33.714;16.354
3028381.008;19.632;0.522;60.759;64.075;-10.431;42.096;30.659;15.348
3028381.016;14.715;-3.465;55.432;67.316;-20.824;33.677;22.464;9.984
3028381.024;12.107;-7.860;54.203;67.838;-22.650;26.971;15.758;5.253
3028381.032;9.686;-9.276;47.646;66.236;-22.128;20.079;8.978;-0.447
3028381.040;13.188;-7.227;50.031;62.585;-13.672;19.446;9.611;-2.682
3028381.048;13.411;-3.017;47.423;62.101;-17.397;18.850;7.376;-0.708
3028381.056;10.841;-6.594;45.635;63.591;-20.377;13.523;2.198;-7.711
3028381.064;29.542;11.697;69.663;74.804;2.347;24.028;13.076;2.086
3028381.072;34.943;17.062;75.400;77.710;1.416;37.178;24.103;13.597
3028381.080;19.558;5.886;58.599;61.616;-13.262;25.444;11.586;-0.633
3028381.088;25.406;12.405;62.771;65.565;-3.576;36.098;20.117;11.586
3028381.096;32.596;11.697;71.749;72.606;0.373;46.678;29.989;24.699
3028381.104;31.218;10.803;71.153;68.434;-0.447;46.082;30.734;23.022
3028381.112;31.479;16.950;73.947;85.235;9.015;44.182;29.318;22.873
3028381.120;26.636;9.611;69.737;74.469;5.774;35.167;18.962;9.947
3028381.128;17.770;2.608;61.467;62.138;-4.210;32.485;13.672;4.433
3028381.136;-14.417;-28.983;27.679;37.178;-39.004;-0.522;-20.117;-28.983
3028381.144;-13.597;-26.748;26.487;42.319;-43.362;7.078;-14.678;-20.489
3028381.152;-15.683;-25.742;23.358;38.520;-51.446;12.219;-12.256;-17.434
3028381.164;-5.551;-18.813;34.831;47.050;-34.235;27.008;2.123;-2.049
3028381.172;5.625;-5.476;45.709;55.358;-20.191;37.886;15.795;11.437
3028381.180;3.986;-4.806;40.755;51.707;-27.381;25.183;7.860;-2.831
3028381.188;23.618;15.385;64.187;74.469;-2.310;40.755;24.028;16.168
3028381.196;26.934;11.474;70.333;72.308;2.943;39.563;21.979;18.999
3028381.204;17.844;5.104;59.716;61.877;-8.531;26.636;11.697;7.786
3028381.212;9.164;4.061;48.690;61.989;-26.226;16.876;2.384;-2.980
3028381.220;-4.731;-12.778;32.634;48.019;-41.425;4.880;-10.841;-17.025
3028381.228;11.958;3.353;49.807;66.720;-22.911;23.246;4.843;1.714
3028381.236;16.391;4.172;58.711;63.330;-11.772;24.736;3.017;6.407
3028381.244;-1.825;-16.093;42.021;36.843;-27.008;4.768;-19.260;-14.231
3028381.252;-5.402;-12.591;34.347;44.107;-36.657;-1.080;-21.532;-20.824
3028381.260;17.062;12.144;55.507;73.388;-15.832;13.411;-3.204;-5.364
3028381.268;21.048;12.256;62.957;78.753;-7.972;13.784;-4.843;-4.359
3028381.276;4.955;-0.931;46.417;59.195;-25.816;-3.166;-25.593;-20.303
3028381.284;16.205;11.176;60.871;64.075;-14.193;-0.596;-24.773;-16.093
3028381.292;40.084;36.247;85.607;87.321;8.307;8.978;-16.615;-5.178
3028381.300;48.727;45.188;95.405;92.424;15.199;6.594;-17.658;-7.041
3028381.308;56.513;51.111;106.879;96.001;23.320;9.909;-13.709;-5.066
3028381.316;70.147;62.287;119.992;109.039;37.476;21.383;-3.688;4.731
3028381.324;100.508;95.703;150.427;131.130;73.165;36.247;9.686;17.434
3028381.332;120.625;121.109;169.836;156.984;94.771;45.598;19.222;25.555
3028381.340;125.691;127.070;173.524;176.057;97.826;46.231;19.856;27.120
3028381.348;115.335;113.249;163.503;160.560;87.693;32.187;7.041;12.740
3028381.359;94.287;100.248;139.624;143.498;65.565;15.385;-12.293;-4.284
3028381.367;103.526;114.925;147.671;160.076;66.794;24.512;-5.700;3.166
3028381.375;116.453;123.605;164.807;175.089;84.862;42.878;10.431;18.738
3028381.383;97.416;99.204;142.939;151.508;70.110;34.831;0.559;8.829
3028381.391;86.613;84.899;129.379;134.408;62.287;34.645;-3.055;7.078
3028381.399;80.466;80.205;125.729;123.642;59.642;26.636;-12.778;3.576
3028381.407;59.269;66.310;101.589;122.152;32.000;9.127;-28.163;-12.033
3028381.415;52.527;52.340;89.258;109.076;19.036;16.950;-19.781;-5.141
3028381.423;36.620;30.994;73.276;83.894;1.751;8.717;-26.859;-16.578
3028381.431;38.892;40.494;77.002;86.352;8.978;16.131;-20.303;-7.637
3028381.439;31.553;31.590;68.434;78.641;6.184;16.317;-21.644;-6.594
3028381.447;26.487;26.450;62.138;75.325;-4.359;7.153;-30.100;-15.795
3028381.455;26.040;29.877;60.797;84.229;-1.043;0.112;-35.129;-20.489
3028381.463;29.951;32.559;64.336;81.398;2.161;8.233;-23.767;-10.207
3028381.471;24.103;27.679;58.226;75.363;-4.508;5.811;-26.077;-10.952
3028381.479;10.207;16.242;49.211;65.975;-11.139;-9.760;-40.084;-23.879
3028381.487;9.425;9.611;50.403;59.009;-6.370;-5.066;-32.671;-18.440
3028381.495;36.396;31.441;76.592;78.268;20.303;26.040;-0.261;10.170
3028381.503;56.438;63.181;95.256;98.348;37.439;47.423;23.209;32.373
3028381.511;12.666;22.985;50.738;65.193;-11.437;1.304;-18.254;-16.242
3028381.519;5.364;6.780;44.294;57.556;-18.105;-5.551;-22.128;-24.028
3028381.527;11.362;13.933;46.194;53.905;-18.552;-0.224;-16.615;-12.591
3028381.535;23.916;34.198;57.742;70.892;-4.806;4.470;-9.984;-5.737
3028381.543;13.784;20.377;52.191;60.722;-6.594;-7.600;-21.979;-13.821
3028381.568;13.150;11.921;53.979;50.850;-5.588;-6.370;-22.352;-8.717
3028381.576;33.639;32.447;70.818;76.182;11.250;7.823;-7.041;7.600
3028381.584;9.350;16.019;47.609;60.797;-5.253;-15.609;-30.883;-13.895
3028381.592;2.235;9.537;44.629;46.790;-2.272;-20.638;-34.757;-20.042
3028381.600;12.368;13.746;54.277;51.334;4.880;-11.548;-23.544;-11.176
3028381.608;16.801;18.887;58.375;59.530;6.184;-6.370;-19.558;-3.241
3028381.616;19.893;29.504;57.332;61.058;4.359;-3.204;-15.348;3.017
3028381.624;11.362;16.578;45.709;54.166;-5.253;-9.127;-18.328;-4.098
3028381.632;5.029;6.519;38.855;42.208;-17.546;-15.385;-23.879;-8.158
3028381.640;10.990;13.597;46.417;55.283;-3.688;-10.729;-18.440;0.671
3028381.648;-4.061;-3.055;32.969;39.451;-13.709;-21.644;-26.636;-13.486
3028381.656;-5.439;0.149;28.871;39.376;-24.103;-15.534;-21.011;-4.545
3028381.664;7.972;14.603;43.735;49.286;-11.139;-12.852;-18.738;0.857
3028381.672;5.923;12.293;41.947;46.268;-9.350;-14.305;-19.446;0.335
3028381.680;9.798;13.262;47.199;46.752;-7.972;-11.660;-14.752;-1.453
3028381.688;7.972;13.486;43.660;46.752;-16.578;-10.803;-14.789;-1.267
3028381.696;11.697;20.266;46.641;51.670;-8.754;-13.150;-14.305;-3.241
3028381.704;21.048;30.100;60.797;60.499;10.505;-14.044;-10.245;-3.390
3028381.712;51.446;57.779;91.232;89.929;46.045;24.848;29.095;37.290
3028381.720;30.324;32.559;67.055;64.224;20.787;12.778;15.460;27.716
3028381.728;-0.186;11.921;32.894;43.996;-25.816;-18.924;-15.795;-9.649
3028381.736;2.868;15.907;35.241;59.009;-21.085;-22.389;-18.999;-16.056
3028381.744;12.629;27.828;46.603;61.803;-4.992;-6.966;-4.731;5.476
3028381.752;16.950;29.653;50.999;65.081;-2.123;6.817;8.531;19.632
3028381.749;3.651;16.578;37.067;49.695;-18.179;-0.559;1.714;9.947
3028381.757;-9.872;5.364;24.028;44.070;-26.375;-11.660;-6.929;-7.264
3028381.765;-14.119;0.112;18.477;36.694;-36.284;-11.250;-5.849;-4.843
3028381.773;3.651;17.248;37.923;50.850;-18.291;0.671;7.637;7.972
3028381.781;9.015;24.699;46.007;59.344;-6.482;0.820;8.196;7.041
3028381.789;0.633;14.231;39.190;42.208;-18.254;-6.258;0.075;3.092
3028381.797;5.588;21.197;39.972;51.744;-18.738;2.012;7.637;12.778
3028381.805;8.792;25.034;42.096;58.003;-16.429;4.917;10.170;19.930
3028381.813;4.731;19.073;35.837;55.470;-21.495;-3.874;1.602;6.519
3028381.821;-7.488;7.860;24.177;37.327;-33.267;-14.454;-10.990;-4.172
3028381.829;10.505;27.269;41.574;47.237;-15.609;4.023;6.855;16.838
3028381.837;18.328;35.763;48.839;62.436;-11.921;10.319;13.746;24.326
3028381.845;-1.527;15.162;30.212;39.078;-32.373;-10.878;-8.754;1.490
3028381.853;-8.345;5.215;25.257;26.487;-27.232;-12.182;-8.382;-2.943
3028381.861;-14.268;-2.123;21.681;23.171;-35.129;-15.199;-10.431;-5.849
3028381.869;-14.193;-2.012;18.030;22.799;-37.998;-17.025;-14.566;-3.465
3028381.877;-20.042;-4.023;11.325;18.291;-38.035;-21.793;-21.122;-9.052
3028381.885;-14.566;-1.863;17.285;21.756;-34.310;-17.323;-18.030;-5.253
3028381.893;-8.829;4.582;25.667;24.661;-27.157;-12.033;-14.380;0.075
3028381.901;-12.964;1.490;22.464;22.911;-30.771;-8.196;-11.958;4.619
3028381.909;-21.271;-4.806;11.213;18.999;-39.600;-18.813;-23.916;-6.631
3028381.917;-16.205;-2.868;16.131;16.466;-35.018;-20.377;-28.275;-10.431
3028381.925;-1.863;8.419;30.175;26.412;-22.873;-0.857;-9.760;6.221
3028381.933;-9.239;0.782;22.128;20.936;-32.969;-4.359;-11.586;1.304
3028381.930;-8.829;0.671;20.675;22.762;-29.691;-2.459;-8.196;0.112
3028381.938;-3.874;8.494;21.458;20.787;-28.796;1.378;-3.539;3.129
3028381.946;0.373;12.331;28.424;35.465;-15.832;8.605;0.782;11.884
3028381.954;-29.095;-15.460;-0.037;8.680;-42.915;-19.483;-31.255;-17.062
3028381.962;-13.784;0.447;13.672;24.997;-30.659;-0.596;-15.534;-1.565
3028381.970;-1.192;14.007;26.971;45.225;-18.179;15.385;-2.831;11.809
3028381.978;-12.629;-0.298;14.044;33.267;-32.708;9.239;-11.213;5.215
3028381.986;-15.497;-4.917;10.766;23.469;-33.304;11.995;-10.319;3.316
3028381.994;-18.328;-2.086;5.402;23.060;-41.910;9.090;-12.107;-3.017
3028382.002;-17.434;-4.545;6.557;20.415;-46.268;8.605;-13.672;-3.576
3028382.010;-12.703;4.433;9.611;35.651;-40.233;7.488;-16.205;-1.304
3028382.018;-13.895;4.843;9.760;35.278;-37.104;-3.241;-26.785;-12.033
3028382.026;-21.197;-4.098;2.645;26.710;-47.237;-10.543;-35.763;-20.750
3028382.034;-23.320;-10.505;2.421;17.732;-43.176;-13.635;-36.955;-25.257
3028382.042;-17.062;0.112;10.058;24.103;-35.912;-3.688;-26.524;-12.703
3028382.050;-12.703;3.576;16.205;30.398;-29.467;2.421;-19.632;-8.866
3028382.058;-17.062;-4.992;11.846;24.736;-29.802;-12.219;-33.230;-24.885
3028382.066;-2.682;14.082;27.344;41.872;-21.905;2.682;-18.924;-4.806
3028382.074;-6.333;13.113;21.569;40.196;-29.616;-2.272;-22.836;-9.947
3028382.082;-7.153;6.631;20.377;35.129;-28.647;-2.347;-21.942;-4.433
3028382.090;6.482;23.767;36.545;43.847;-13.933;3.316;-12.740;1.304
3028382.098;2.235;17.993;34.198;44.703;-13.411;-10.990;-24.885;-16.950
3028382.106;-2.868;13.486;28.908;39.935;-15.721;-10.058;-24.103;-12.778
3028382.114;-7.674;9.350;22.724;31.367;-21.867;-18.887;-29.393;-27.679
3028382.125;4.210;18.068;34.086;42.133;-8.792;-3.949;-13.597;-10.878
3028382.133;3.017;23.283;31.441;40.904;-15.870;0.224;-10.319;-3.166
3028382.141;-8.158;11.101;23.060;29.355;-23.842;-12.256;-23.693;-12.629
3028382.149;-8.792;8.419;22.240;26.114;-25.593;-11.623;-21.383;-10.841
3028382.157;15.832;34.161;46.119;52.713;-2.235;7.562;-1.974;10.021
3028382.165;3.688;16.801;32.634;38.780;-14.901;-6.780;-14.678;-2.496
3028382.173;-13.225;-6.706;17.323;25.481;-33.267;-23.805;-29.355;-22.128
3028382.181;-4.880;4.806;24.997;30.883;-34.943;-20.936;-25.705;-17.211
3028382.189;0.708;16.801;32.336;40.047;-19.707;-20.862;-24.810;-15.646
3028382.197;19.893;38.818;49.248;60.871;1.490;-4.321;-7.451;5.513
3028382.205;9.313;31.851;39.674;47.870;-14.901;-13.746;-13.821;-4.731
3028382.213;2.049;22.240;34.310;36.322;-20.787;-17.732;-15.050;-9.052
3028382.221;4.768;25.742;34.645;39.861;-18.366;-9.872;-6.780;-0.671
3028382.229;3.316;24.326;35.986;35.241;-22.314;-4.210;-3.874;5.811
3028382.237;25.779;44.666;59.642;55.544;5.737;19.670;18.775;30.622
3028382.245;0.075;15.981;32.261;41.425;-19.819;-3.614;-2.235;5.402
3028382.253;-3.912;14.491;27.195;37.365;-25.779;-7.935;-6.519;-0.596
3028382.261;18.924;39.637;49.435;52.117;-5.066;9.984;13.448;19.856
3028382.269;10.058;37.588;39.339;45.560;-17.770;-2.831;2.049;7.898
3028382.277;-11.437;11.586;18.924;27.716;-36.620;-28.834;-22.836;-18.217
3028382.285;-1.341;17.062;26.934;37.104;-25.630;-19.930;-12.964;-8.531
3028382.293;1.416;21.756;31.479;39.935;-24.550;-15.423;-11.474;-1.267
3028382.301;-4.619;16.727;27.753;33.900;-24.103;-25.667;-23.097;-8.270
3028382.309;-15.907;4.061;14.491;19.483;-36.769;-30.883;-29.318;-12.740
3028382.320;-12.405;5.849;14.193;27.232;-39.265;-20.415;-20.191;-2.831
3028382.328;-7.078;18.887;18.589;30.622;-31.441;-18.589;-18.366;-2.980
3028382.336;-4.172;22.985;24.326;43.623;-27.306;-19.073;-16.540;-3.986
3028382.344;1.192;28.387;31.665;58.450;-21.309;-18.477;-13.858;-1.751
3028382.352;2.123;27.753;35.465;53.756;-10.766;-19.856;-13.597;-1.751
3028382.360;1.751;22.054;34.682;48.801;-16.019;-20.228;-11.325;-7.488
3028382.368;4.806;20.675;35.688;50.329;-15.758;-11.250;-0.782;2.086
3028382.376;-1.602;17.658;27.604;42.580;-16.987;-19.185;-7.749;-7.600
3028382.384;-3.465;12.591;26.263;41.164;-19.893;-18.813;-9.052;-5.588
3028382.392;2.012;22.836;29.244;46.603;-16.913;-5.029;1.565;10.096
3028382.400;-3.465;20.042;21.122;40.345;-16.391;-3.092;0.857;9.835
