Timestamp,AFz,AF3,AF4,AF7,AF8,Pz,P3,P4,2024-04-18 12:47:16.167,fs=125
3029567.195;-28.796;-53.458;-26.189;-25.630;-6.072;-11.250;-3.949;-7.600
3029567.203;-26.561;-51.931;-22.314;-23.246;-3.129;-11.846;-4.023;-6.668
3029567.211;-22.724;-44.554;-22.091;-21.681;0.373;-12.852;-3.316;-8.978
3029567.219;-18.887;-40.345;-17.509;-22.724;3.725;-15.981;-3.092;-11.064
3029567.227;-11.250;-35.614;-8.605;-10.617;13.113;-18.477;-2.459;-11.623
3029567.235;-12.666;-37.998;-10.133;-2.086;12.256;-21.011;-6.370;-13.560
3029567.243;-22.165;-44.964;-20.266;-18.291;2.012;-22.799;-11.958;-12.554
3029567.251;-30.808;-53.793;-26.561;-27.977;-2.980;-22.650;-14.491;-8.903
3029567.259;-33.379;-56.550;-29.020;-32.783;-6.184;-21.867;-16.727;-6.258
3029567.267;-31.479;-55.172;-29.355;-35.539;-8.084;-19.111;-12.964;-5.402
3029567.275;-25.593;-51.148;-24.401;-23.134;0.894;-11.995;-1.714;-2.384
3029567.283;-18.030;-44.256;-17.956;-17.770;9.425;-10.021;2.719;-1.267
3029567.291;-17.658;-40.866;-19.483;-13.262;4.210;-17.285;-3.912;-8.382
3029567.299;-11.213;-33.006;-14.082;-9.872;9.835;-20.973;-8.754;-8.941
3029567.307;-10.505;-34.869;-10.431;-14.640;13.113;-27.046;-14.752;-12.293
3029567.315;-11.101;-34.459;-12.703;-14.529;9.798;-32.410;-19.930;-15.274
3029567.323;-14.231;-33.192;-16.391;-5.253;9.388;-36.806;-23.469;-18.105
3029567.331;-21.905;-39.861;-25.183;-15.236;1.825;-37.476;-23.730;-19.222
3029567.339;-27.195;-48.466;-28.349;-27.120;-6.109;-34.347;-21.979;-16.801
3029567.347;-24.289;-46.603;-23.879;-23.469;1.267;-24.997;-13.560;-10.431
3029567.355;-19.744;-38.259;-21.607;-16.391;7.674;-19.111;-8.419;-7.041
3029567.363;-18.179;-36.992;-19.744;-11.846;9.276;-14.603;-4.210;-4.880
3029567.371;-19.707;-40.680;-19.930;-19.781;4.731;-15.348;-6.780;-4.582
3029567.379;-23.879;-46.231;-24.624;-29.020;-0.224;-25.593;-18.291;-10.543
3029567.360;-19.185;-40.866;-19.148;-25.108;6.743;-29.244;-22.240;-14.417
3029567.368;-19.819;-37.253;-23.134;-15.423;4.247;-36.731;-29.355;-21.271
3029567.376;-14.566;-31.926;-20.266;-9.052;7.264;-37.625;-29.653;-19.446
3029567.384;-19.483;-38.370;-26.263;-14.678;1.118;-36.992;-28.349;-17.844
3029567.392;-22.575;-44.741;-28.014;-21.122;-0.522;-33.304;-23.432;-15.497
3029567.400;-26.263;-51.968;-28.498;-32.894;-3.651;-25.667;-15.274;-10.170
3029567.408;-26.338;-51.819;-27.604;-31.032;-2.123;-23.134;-13.597;-8.829
3029567.416;-19.595;-41.425;-23.246;-15.385;2.533;-17.434;-6.258;-5.066
3029567.424;-21.867;-44.070;-26.301;-17.099;-1.416;-16.727;-4.768;-5.811
3029567.432;-16.764;-40.270;-21.309;-18.924;5.960;-14.156;-2.086;-2.533
3029567.440;-14.827;-37.178;-17.695;-15.795;10.245;-16.280;-6.072;-2.980
3029567.448;-17.509;-39.786;-22.314;-25.108;9.798;-22.426;-12.964;-7.190
3029567.456;-23.246;-45.858;-25.369;-29.430;1.602;-32.373;-22.724;-12.852
3029567.464;-23.544;-43.996;-25.593;-27.344;1.565;-39.339;-29.840;-18.328
3029567.472;-17.211;-34.794;-22.948;-15.385;9.425;-36.843;-27.791;-16.354
3029567.480;-14.827;-35.800;-21.122;-18.440;10.058;-33.081;-23.060;-15.236
3029567.488;-18.105;-40.680;-26.524;-21.346;4.172;-32.112;-21.458;-17.323
3029567.496;-17.472;-39.488;-26.040;-17.509;2.757;-23.469;-11.958;-10.505
3029567.504;-17.844;-39.004;-27.306;-14.231;2.682;-14.193;0.931;-3.614
3029567.512;-20.899;-41.500;-29.206;-26.077;1.192;-13.635;1.825;-1.825
3029567.520;-24.438;-44.666;-31.032;-26.971;-0.931;-15.050;-2.161;-0.037
3029567.528;-29.206;-48.652;-36.992;-27.046;-7.227;-22.501;-7.823;-7.153
3029567.536;-24.475;-46.566;-35.577;-30.510;-9.388;-30.473;-13.635;-14.901
3029567.544;-18.254;-38.072;-25.593;-20.154;5.551;-36.173;-20.228;-19.446
3029567.573;-14.901;-34.906;-22.054;-21.197;11.586;-37.290;-23.879;-19.111
3029567.581;-15.534;-34.794;-25.108;-20.564;9.239;-36.396;-26.375;-18.850
3029567.589;-16.354;-34.720;-25.555;-16.652;4.061;-31.777;-23.134;-14.789
3029567.597;-19.297;-37.216;-31.032;-23.097;-1.043;-30.510;-24.363;-12.331
3029567.605;-25.257;-46.790;-36.322;-34.012;-3.092;-29.355;-22.389;-14.603
3029567.613;-26.226;-47.795;-37.067;-33.788;-4.061;-25.779;-17.099;-14.007
3029567.621;-27.940;-46.119;-37.178;-35.241;-6.258;-22.091;-12.293;-12.182
3029567.629;-29.542;-48.839;-39.041;-31.926;-6.296;-19.558;-8.382;-10.915
3029567.637;-23.693;-42.692;-34.496;-26.412;1.639;-17.546;-5.662;-6.817
3029567.645;-22.464;-41.127;-31.777;-23.507;-0.186;-25.034;-15.721;-12.666
3029567.653;-13.821;-34.757;-25.518;-20.601;3.912;-31.926;-21.905;-16.764
3029567.661;-11.288;-32.894;-23.991;-19.632;1.304;-37.923;-25.928;-21.867
3029567.669;-11.921;-31.292;-24.065;-20.377;5.364;-41.127;-26.859;-25.555
3029567.677;-16.280;-38.147;-28.536;-17.956;3.465;-45.337;-30.957;-28.796
3029567.685;-16.056;-38.594;-27.940;-15.050;7.600;-44.331;-27.828;-28.796
3029567.693;-21.197;-42.468;-34.757;-29.132;1.229;-37.737;-19.819;-24.326
3029567.701;-21.979;-43.139;-32.634;-33.230;-5.402;-27.530;-10.543;-18.701
3029567.709;-25.891;-45.188;-34.980;-28.424;-9.276;-17.397;-1.341;-13.150
3029567.717;-28.946;-49.695;-39.004;-36.173;-9.611;-12.293;0.894;-7.935
3029567.725;-34.869;-55.432;-45.262;-42.543;-12.331;-14.864;-4.731;-9.798
3029567.733;-35.912;-54.240;-46.454;-37.700;-13.299;-19.893;-13.486;-12.591
3029567.741;-30.473;-46.678;-41.947;-32.336;-9.835;-17.956;-12.405;-14.715
3029567.749;-31.106;-52.229;-41.127;-35.800;-11.884;-21.718;-14.342;-20.936
3029567.757;-20.713;-41.388;-26.338;-30.249;3.241;-20.303;-11.027;-20.601
3029567.750;-16.950;-33.453;-23.432;-39.972;4.470;-22.128;-10.580;-21.346
3029567.758;-21.867;-35.837;-29.057;-36.433;-2.533;-26.040;-15.087;-22.277
3029567.766;-28.275;-43.064;-36.992;-30.808;-11.474;-26.748;-17.509;-21.905
3029567.774;-37.216;-51.893;-45.225;-32.783;-14.082;-23.916;-14.193;-21.867
3029567.782;-27.493;-42.394;-34.943;-30.398;-6.147;-7.376;1.602;-8.494
3029567.790;-35.204;-51.707;-40.121;-39.935;-13.374;-3.837;4.992;-10.245
3029567.798;-34.124;-49.882;-38.929;-38.818;-12.964;-0.857;8.158;-12.517
3029567.806;-33.528;-51.372;-38.482;-42.506;-13.039;-2.570;3.129;-14.417
3029567.814;-38.259;-58.524;-37.476;-43.288;-15.274;-10.170;-9.350;-18.291
3029567.822;-39.563;-56.364;-39.525;-46.715;-10.468;-19.856;-22.389;-23.320
3029567.830;-44.443;-64.000;-46.492;-55.060;-20.973;-30.771;-34.198;-29.244
3029567.838;-39.637;-58.413;-42.357;-62.287;-23.581;-35.577;-36.098;-31.032
3029567.846;-42.766;-59.307;-46.864;-61.654;-24.810;-40.084;-35.278;-38.072
3029567.854;-38.520;-52.117;-44.927;-44.927;-21.942;-41.164;-30.659;-41.649
3029567.862;-34.124;-50.776;-40.270;-44.368;-21.011;-36.880;-23.991;-40.904
3029567.870;-27.865;-40.121;-40.419;-27.567;-21.793;-24.326;-9.090;-34.533
3029567.878;-20.526;-28.387;-36.322;-20.675;-20.117;-7.153;9.611;-19.893
3029567.886;-16.913;-23.097;-30.175;-25.332;-20.154;4.768;20.079;-8.158
3029567.894;-17.360;-24.661;-29.281;-18.775;-14.901;8.494;17.621;-3.166
3029567.902;-24.065;-34.720;-32.596;-27.642;-12.666;5.960;7.078;-0.969
3029567.910;-27.306;-39.600;-32.745;-35.986;-7.600;-16.689;-18.850;-19.334
3029567.918;-38.333;-55.507;-44.219;-57.295;-16.019;-26.934;-32.112;-27.381
3029567.926;-50.291;-69.551;-55.060;-81.323;-23.879;-38.631;-43.251;-35.167
3029567.934;-55.097;-75.065;-60.685;-91.195;-20.526;-48.876;-49.323;-43.660
3029567.945;-50.813;-70.408;-56.997;-84.490;-18.254;-44.331;-41.164;-40.755
3029567.953;-59.493;-78.604;-64.522;-86.837;-21.122;-39.935;-35.539;-38.557
3029567.961;-66.720;-87.470;-73.798;-93.915;-26.114;-33.379;-26.636;-35.800
3029567.969;-80.690;-103.638;-87.023;-114.031;-36.992;-19.185;-12.107;-24.885
3029567.977;-86.725;-106.879;-97.528;-113.249;-50.515;-8.605;-3.390;-18.254
3029567.985;-84.639;-103.153;-97.714;-114.664;-50.962;-2.533;-0.075;-12.368
3029567.993;-92.909;-108.108;-104.308;-117.756;-53.979;-5.476;-7.339;-13.448
3029568.001;-87.246;-103.600;-99.316;-110.194;-47.684;-11.735;-18.477;-13.188
3029568.009;-90.562;-110.492;-100.881;-116.788;-45.635;-24.214;-32.336;-20.750
3029568.017;-93.728;-115.074;-101.626;-122.339;-46.939;-36.471;-42.617;-29.281
3029568.025;-88.327;-113.472;-92.350;-126.958;-40.233;-40.233;-43.213;-31.479
3029568.033;-74.916;-98.832;-80.727;-111.051;-29.765;-35.428;-32.708;-30.138
3029568.041;-72.867;-95.777;-80.317;-107.512;-30.324;-38.445;-32.634;-34.384
3029568.049;-68.806;-90.413;-74.841;-100.397;-23.693;-35.390;-28.014;-33.490
3029568.057;-69.477;-86.166;-76.406;-92.350;-24.140;-27.083;-18.850;-30.696
3029568.065;-77.635;-93.095;-86.427;-95.032;-35.986;-20.787;-15.050;-27.679
3029568.073;-80.205;-96.299;-90.636;-96.299;-39.525;-12.293;-10.058;-20.377
3029568.081;-81.360;-93.952;-92.722;-104.532;-45.486;-5.327;-5.215;-11.735
3029568.089;-84.341;-97.714;-93.542;-102.222;-42.059;-7.227;-8.531;-11.325
3029568.097;-85.942;-98.236;-94.585;-103.712;-41.761;-14.268;-15.497;-16.987
3029568.105;-84.750;-98.646;-94.324;-98.199;-45.486;-19.334;-19.744;-20.042
3029568.113;-81.062;-94.734;-87.917;-95.554;-39.041;-21.793;-21.979;-21.346
3029568.121;-73.500;-87.470;-82.254;-85.197;-34.161;-18.515;-16.391;-18.403
3029568.129;-63.740;-79.647;-71.041;-81.733;-26.822;-11.958;-8.829;-14.715
3029568.153;-57.481;-74.133;-61.356;-82.068;-12.182;-11.884;-7.339;-17.658
3029568.161;-54.650;-74.171;-59.158;-78.082;-7.413;-10.990;-5.178;-17.770
3029568.169;-53.942;-71.861;-59.269;-77.114;-12.368;-10.058;-5.960;-18.887
3029568.177;-56.066;-68.843;-63.218;-67.800;-14.603;-13.970;-10.245;-20.489
3029568.185;-59.605;-71.712;-67.428;-75.549;-21.122;-16.354;-13.821;-21.532
3029568.193;-64.261;-77.523;-72.494;-70.520;-25.928;-18.217;-15.348;-23.060
3029568.201;-72.569;-85.719;-82.813;-70.930;-31.106;-15.795;-13.001;-19.073
3029568.209;-70.184;-83.260;-80.094;-79.758;-29.281;-19.409;-18.477;-20.377
3029568.217;-57.854;-71.861;-66.459;-78.939;-10.878;-21.234;-22.091;-21.458
3029568.225;-56.326;-70.743;-63.293;-80.280;-5.066;-22.240;-24.140;-21.979
3029568.233;-53.048;-67.055;-56.848;-72.867;-2.719;-24.885;-26.561;-24.661
3029568.241;-48.056;-61.467;-54.948;-66.869;-0.559;-23.395;-23.171;-23.507
3029568.249;-57.928;-69.998;-63.591;-81.547;-1.937;-23.022;-22.613;-22.873
3029568.257;-62.473;-74.059;-69.439;-86.613;-7.190;-21.085;-21.532;-20.564
3029568.265;-63.628;-74.245;-68.732;-84.527;-13.933;-24.699;-25.406;-25.630
3029568.273;-57.593;-68.508;-61.169;-79.498;-6.296;-18.328;-20.377;-22.799
3029568.281;-50.813;-61.654;-55.805;-62.622;1.639;-10.319;-13.448;-16.280
3029568.289;-47.274;-55.805;-52.527;-68.657;6.147;-9.686;-13.560;-17.285
3029568.297;-42.357;-55.246;-50.515;-73.463;6.743;-10.841;-15.460;-19.111
3029568.305;-39.078;-52.266;-47.088;-67.353;7.376;-14.938;-20.042;-22.762
3029568.313;-37.178;-50.664;-44.890;-59.642;7.376;-18.477;-25.406;-25.220
3029568.321;-36.843;-50.627;-43.288;-54.128;13.672;-21.160;-29.355;-23.358
3029568.329;-41.761;-54.464;-47.348;-60.275;8.307;-25.593;-33.751;-24.661
3029568.337;-40.159;-55.283;-47.944;-67.055;4.806;-22.836;-31.702;-20.117
3029568.336;-43.921;-59.754;-54.017;-74.133;2.757;-21.867;-30.734;-19.968
3029568.344;-46.752;-57.593;-56.326;-63.851;-2.906;-17.881;-24.475;-18.589
3029568.352;-47.050;-56.997;-57.332;-57.779;-3.725;-16.689;-20.228;-18.030
3029568.360;-44.592;-55.060;-54.054;-55.619;-1.453;-13.225;-15.870;-16.093
3029568.368;-41.649;-53.048;-50.515;-49.360;1.565;-7.302;-10.431;-15.162
3029568.376;-44.368;-55.879;-54.762;-58.450;3.912;-9.350;-13.784;-19.707
3029568.384;-45.747;-55.768;-57.667;-65.044;-1.490;-8.792;-14.268;-18.254
3029568.392;-46.194;-55.656;-56.289;-61.095;-6.817;-12.442;-19.446;-18.477
3029568.400;-45.933;-55.321;-55.321;-59.716;-4.098;-20.117;-29.542;-24.922
3029568.408;-36.061;-48.392;-43.176;-52.378;7.451;-20.675;-30.696;-23.507
3029568.416;-29.318;-42.133;-33.788;-46.864;17.062;-14.417;-24.028;-18.179
3029568.424;-24.252;-35.614;-29.132;-48.578;17.248;-10.245;-19.558;-17.546
3029568.432;-19.781;-32.410;-26.934;-47.833;16.652;-4.433;-13.337;-15.013
3029568.440;-20.266;-33.490;-25.406;-53.123;16.801;0.708;-8.233;-13.337
3029568.448;-17.919;-31.553;-22.352;-51.968;20.415;1.527;-9.388;-13.001
3029568.456;-18.291;-30.883;-22.314;-44.852;20.638;1.043;-9.984;-14.417
3029568.464;-21.122;-32.932;-26.412;-46.901;14.678;-1.043;-12.405;-16.689
3029568.472;-21.048;-33.639;-28.685;-49.956;7.302;-5.700;-17.546;-19.670
3029568.480;-27.195;-40.010;-36.098;-50.887;7.376;-5.774;-18.738;-18.366
3029568.488;-29.542;-41.313;-35.353;-56.177;7.264;-5.290;-20.489;-14.752
3029568.496;-36.247;-48.950;-39.339;-64.373;-0.596;-3.129;-21.793;-7.898
3029568.504;-46.790;-60.499;-50.738;-72.122;-9.798;-2.012;-20.713;-4.694
3029568.512;-45.002;-58.934;-48.093;-73.984;-5.923;-0.075;-17.509;-2.421
3029568.520;-41.202;-53.979;-44.219;-71.526;-0.969;-3.316;-18.664;-7.413
3029568.515;-34.049;-48.652;-34.980;-65.789;3.912;-8.270;-21.048;-13.895
3029568.523;-23.656;-38.967;-21.048;-57.071;12.107;-9.350;-19.297;-16.987
3029568.531;-23.022;-33.565;-21.011;-56.140;16.429;-14.715;-21.681;-22.426
3029568.539;-22.165;-32.298;-23.358;-50.403;15.199;-16.652;-24.140;-21.197
3029568.547;-26.152;-35.204;-29.281;-54.725;5.253;-18.142;-26.636;-22.203
3029568.555;-25.854;-34.608;-31.292;-44.890;3.763;-16.689;-22.389;-21.085
3029568.563;-20.601;-30.063;-26.636;-43.996;12.070;-11.623;-15.385;-16.876
3029568.571;-21.420;-30.249;-24.140;-39.749;9.276;-12.219;-15.907;-17.770
3029568.579;-18.813;-27.008;-23.656;-40.978;5.998;-10.282;-15.572;-12.480
3029568.587;-26.636;-34.757;-34.124;-48.913;-2.719;-10.207;-17.136;-11.064
3029568.595;-30.994;-38.408;-38.333;-49.472;-4.582;-12.591;-19.670;-10.617
3029568.603;-18.738;-25.965;-27.567;-33.118;8.196;-16.280;-21.756;-12.852
3029568.611;-21.569;-29.430;-27.083;-39.935;6.557;-19.260;-22.203;-18.254
3029568.619;-25.146;-33.304;-29.616;-44.145;0.633;-13.299;-14.976;-14.678
3029568.627;-24.326;-32.485;-29.057;-44.703;-0.745;-12.852;-15.534;-17.025
3029568.635;-23.544;-32.298;-28.089;-47.572;0.894;-12.666;-14.789;-18.552
3029568.643;-22.724;-31.218;-26.599;-45.374;5.439;-11.474;-12.629;-18.068
3029568.651;-21.309;-29.542;-25.332;-39.786;8.754;-13.709;-13.895;-20.303
3029568.659;-19.856;-25.928;-25.854;-35.502;7.115;-15.646;-17.807;-18.813
3029568.667;-19.819;-25.667;-22.724;-33.677;6.333;-16.056;-19.856;-15.497
3029568.675;-24.214;-33.714;-25.965;-43.660;3.017;-17.546;-23.320;-10.431
3029568.683;-27.902;-36.396;-30.026;-54.576;-1.304;-18.626;-27.232;-7.786
3029568.691;-32.522;-39.190;-31.739;-50.180;-0.596;-19.968;-29.504;-9.872
3029568.699;-30.212;-39.078;-29.206;-43.102;0.373;-16.689;-26.301;-6.557
3029568.709;-31.181;-39.265;-29.765;-52.676;0.782;-15.572;-23.991;-8.196
3029568.717;-24.252;-31.106;-24.289;-42.841;5.215;-11.921;-17.621;-8.866
3029568.725;-16.242;-22.948;-17.621;-39.861;6.855;-12.033;-15.087;-11.846
3029568.733;-9.872;-17.099;-10.841;-33.118;13.448;-15.981;-15.423;-16.168
3029568.741;-3.092;-11.288;-2.943;-20.564;24.438;-18.738;-15.758;-18.030
3029568.749;-1.565;-8.568;-1.080;-11.139;25.779;-23.283;-20.228;-22.203
3029568.757;-5.178;-12.666;-2.980;-20.266;24.103;-27.716;-27.083;-23.320
3029568.765;-7.376;-18.440;-3.017;-29.169;25.071;-23.618;-25.146;-16.838
3029568.773;-13.225;-24.028;-7.674;-35.018;17.919;-13.560;-17.136;-9.499
3029568.781;5.290;-3.725;11.437;-8.084;31.926;-9.835;-13.895;-4.768
3029568.789;21.309;11.623;31.590;1.304;47.609;-10.133;-14.640;-4.061
3029568.797;39.525;34.720;49.248;26.822;57.928;-6.817;-11.586;-1.341
3029568.805;59.269;57.630;68.620;52.713;67.279;-4.806;-7.786;0.410
3029568.813;78.231;80.876;83.633;78.827;76.443;-4.023;-3.465;-2.943
3029568.821;100.099;107.884;103.973;105.202;93.505;-2.719;2.086;-4.768
3029568.829;117.756;132.769;120.923;125.319;104.122;-0.410;7.264;-5.029
3029568.837;129.640;146.665;132.807;147.745;112.168;2.198;9.574;-2.123
3029568.845;139.475;158.735;139.102;160.635;116.862;6.519;12.405;1.937
3029568.853;142.828;163.615;141.747;165.664;116.825;5.253;8.680;0.522
3029568.861;138.432;160.336;135.973;165.030;104.718;10.654;11.213;6.929
3029568.869;123.233;146.255;120.364;150.129;92.052;17.285;16.838;14.119
3029568.877;113.770;135.228;112.690;134.893;85.905;14.640;15.534;14.678
3029568.885;103.749;123.791;97.193;124.834;69.439;15.162;19.036;16.391
3029568.893;90.972;104.122;83.819;117.235;57.593;17.062;23.618;14.454
3029568.905;82.664;93.058;75.623;103.340;53.905;13.784;22.314;8.605
3029568.913;74.245;83.447;67.241;97.044;45.039;14.007;24.103;7.115
3029568.921;64.783;72.643;55.656;78.604;31.479;14.529;25.332;6.035
3029568.929;57.407;65.565;48.093;71.786;24.848;15.013;23.767;6.370
3029568.937;44.107;51.893;36.545;64.708;12.703;10.729;17.360;2.682
3029568.945;39.637;44.405;29.244;57.742;4.694;9.947;16.503;3.576
3029568.953;31.963;33.788;21.942;45.113;3.390;6.929;11.437;1.490
3029568.961;24.475;23.432;16.317;36.247;1.676;2.608;3.763;-1.714
3029568.969;17.509;18.068;9.537;23.916;-6.817;3.763;1.080;3.427
3029568.977;9.201;7.078;2.384;19.185;-13.970;1.602;-1.192;2.310
3029568.985;7.488;5.141;1.304;22.016;-17.844;5.290;6.594;4.098
3029568.993;2.049;2.235;-5.327;22.091;-25.481;4.321;8.382;0.633
3029569.001;1.565;-0.037;-7.376;17.136;-23.209;5.960;9.872;-1.825
3029569.009;1.267;-1.080;-6.780;9.462;-20.228;7.451;10.692;-1.043
3029569.017;0.037;1.378;-8.829;14.007;-24.550;8.047;10.505;0.559
3029569.025;0.596;-2.608;-8.643;12.629;-25.295;6.184;9.462;1.751
3029569.033;4.284;3.465;-6.370;23.581;-23.507;10.133;15.125;5.141
3029569.041;1.527;1.006;-8.717;24.922;-24.848;9.164;15.236;4.433
3029569.049;-2.049;-3.912;-13.858;10.841;-26.897;4.955;10.356;-0.894
3029569.057;4.284;5.588;-5.625;25.444;-21.756;5.104;11.250;-4.023
3029569.065;1.565;2.533;-5.886;21.495;-23.544;9.909;15.832;-0.112
3029569.073;2.086;2.421;-6.929;23.693;-24.848;7.376;11.735;-1.192
3029569.081;1.118;1.416;-9.015;24.997;-26.338;3.651;6.184;-3.539
3029569.089;-14.901;-15.087;-25.555;3.539;-39.972;7.525;7.488;-2.012
3029569.115;-23.320;-20.899;-34.757;-0.112;-53.681;10.245;9.052;-1.602
3029569.123;-23.134;-21.085;-33.900;-6.482;-55.246;12.033;10.580;0.596
3029569.131;-21.607;-22.314;-30.808;-9.388;-48.093;8.792;7.972;-3.353
3029569.139;-17.546;-17.956;-24.475;-4.433;-41.239;7.860;6.631;-4.321
3029569.147;-13.486;-11.884;-18.924;2.272;-40.308;11.101;9.798;-1.974
3029569.155;-13.448;-14.864;-16.317;1.639;-36.880;5.625;5.104;-6.184
3029569.163;-14.976;-18.254;-20.750;-3.874;-42.915;5.849;5.476;-5.960
3029569.171;-17.881;-19.521;-26.412;-0.484;-44.256;11.809;12.442;-4.284
3029569.179;-17.472;-17.881;-23.730;-0.522;-39.004;14.529;14.789;-6.258
3029569.187;-17.919;-17.285;-21.793;0.373;-34.496;13.970;16.764;-5.811
3029569.195;-24.103;-21.979;-28.424;-1.043;-44.219;13.597;17.062;-2.794
3029569.203;-32.336;-29.840;-38.259;-7.823;-56.736;10.319;11.735;-0.708
3029569.211;-34.161;-33.863;-40.792;-14.603;-54.762;9.052;7.302;-1.155
3029569.219;-31.143;-31.777;-38.929;-11.511;-55.209;6.147;3.912;-3.651
3029569.227;-21.309;-20.303;-29.132;2.906;-42.319;6.072;5.476;-5.402
3029569.235;-14.640;-10.915;-21.346;8.643;-36.806;7.413;7.935;-6.296
3029569.243;-6.966;-2.719;-16.466;17.956;-33.528;11.288;14.305;-2.943
3029569.251;-4.135;-1.490;-9.574;21.532;-28.722;16.987;19.521;-0.782
3029569.259;-14.082;-11.697;-17.546;5.588;-37.141;15.944;15.870;-1.974
3029569.267;-18.962;-15.907;-24.624;5.513;-38.221;16.764;16.838;0.484
3029569.275;-24.177;-19.372;-28.238;7.786;-39.637;14.454;16.429;-1.006
3029569.283;-25.369;-21.085;-29.244;3.465;-43.064;14.193;18.589;2.496
3029569.291;-25.481;-20.973;-31.628;1.267;-49.323;12.033;18.366;2.012
3029569.299;-20.303;-14.752;-25.965;2.719;-42.543;14.901;20.564;8.382
3029569.280;-22.501;-14.976;-25.555;1.565;-39.078;12.182;15.944;7.078
3029569.288;-24.252;-15.646;-30.026;3.465;-41.388;6.482;7.972;1.416
3029569.296;-19.446;-14.938;-24.438;11.325;-41.947;5.141;5.923;1.304
3029569.304;-22.650;-20.005;-24.848;4.731;-39.935;0.149;1.416;-2.794
3029569.312;-23.022;-17.770;-25.332;-2.459;-41.053;-1.974;0.484;-6.296
3029569.320;-21.867;-18.291;-24.922;-5.849;-41.425;-1.863;2.049;-6.333
3029569.328;-28.275;-24.810;-31.590;-10.431;-45.821;-5.476;-1.118;-9.872
3029569.336;-23.097;-20.266;-26.897;2.757;-43.474;-0.112;4.545;-3.986
3029569.344;-24.028;-19.334;-26.226;1.155;-43.400;0.969;5.700;-3.129
3029569.352;-23.991;-19.185;-24.699;-0.447;-43.549;-0.596;4.508;-4.508
3029569.360;-17.546;-9.909;-19.781;5.476;-42.729;3.017;8.531;-2.496
3029569.368;-18.738;-9.127;-21.942;11.623;-43.735;2.235;7.115;-2.682
3029569.376;-19.781;-13.039;-23.060;13.597;-38.743;0.522;3.539;-1.974
3029569.384;-18.068;-15.087;-24.103;10.170;-40.121;0.894;3.204;-1.676
3029569.392;-25.742;-19.595;-31.367;-10.207;-48.801;-6.184;-4.806;-7.302
3029569.400;-27.753;-20.526;-30.287;-13.225;-49.658;-7.786;-5.662;-8.494
3029569.408;-28.424;-20.750;-33.416;-5.551;-53.123;-6.482;-2.198;-8.941
3029569.416;-32.559;-28.349;-37.514;-5.811;-52.564;-4.731;1.825;-7.749
3029569.424;-36.694;-35.502;-42.208;-13.858;-61.393;-2.012;5.513;-7.190
3029569.432;-37.700;-38.929;-40.904;-21.309;-54.203;-2.645;3.651;-7.749
3029569.440;-35.167;-30.212;-38.669;-22.352;-53.719;1.043;7.488;-4.359
3029569.448;-29.355;-24.103;-32.894;-4.470;-52.564;2.310;9.499;-3.241
3029569.456;-24.773;-23.432;-28.796;-11.101;-48.243;-1.043;4.768;-5.178
3029569.464;-20.750;-19.148;-23.395;-2.384;-40.159;1.006;6.147;-2.943
3029569.477;-18.887;-17.062;-22.016;1.565;-39.972;-1.602;4.210;-1.490
3029569.485;-20.154;-16.242;-24.624;-3.055;-45.747;-6.780;1.006;-4.731
3029569.493;-16.503;-10.431;-19.111;3.316;-37.141;-2.682;6.743;-2.012
3029569.501;-11.921;-7.562;-14.119;11.437;-30.026;3.688;12.219;5.104
3029569.509;-9.462;-3.800;-13.113;10.431;-30.138;8.829;17.919;9.090
3029569.517;-11.772;-9.276;-14.305;5.066;-29.765;5.700;16.540;4.359
3029569.525;-16.242;-13.895;-22.426;3.725;-36.955;-1.453;10.617;-2.421
3029569.533;-16.540;-9.462;-25.444;10.207;-39.525;-3.576;9.015;-4.284
3029569.541;-15.944;-8.456;-21.309;7.562;-40.196;-11.884;-1.416;-9.909
3029569.549;-18.589;-13.560;-20.675;-0.820;-39.153;-19.222;-10.729;-16.578
3029569.557;-12.368;-5.029;-17.434;11.176;-29.579;-13.076;-5.104;-10.580
3029569.565;-8.792;-2.570;-16.652;19.781;-31.590;-4.955;2.049;-3.427
3029569.573;-13.672;-7.972;-21.048;6.594;-37.886;-4.731;2.570;-5.364
3029569.581;-14.119;-8.009;-22.985;8.196;-39.414;-0.559;8.233;-1.714
3029569.589;-18.850;-16.168;-20.750;4.396;-34.161;0.931;9.164;-1.043
3029569.597;-17.919;-13.784;-21.756;0.820;-34.161;2.384;9.313;2.123
3029569.605;-16.652;-11.772;-24.401;8.009;-39.376;3.725;9.164;3.986
3029569.613;-16.131;-14.305;-23.358;2.310;-41.798;1.229;4.731;-0.596
3029569.621;-10.096;-7.041;-17.658;3.614;-31.702;-0.373;4.843;-3.651
3029569.629;-4.582;4.061;-10.803;11.921;-25.108;-2.235;5.178;-6.072
3029569.637;-3.129;2.384;-5.327;27.232;-20.526;-9.127;-0.782;-12.517
3029569.645;-3.837;2.347;-9.686;19.893;-24.401;-5.998;1.378;-9.686
3029569.653;-8.792;-2.161;-15.572;7.562;-30.659;-2.682;0.969;-5.178
3029569.661;-7.413;-3.725;-10.133;7.264;-23.693;-1.714;0.522;-0.224
3029569.670;-10.207;-3.912;-18.105;11.362;-32.112;-2.123;0.522;-0.149
3029569.678;-16.242;-10.282;-23.879;5.141;-38.408;-3.949;-1.006;-3.465
3029569.686;-12.480;-7.227;-17.583;7.004;-27.642;0.559;3.539;-1.527
3029569.694;-16.727;-8.009;-23.879;-0.261;-31.404;0.596;3.092;-2.906
3029569.702;-18.217;-12.703;-25.369;2.384;-36.582;-1.825;0.522;-3.204
3029569.710;-12.815;-6.258;-19.148;10.282;-33.751;1.229;4.098;0.410
3029569.718;-9.947;-2.645;-15.609;13.337;-30.547;1.788;6.668;0.559
3029569.726;-8.568;-4.247;-14.715;7.972;-24.252;0.820;7.562;-1.714
3029569.734;-6.072;-1.825;-10.282;13.970;-24.773;-0.335;9.723;-3.725
3029569.742;-5.141;-1.527;-7.823;7.972;-21.644;-4.917;4.247;-7.860
3029569.750;-6.333;0.298;-10.431;14.082;-23.544;-0.745;6.519;-4.880
3029569.758;-11.362;-5.513;-15.832;8.382;-29.393;-0.708;3.651;-3.241
3029569.766;-11.586;-7.935;-14.864;3.539;-28.126;-1.751;1.155;-1.974
3029569.774;-10.245;-4.172;-17.621;5.327;-30.138;1.974;6.407;1.378
3029569.782;-8.382;-2.682;-13.597;7.600;-23.767;5.662;10.841;3.986
3029569.790;-6.631;-0.186;-8.643;16.093;-22.501;9.909;13.895;4.172
3029569.798;-6.817;-2.757;-9.909;8.866;-22.836;9.127;12.405;1.565
3029569.806;-8.717;-6.892;-10.692;1.825;-21.271;6.333;8.382;-0.633
3029569.814;-10.766;-4.321;-11.884;2.012;-21.607;4.433;5.364;-1.974
3029569.822;-3.502;3.502;-6.221;10.990;-15.013;8.456;8.643;2.868
3029569.830;-3.800;2.272;-1.751;14.305;-13.895;8.009;7.823;-1.304
3029569.838;-5.253;1.378;-1.304;15.721;-16.615;4.768;6.966;-5.476
3029569.846;-4.321;1.527;1.341;8.419;-13.784;9.760;11.288;0.559
3029569.854;-8.978;-1.900;-4.172;-3.688;-18.515;11.511;11.809;3.651
3029569.864;-14.044;-6.966;-12.591;1.863;-28.685;9.164;8.196;4.098
3029569.872;-10.841;-4.061;-10.096;-5.215;-21.867;12.778;9.239;8.419
3029569.880;-7.600;0.969;-5.104;4.023;-18.440;13.411;10.356;7.488
3029569.888;-10.878;-1.341;-8.382;11.027;-25.779;9.388;8.382;2.384
3029569.896;-9.686;-0.745;-8.754;11.884;-28.908;4.694;6.035;-2.012
3029569.904;-6.035;4.284;-5.141;4.023;-25.891;2.384;3.986;-1.639
3029569.912;-4.321;6.258;-2.496;5.327;-17.472;2.459;2.086;0.261
3029569.920;-4.470;4.657;-3.204;15.721;-15.385;4.768;4.582;3.129
3029569.928;-12.219;-3.837;-11.213;6.706;-23.358;3.912;3.166;2.719
3029569.936;-13.337;-4.247;-11.325;3.986;-28.014;5.104;2.757;2.831
3029569.944;-4.880;4.545;-2.719;6.333;-19.819;11.660;11.250;6.966
3029569.952;-5.402;1.118;-2.421;2.794;-18.217;9.798;10.394;2.719
3029569.960;-1.788;1.490;0.969;10.915;-14.231;12.442;11.623;5.104
3029569.968;-2.868;2.868;0.037;9.611;-17.770;12.331;10.207;5.998
3029569.976;-1.602;4.061;0.037;10.058;-10.058;6.147;3.986;1.751
3029569.984;6.929;13.821;10.245;15.199;-2.049;3.092;2.831;1.900
3029569.992;6.668;12.815;9.201;18.775;-6.668;-3.129;-1.639;-2.757
3029570.000;9.090;12.368;9.425;22.091;-8.084;-4.359;-0.410;-2.868
3029570.008;0.857;5.737;1.304;8.717;-12.591;-4.061;0.037;-0.969
3029570.016;-0.186;7.898;2.123;9.090;-10.505;-3.390;-0.671;0.149
3029570.024;2.868;7.227;4.880;5.588;-7.078;5.178;6.892;7.749
3029570.032;-0.671;3.129;0.261;15.348;-14.417;10.245;11.809;10.692
3029570.040;1.639;6.966;3.166;14.417;-14.342;11.697;15.162;10.952
3029570.048;3.129;8.121;4.396;2.570;-11.660;9.909;14.864;8.158
3029570.074;1.676;8.270;2.496;13.635;-14.678;6.855;11.511;3.725
3029570.082;0.075;5.662;0.186;11.735;-15.423;4.172;8.084;2.272
3029570.090;-3.763;-0.075;-1.863;4.992;-12.964;-1.080;2.757;-1.974
3029570.098;2.682;7.711;5.104;10.841;-12.554;3.800;6.594;4.135
3029570.106;3.800;10.319;5.253;12.442;-15.572;4.210;6.668;5.700
3029570.114;-0.335;5.737;-0.075;6.296;-19.148;1.825;5.327;4.135
3029570.122;-1.155;6.333;-1.788;12.405;-15.721;5.923;10.133;8.494
3029570.130;-7.153;0.186;-3.949;10.356;-15.832;8.084;12.256;9.872
3029570.138;-4.992;3.874;-3.763;3.092;-16.727;11.660;14.901;13.635
3029570.146;-5.178;1.378;-2.794;2.570;-17.062;9.723;11.921;13.448
3029570.154;-6.557;-3.166;0.447;2.682;-14.491;7.041;8.419;11.176
3029570.162;-6.668;-1.304;-1.602;5.029;-17.062;7.115;8.680;10.133
3029570.170;-8.494;1.639;-3.800;3.576;-18.030;5.290;8.345;6.035
3029570.178;-6.296;3.129;0.186;10.058;-13.113;-0.335;4.768;0.596
3029570.186;0.075;6.109;5.290;13.746;-6.072;2.235;8.084;4.843
3029570.194;-0.335;3.837;2.310;7.935;-9.947;4.955;8.829;6.929
3029570.202;4.470;11.176;3.316;12.517;-10.617;11.623;15.423;14.678
3029570.210;-1.006;6.892;1.043;9.723;-14.715;6.631;10.319;10.915
3029570.218;0.335;9.462;1.974;20.266;-10.543;5.998;9.537;10.170
3029570.226;6.184;16.093;4.508;25.593;-8.270;5.960;9.537;7.600
3029570.234;10.096;20.377;6.966;27.865;-8.680;6.966;11.548;7.376
3029570.242;10.617;19.893;5.625;17.136;-7.339;5.327;8.307;6.892
3029570.250;12.890;18.924;11.660;21.942;-4.545;6.557;8.903;7.004
3029570.258;14.380;21.905;14.417;28.647;-2.086;5.364;8.419;7.153
3029570.240;13.299;22.650;11.250;33.379;-4.843;5.811;9.686;6.258
3029570.248;14.491;25.481;9.388;36.508;-6.780;7.264;9.947;7.078
3029570.256;20.675;28.871;14.491;27.567;3.763;13.188;14.082;14.119
3029570.264;20.154;26.897;12.890;31.777;1.974;15.534;16.354;15.125
3029570.272;20.415;27.716;15.534;43.586;-2.459;16.540;18.589;16.503
3029570.280;15.385;24.922;11.474;36.992;-5.662;16.838;19.372;18.179
3029570.288;5.402;13.448;0.745;20.377;-16.652;19.930;22.538;19.930
3029570.296;12.815;23.171;5.998;23.767;-10.245;18.217;22.240;17.844
3029570.304;14.454;24.699;8.419;30.920;-5.625;11.399;15.087;11.064
3029570.312;11.362;18.142;6.482;23.767;-6.072;7.227;9.201;9.313
3029570.320;8.754;14.119;7.376;21.085;-8.307;3.017;4.433;5.513
3029570.328;4.023;9.760;1.639;18.366;-8.568;0.969;1.080;2.868
3029570.336;2.384;11.437;-3.017;15.087;-14.603;0.708;1.304;4.023
3029570.344;2.608;9.686;-0.708;9.835;-12.293;-1.565;-1.639;3.539
3029570.352;-1.006;4.768;-3.129;14.007;-13.448;-1.676;-1.118;4.023
3029570.360;-2.235;1.378;-0.857;11.437;-12.368;3.204;5.402;7.153
3029570.368;-4.657;-2.384;-0.708;3.465;-9.090;4.880;4.731;6.780
3029570.376;-4.172;-1.043;-4.470;3.725;-13.858;4.433;3.539;5.923
3029570.384;-3.055;3.614;-3.576;13.411;-11.437;0.894;2.012;1.863
3029570.392;-5.104;0.075;-5.960;7.488;-15.944;-3.874;-3.502;-1.527
3029570.400;-7.488;-3.837;-9.052;2.682;-16.503;-9.425;-9.686;-5.327
3029570.408;-8.568;-0.969;-10.505;5.849;-21.867;-11.250;-10.096;-6.817
3029570.416;-5.104;1.304;-5.886;8.568;-19.632;-9.499;-8.456;-3.353
3029570.424;-0.820;8.456;-0.373;13.635;-10.990;-3.763;-3.390;1.267
3029570.435;-2.086;6.557;-2.533;19.819;-12.219;0.633;1.229;3.465
3029570.443;-1.974;5.849;-5.588;13.374;-13.858;1.416;1.490;3.241
3029570.451;-6.072;4.210;-9.723;10.431;-22.016;2.347;3.278;1.974
3029570.459;-7.339;2.980;-7.786;8.829;-20.117;5.253;6.743;4.172
3029570.467;-4.284;3.800;-4.731;10.096;-12.107;5.811;5.700;5.253
3029570.475;-4.135;3.278;-4.619;10.543;-15.199;3.055;1.788;3.092
3029570.483;0.186;8.084;-2.533;6.370;-18.589;3.763;2.384;2.421
3029570.491;1.863;12.666;-1.192;6.817;-12.890;-1.937;-3.353;-2.645
3029570.499;8.382;17.993;8.717;25.816;-4.470;-2.198;-3.316;-1.825
3029570.507;9.611;20.042;10.170;22.799;-4.433;-3.092;-3.800;-4.657
3029570.515;2.794;15.013;1.490;14.380;-12.368;-5.662;-6.780;-8.717
3029570.523;-1.304;8.419;-4.061;12.852;-17.509;-1.974;-6.147;-7.711
3029570.531;-3.055;6.333;-4.396;9.909;-16.354;1.788;-1.304;-7.153
3029570.539;-1.751;8.158;-3.949;16.429;-16.429;4.508;2.496;-5.551
3029570.547;-7.451;2.682;-6.855;4.992;-20.675;-0.373;-2.980;-8.456
3029570.555;-2.682;7.153;0.969;4.955;-16.913;2.421;-2.310;-2.943
3029570.563;-2.086;7.786;0.708;2.198;-15.497;4.582;-2.831;0.373
3029570.571;-1.006;9.201;0.484;3.837;-10.841;4.508;-3.465;-0.373
3029570.579;1.900;7.339;3.278;14.007;-13.858;4.768;-3.166;-0.559
3029570.587;-1.788;6.855;-3.688;9.350;-22.501;5.625;-1.490;-2.347
3029570.595;11.474;24.699;11.027;25.295;-8.829;10.245;4.135;1.453
3029570.603;12.182;21.756;14.901;21.793;-3.465;10.803;4.694;2.384
3029570.611;7.562;17.174;9.649;15.274;-6.184;5.737;2.272;-3.390
3029570.619;0.671;8.978;0.931;9.686;-14.044;5.849;3.874;-4.619
3029570.629;-0.298;7.190;-0.559;5.215;-17.062;11.250;10.952;-2.384
3029570.637;4.321;14.231;6.557;6.333;-13.076;16.540;16.056;3.465
3029570.645;0.745;13.746;3.353;9.239;-15.534;16.168;14.193;5.104
3029570.653;0.335;11.437;4.210;11.213;-9.015;13.895;10.431;4.545
3029570.661;-3.316;5.588;0.671;-3.092;-12.591;6.855;2.161;1.937
3029570.669;-5.588;1.118;0.745;-5.439;-20.303;2.533;-3.688;-0.410
3029570.677;2.086;12.666;9.574;12.927;-9.984;6.407;0.037;3.949
3029570.685;8.605;19.893;12.368;15.087;-3.614;15.683;9.052;11.139
3029570.693;6.743;15.683;10.654;16.168;-4.284;15.981;9.574;8.717
3029570.701;5.551;13.262;8.903;15.050;-7.786;18.068;13.113;9.127
3029570.709;5.327;11.474;9.686;8.009;-5.998;20.415;16.205;10.356
3029570.717;3.353;11.846;10.431;2.831;-10.058;17.062;13.001;8.382
3029570.725;6.258;13.746;12.405;10.952;-6.743;20.936;16.838;10.692
3029570.733;4.806;13.858;11.437;10.803;-3.651;20.601;14.342;10.133
3029570.741;6.668;15.162;9.723;10.170;-6.631;22.762;14.231;15.125
3029570.749;12.182;18.552;18.999;11.139;-0.522;25.779;16.466;19.297
3029570.757;13.448;20.526;20.117;15.497;1.155;23.432;13.448;17.919
3029570.765;11.176;18.626;16.429;11.958;-2.645;17.732;8.717;12.591
3029570.773;14.827;25.444;17.844;22.277;0.149;15.497;8.382;7.600
3029570.781;13.635;22.352;15.050;24.214;-2.980;15.944;9.239;9.276
3029570.789;8.941;15.013;12.442;2.459;-4.172;13.560;7.302;6.333
3029570.797;8.047;14.491;15.385;8.121;-3.576;10.394;6.855;2.533
3029570.805;0.522;10.505;7.972;6.482;-10.431;9.909;5.625;2.161
3029570.813;-0.820;10.915;4.135;2.533;-11.697;11.660;5.960;4.284
3029570.838;2.570;14.082;5.253;10.431;-3.725;12.442;7.860;6.668
3029570.846;-5.253;3.278;-2.272;6.631;-13.039;6.407;3.949;-0.149
3029570.854;-5.178;3.502;-1.639;2.235;-19.856;7.264;4.992;1.937
3029570.862;-1.714;11.884;-0.447;9.313;-19.930;8.568;4.433;6.035
3029570.870;-2.049;10.207;1.602;4.098;-7.637;4.955;0.857;4.508
3029570.878;0.559;13.150;1.751;8.456;-7.004;1.192;-2.384;1.788
3029570.886;-0.522;11.660;4.917;-1.080;-12.442;-2.459;-4.843;-2.757
3029570.894;2.198;16.429;7.264;12.368;-13.672;1.378;-0.149;0.447
3029570.902;5.774;19.297;9.649;20.824;-5.253;1.155;0.596;-1.602
3029570.910;7.376;18.962;11.660;13.448;0.484;4.023;3.539;-0.149
3029570.918;10.319;24.214;11.623;13.374;-3.576;9.760;8.605;5.141
3029570.926;9.947;21.309;9.686;17.323;-6.706;13.821;11.958;7.562
3029570.934;6.929;17.695;10.170;11.772;-2.794;13.411;11.511;8.345
3029570.942;6.557;18.813;9.350;19.558;-2.831;18.179;17.248;13.299
3029570.950;-0.224;14.417;1.043;14.156;-13.672;17.956;17.770;12.703
3029570.958;-1.825;8.270;0.335;6.929;-15.274;14.044;14.678;10.207
3029570.966;-0.447;10.133;1.453;6.035;-15.311;12.331;12.182;7.339
3029570.974;1.937;15.199;5.327;13.821;-10.319;9.984;7.264;6.221
3029570.982;-2.198;11.884;1.416;7.749;-15.274;7.674;1.453;7.153
3029570.990;-7.562;4.955;-4.917;2.272;-17.807;-0.186;-5.588;1.416
3029570.998;-5.625;4.359;-3.465;5.253;-13.821;4.359;2.310;5.215
3029571.006;-3.353;11.176;-1.937;4.694;-16.205;6.482;6.631;4.880
3029571.014;-1.639;15.758;1.080;5.886;-10.468;4.917;4.843;2.086
3029571.022;-1.118;16.391;2.496;15.646;-8.307;3.353;3.166;-2.161
3029571.020;3.912;16.838;5.811;21.756;-6.333;8.121;10.356;1.378
3029571.028;3.465;15.683;5.178;10.207;-8.456;10.952;12.331;5.476
3029571.036;-4.321;9.388;-1.378;3.614;-12.815;10.170;11.921;5.029
3029571.044;-8.941;2.868;-5.253;-8.419;-17.658;9.835;9.015;7.190
3029571.052;-8.605;0.596;-2.459;1.714;-15.758;6.706;2.123;8.009
3029571.060;-5.476;6.407;-2.794;2.794;-15.646;7.637;3.502;8.754
3029571.068;-3.688;8.680;-0.745;1.416;-12.852;7.227;4.023;7.488
3029571.076;-2.496;12.182;0.261;11.660;-12.033;7.823;5.700;4.806
3029571.084;-2.459;9.499;-0.484;16.242;-12.890;9.499;10.058;6.817
3029571.092;-7.413;3.837;-5.513;8.941;-16.168;6.817;9.015;5.476
3029571.100;-8.270;2.682;-4.508;-0.224;-15.795;3.241;5.290;2.049
3029571.108;-1.565;10.878;1.974;9.015;-11.735;2.384;2.943;1.378
3029571.116;3.614;16.950;8.866;20.079;-4.359;2.943;2.608;0.335
3029571.124;11.735;24.363;18.328;28.685;4.731;9.052;8.382;3.427
3029571.132;19.670;34.273;26.226;32.298;10.654;13.560;11.660;3.427
3029571.140;21.234;36.061;28.685;34.571;10.356;16.689;15.274;3.688
3029571.148;26.226;42.021;33.826;37.365;18.254;27.902;24.289;16.987
3029571.156;42.655;63.255;51.372;58.562;36.098;30.622;24.103;21.383
3029571.164;64.149;87.023;73.873;90.860;52.229;29.393;21.718;21.756
3029571.172;87.544;113.249;94.809;118.949;68.434;25.667;17.323;19.632
3029571.180;111.051;137.612;118.203;131.167;88.178;22.054;15.311;15.758
3029571.188;139.624;172.816;144.802;157.505;108.704;23.656;21.718;15.907
3029571.196;156.164;192.188;164.062;178.814;124.648;27.753;29.132;16.764
3029571.204;167.862;202.768;179.447;184.737;143.684;33.639;35.018;18.924
3029571.200;176.653;207.871;187.941;192.560;155.307;41.351;40.792;23.805
3029571.208;173.114;203.475;184.998;183.918;150.912;38.520;36.061;21.048
3029571.216;166.968;197.031;179.335;175.387;146.329;32.075;26.897;18.068
3029571.224;165.701;196.062;175.536;176.094;146.516;34.422;28.014;20.601
3029571.232;151.061;182.129;160.448;155.084;133.663;34.422;25.444;22.650
3029571.240;134.446;161.156;145.696;126.362;122.003;34.012;21.756;26.189
3029571.248;117.421;140.741;131.540;109.822;107.735;29.653;17.360;24.773
3029571.256;109.784;129.715;123.680;102.110;100.881;28.349;18.403;25.369
3029571.264;103.265;121.146;115.670;95.889;95.330;25.369;16.466;21.197
3029571.272;95.442;116.713;105.202;88.848;84.713;22.054;14.193;16.950
3029571.280;88.885;104.904;99.167;73.686;78.343;25.518;18.366;17.360
3029571.288;86.054;99.242;96.783;69.030;73.351;29.206;22.799;18.850
3029571.296;76.741;87.954;87.172;61.803;65.453;26.226;17.844;17.136
3029571.304;68.843;80.727;80.280;63.032;63.963;20.601;11.548;13.448
3029571.312;63.553;72.457;73.500;53.756;57.817;16.391;7.004;14.082
3029571.320;55.656;62.063;63.069;34.645;46.082;13.560;4.917;12.033
3029571.328;50.478;61.728;57.817;37.104;40.904;16.913;9.015;11.176
3029571.336;51.036;64.857;58.599;45.337;45.337;25.518;17.285;19.073
3029571.344;46.454;57.407;56.587;41.500;41.723;27.828;19.409;19.856
3029571.352;36.843;46.194;45.635;29.244;30.734;23.060;15.199;14.566
3029571.360;34.645;42.953;42.282;24.401;30.398;25.146;17.323;16.950
3029571.368;32.336;41.500;40.494;16.913;27.567;24.177;17.546;14.864
3029571.376;31.143;41.835;39.041;22.389;27.753;20.340;14.827;13.486
3029571.384;31.888;43.511;40.196;25.854;28.387;20.303;13.672;14.789
3029571.395;39.674;52.340;47.274;38.669;31.255;20.973;15.087;15.907
3029571.403;41.090;51.707;48.093;30.175;31.032;16.727;10.803;11.958
3029571.411;39.376;48.652;46.641;28.834;34.720;10.766;5.737;5.513
3029571.419;32.485;41.761;39.414;20.191;27.902;14.156;9.947;10.058
3029571.427;28.834;42.059;35.316;26.375;19.781;14.007;11.139;7.823
3029571.435;37.551;53.830;42.096;38.631;27.642;18.664;14.789;11.213
3029571.443;30.436;44.368;36.694;34.980;22.128;26.710;20.415;19.372
3029571.451;29.206;43.809;35.614;31.441;13.635;26.152;20.415;19.185
3029571.459;33.639;45.113;40.121;28.647;15.944;24.028;17.099;19.185
3029571.467;32.224;41.202;40.233;28.573;17.956;26.710;20.415;20.340
3029571.475;33.043;41.239;40.345;25.555;20.117;30.324;24.848;21.830
3029571.483;36.471;45.449;40.829;34.794;21.979;31.479;27.940;21.644
3029571.491;36.657;48.354;43.213;39.153;21.681;26.226;23.432;15.311
3029571.499;46.790;56.662;54.426;45.747;34.831;20.899;17.285;12.629
3029571.507;50.627;59.307;57.891;44.778;39.004;17.956;14.119;10.207
3029571.515;49.621;59.642;54.501;40.494;35.278;17.881;13.895;9.537
3029571.523;47.982;59.307;51.782;47.758;33.043;17.621;12.852;9.239
3029571.531;41.537;52.489;45.374;48.056;24.028;20.005;14.305;12.182
3029571.539;30.920;42.059;33.230;34.645;16.727;21.011;15.497;17.099
3029571.547;21.830;33.006;25.332;21.607;12.256;22.054;18.552;19.558
3029571.555;22.016;33.975;23.209;26.785;2.757;23.767;22.873;22.091
3029571.563;31.628;42.506;34.310;42.245;16.913;24.997;28.014;23.097
3029571.571;37.327;48.131;39.637;34.235;27.977;22.985;28.424;18.254
3029571.579;41.984;53.234;40.531;42.021;28.014;22.203;28.312;16.987
3029571.590;48.093;59.865;49.323;56.215;35.055;22.687;27.418;17.136
3029571.598;52.229;64.708;53.719;57.034;39.749;21.085;23.171;14.901
3029571.606;55.768;68.657;55.097;62.473;36.918;24.810;25.779;19.036
3029571.614;52.676;64.820;51.633;56.811;34.757;20.191;20.154;15.721
3029571.622;48.429;56.140;49.360;52.489;32.783;16.280;13.709;13.635
3029571.630;40.904;47.050;41.798;44.443;28.983;14.417;11.772;11.474
3029571.638;34.869;43.809;37.439;31.441;26.003;15.087;12.591;13.597
3029571.646;23.507;29.616;29.802;20.489;16.056;12.405;11.735;13.821
3029571.654;17.174;23.805;20.489;23.395;7.898;8.531;9.872;11.921
3029571.662;20.303;28.126;21.048;25.779;11.325;5.178;9.052;9.313
3029571.670;20.787;26.785;21.160;21.383;9.462;6.557;10.245;9.090
3029571.678;27.828;33.379;28.946;27.604;17.062;5.476;7.115;8.903
3029571.686;30.883;36.843;35.837;26.859;24.661;6.407;4.545;9.798
3029571.694;30.920;37.327;35.465;31.814;28.275;7.860;3.576;7.860
3029571.702;29.653;36.024;30.175;32.149;21.756;7.041;2.757;5.141
3029571.710;23.879;26.971;26.152;28.238;11.846;5.513;3.055;2.533
3029571.718;25.630;28.722;27.344;21.458;10.505;6.668;7.451;3.316
3029571.726;27.828;33.937;27.344;23.767;15.683;10.058;13.895;6.594
3029571.734;18.775;26.599;21.197;28.498;11.772;4.843;10.058;2.980
3029571.742;16.317;21.942;19.483;22.464;7.339;1.863;6.817;3.725
3029571.750;17.174;22.650;19.595;14.901;5.253;1.118;5.215;4.396
3029571.758;9.537;13.411;10.133;1.788;-0.633;-3.688;-0.969;0.894
3029571.766;15.609;21.309;16.242;18.887;7.153;-2.049;-0.894;2.645
3029571.774;23.283;30.920;21.867;36.135;12.256;1.565;0.894;2.533
3029571.801;18.850;23.134;21.830;24.699;9.388;8.009;5.439;6.445
3029571.809;16.689;21.011;21.458;23.097;7.413;9.723;7.041;4.806
3029571.817;24.997;30.026;29.542;21.160;15.758;14.082;13.784;5.141
3029571.825;31.739;35.167;37.327;31.479;23.730;14.678;14.976;4.247
3029571.833;33.230;36.806;37.029;35.428;19.558;14.827;14.119;5.104
3029571.841;24.438;25.257;28.126;27.977;13.039;12.666;9.947;4.768
3029571.849;17.025;18.701;19.968;14.603;8.121;13.523;9.686;4.992
3029571.857;15.683;20.377;22.650;12.591;6.407;14.678;10.058;6.035
3029571.865;16.019;20.303;22.762;24.289;3.017;18.515;11.064;10.580
3029571.873;15.870;21.271;24.252;18.030;6.706;17.621;9.090;10.245
3029571.881;17.434;21.122;23.544;24.661;13.039;15.274;10.058;6.929
3029571.889;14.342;19.744;18.552;18.775;8.419;14.789;10.841;5.886
3029571.897;10.021;18.626;18.962;17.025;-0.224;14.752;10.543;6.296
3029571.905;6.407;13.970;18.738;21.905;3.129;15.609;10.952;6.780
3029571.913;7.525;14.789;18.775;22.650;7.860;16.727;10.878;8.866
3029571.921;9.947;16.801;17.211;6.892;3.017;14.193;9.052;8.680
3029571.929;15.460;22.613;22.948;16.466;7.041;14.789;9.686;8.680
3029571.937;21.979;25.779;30.212;26.599;14.640;13.374;8.792;8.941
3029571.945;28.647;32.000;37.700;26.301;25.779;10.766;6.817;8.829
3029571.953;29.430;35.129;40.680;27.232;25.779;14.678;8.084;10.990
3029571.961;27.530;32.559;35.949;26.561;14.789;19.260;9.947;14.231
3029571.969;27.567;33.155;37.104;28.796;21.011;20.862;10.654;14.380
3029571.977;26.040;30.063;34.347;28.536;21.942;21.197;9.649;15.497
3029571.985;23.022;29.020;30.585;17.583;14.342;22.314;11.139;18.850
3029571.980;18.068;26.748;24.959;24.252;10.058;20.452;11.884;17.509
3029571.988;15.497;20.266;26.189;14.901;15.572;16.727;11.772;13.560
3029571.996;14.529;17.919;24.177;10.803;12.331;13.709;12.480;9.015
3029572.004;19.670;22.128;27.046;18.366;14.305;12.666;13.001;5.551
3029572.012;33.341;36.396;42.729;32.410;29.132;13.858;16.280;5.513
3029572.020;37.327;37.663;46.045;38.072;31.292;15.609;18.403;7.190
3029572.028;42.170;42.953;47.982;33.863;32.447;15.274;14.752;11.288
3029572.036;41.947;46.231;47.237;32.708;37.998;13.486;9.201;11.846
3029572.044;39.414;40.121;47.348;34.273;34.049;11.362;4.806;10.543
3029572.052;34.347;35.614;43.884;27.642;24.177;7.860;0.037;8.047
3029572.060;29.393;31.143;35.837;24.661;18.515;7.972;0.745;9.015
3029572.068;22.352;24.177;29.057;16.131;15.050;10.058;3.837;12.107
3029572.076;16.131;17.285;21.942;3.539;9.127;11.884;6.407;11.548
3029572.084;17.583;21.979;21.756;13.709;9.835;14.752;11.213;11.995
3029572.092;19.483;28.424;27.642;21.234;13.225;15.832;13.709;11.995
3029572.100;20.303;26.338;29.951;25.257;17.434;17.881;15.050;13.746
3029572.108;20.750;24.885;30.696;22.575;14.901;15.572;13.225;15.311
3029572.116;24.810;26.785;35.055;14.305;18.217;13.895;12.405;14.119
3029572.124;21.681;26.338;30.659;10.394;15.199;7.749;6.519;7.041
3029572.132;19.595;26.003;26.673;23.022;15.870;4.955;2.645;4.657
3029572.140;16.429;17.658;23.432;14.789;13.150;1.825;-1.006;2.906
3029572.148;20.936;17.472;27.157;8.307;12.517;3.651;1.341;5.029
3029572.156;20.079;23.060;25.816;17.993;11.325;5.737;3.502;5.141
3029572.164;16.466;20.117;22.538;20.117;11.511;6.147;4.470;5.439
3029572.161;20.117;24.065;23.283;16.578;14.044;13.001;12.256;12.927
3029572.169;23.805;28.126;26.375;24.512;12.964;15.758;14.380;14.007
3029572.177;24.028;25.146;25.146;21.979;12.182;13.001;11.995;11.399
3029572.185;22.352;27.940;26.487;23.022;11.437;11.325;11.101;10.096
3029572.193;25.630;29.653;31.069;23.432;19.409;6.407;8.307;7.451
3029572.201;30.696;34.869;36.620;22.762;28.275;3.129;8.047;5.811
3029572.209;33.490;38.333;38.259;32.261;29.318;2.384;7.860;5.178
3029572.217;33.379;33.677;39.339;30.771;34.012;7.376;11.809;10.505
3029572.225;22.613;27.455;26.412;23.246;17.807;8.382;9.872;10.394
3029572.233;15.460;20.005;21.011;16.764;13.970;12.890;10.543;12.554
3029572.241;16.093;19.521;22.613;12.852;17.546;19.670;16.280;16.205
3029572.249;8.866;8.829;14.380;5.551;9.499;18.813;16.913;11.250
3029572.257;13.746;12.815;18.030;8.680;11.399;19.632;21.607;12.070
3029572.265;19.819;21.420;15.236;20.750;15.870;18.440;23.767;12.070
3029572.273;21.867;24.810;1.155;27.046;16.876;12.778;20.489;9.947
3029572.281;26.077;31.181;1.825;29.393;14.976;19.297;27.344;16.466
3029572.289;28.498;31.851;8.531;31.032;21.793;17.472;23.618;15.087
3029572.297;32.112;32.894;14.119;32.596;28.051;16.727;19.148;16.801
3029572.305;33.639;35.949;15.013;22.389;32.745;15.423;14.789;14.566
3029572.313;31.032;33.788;12.144;27.791;29.616;14.827;12.591;12.629
3029572.321;30.398;33.341;12.107;31.926;29.132;16.727;14.491;13.672
3029572.329;24.997;28.275;5.998;24.028;25.816;11.772;11.697;6.668
3029572.337;20.526;21.905;2.272;21.420;18.254;8.009;9.425;2.384
3029572.345;17.285;17.323;-0.075;10.356;14.193;8.419;8.680;0.522
3029572.354;17.695;19.670;-1.565;9.686;12.591;13.225;14.268;4.880
3029572.362;19.632;23.171;-2.831;27.083;9.872;15.497;19.222;8.382
3029572.370;16.764;22.054;-4.433;19.185;7.972;15.497;19.521;10.841
3029572.378;13.784;19.930;-8.754;7.935;14.491;16.280;19.260;15.795
3029572.386;3.986;8.829;-15.385;7.600;8.009;11.697;10.543;13.523
3029572.394;1.304;4.843;-15.870;2.459;2.645;8.084;4.359;10.692
3029572.402;7.749;10.729;-11.027;4.396;10.394;9.350;4.917;10.468
3029572.410;8.605;13.262;-9.313;17.174;14.305;2.906;-0.186;1.751
3029572.418;15.162;17.695;-5.104;9.015;15.199;-1.118;-0.112;-3.651
3029572.426;20.154;21.271;-1.602;18.440;16.615;-0.112;1.937;-5.551
3029572.434;21.271;21.607;-0.894;22.948;15.125;-1.006;0.745;-5.327
3029572.442;17.397;18.142;-1.527;6.109;16.019;2.421;2.347;-1.714
3029572.450;13.448;15.162;-5.700;14.044;14.938;8.643;8.084;2.682
3029572.458;13.039;15.087;-7.637;17.434;12.778;11.548;11.846;7.190
3029572.466;4.284;8.866;-17.136;2.421;2.608;15.013;13.709;10.058
3029572.474;-1.304;2.235;-21.122;-5.253;0.149;11.399;7.749;8.754
3029572.482;0.186;0.112;-17.919;-12.219;6.258;9.798;4.098;8.680
3029572.490;0.075;-5.253;-15.162;-8.531;6.482;6.706;-3.092;4.768
3029572.498;3.763;-1.602;-12.144;-10.282;6.370;7.451;-5.029;6.296
3029572.506;-1.639;-2.794;-15.721;-9.760;6.445;4.470;-10.207;1.900
3029572.514;-8.568;-10.468;-21.160;-13.337;5.849;1.155;-13.337;-1.602
3029572.522;1.118;0.186;-14.119;-6.296;8.047;5.104;-6.594;1.825
3029572.530;10.170;11.772;-8.345;4.731;13.784;2.645;-5.215;-2.198
3029572.538;12.256;14.380;-4.321;10.990;14.044;4.619;0.894;-3.316
3029572.550;10.915;12.107;-5.923;17.136;10.133;9.909;10.431;-2.123
3029572.558;9.425;12.778;-9.388;8.382;5.960;13.039;15.944;-1.118
3029572.566;5.327;13.448;-14.156;6.743;4.657;14.156;16.093;-2.384
3029572.574;0.298;9.760;-18.924;11.437;-4.061;15.087;13.895;-2.235
3029572.582;-3.539;1.267;-20.154;6.780;1.490;13.709;8.233;1.788
3029572.590;-5.439;-2.496;-18.291;-0.522;6.892;13.858;5.253;4.135
3029572.598;-3.502;0.447;-13.225;-13.001;6.072;17.211;5.849;9.947
3029572.606;-3.576;-3.949;-11.697;-16.578;11.548;16.540;4.172;12.256
3029572.614;-9.239;-9.388;-19.968;-22.165;5.625;10.803;-0.633;7.823
3029572.622;-3.353;-5.029;-15.385;-14.342;6.780;8.605;-2.719;7.153
3029572.630;0.447;0.857;-10.356;-9.984;8.717;6.519;-3.278;3.725
3029572.638;4.992;4.135;-9.649;-1.006;8.941;6.594;1.043;1.416
3029572.646;9.723;11.995;-5.290;6.743;8.754;10.468;8.978;0.857
3029572.654;11.362;16.019;-2.645;10.617;13.411;12.629;12.368;-0.820
3029572.662;14.752;20.973;0.373;15.870;14.193;15.795;15.385;2.496
3029572.670;10.580;17.099;-6.072;16.727;4.359;21.718;18.887;7.749
3029572.678;2.645;4.172;-14.342;5.774;0.633;19.893;14.454;10.841
3029572.686;-8.941;-11.288;-20.415;-17.174;1.304;11.586;3.129;10.133
3029572.694;-16.689;-20.117;-22.016;-29.504;1.565;3.651;-5.476;7.004
3029572.702;-7.935;-9.276;-14.007;-16.503;7.786;3.874;-4.135;8.233
3029572.710;-6.594;-9.909;-14.603;-14.678;8.047;0.410;-7.600;2.868
3029572.718;-0.484;-3.949;-9.909;0.186;5.662;-6.445;-11.139;-4.023
3029572.726;10.505;6.072;1.565;5.588;16.876;-8.494;-8.382;-6.929
3029572.734;10.803;7.525;0.894;-2.272;19.111;-9.984;-8.605;-11.064
3029572.744;16.727;13.113;6.519;5.700;22.613;-3.465;-0.894;-5.811
3029572.752;24.773;20.787;16.093;22.613;25.146;5.066;8.754;-2.533
3029572.760;27.567;29.355;14.938;26.859;21.830;10.990;14.268;-0.261
3029572.768;26.450;25.928;14.491;16.540;24.140;14.193;15.087;1.043
3029572.776;21.383;19.632;10.356;14.044;24.959;12.890;11.772;-0.745
3029572.784;11.697;11.399;-0.447;6.147;8.978;13.113;9.052;4.582
3029572.792;7.823;9.201;-2.794;4.210;4.321;7.600;2.682;4.098
3029572.800;-2.570;-1.490;-13.001;-9.090;-0.559;0.410;-4.470;-0.075
3029572.808;-18.552;-19.148;-32.410;-22.762;-18.701;-3.837;-5.811;-2.384
3029572.816;-31.553;-34.347;-46.492;-31.590;-33.081;-10.096;-8.568;-8.903
3029572.824;-40.308;-46.119;-55.730;-41.090;-41.090;-12.927;-8.829;-12.778
3029572.832;-46.343;-51.074;-63.032;-45.784;-48.503;-12.144;-6.482;-15.609
3029572.840;-51.968;-56.624;-68.992;-53.681;-53.868;-8.494;-2.645;-14.640
3029572.848;-51.409;-58.413;-67.092;-50.031;-43.511;-5.439;-1.937;-11.548
3029572.856;-45.858;-51.446;-60.983;-48.056;-38.520;3.353;6.519;-2.608
3029572.864;-43.437;-48.801;-55.395;-47.870;-38.370;4.694;7.004;0.596
3029572.872;-54.687;-60.648;-64.336;-54.836;-47.162;-0.261;-0.633;-1.937
3029572.880;-61.318;-70.445;-70.147;-59.567;-49.546;-1.118;-5.588;-0.335
3029572.888;-65.602;-72.196;-77.374;-68.508;-55.693;0.931;-6.258;3.204
3029572.896;-67.055;-72.159;-80.578;-77.374;-54.352;-0.298;-8.009;2.272
3029572.904;-62.026;-67.167;-74.729;-64.299;-51.968;-2.794;-9.201;-0.559
3029572.912;-64.597;-69.253;-76.815;-60.685;-53.644;-8.307;-11.660;-8.009
3029572.920;-62.920;-66.757;-75.139;-57.369;-54.799;-9.462;-9.276;-9.984
3029572.928;-59.493;-62.697;-74.282;-54.836;-54.687;-1.229;1.788;-2.123
3029572.941;-62.212;-64.112;-77.784;-62.697;-55.581;-0.894;3.539;-3.278
3029572.949;-60.014;-60.983;-75.661;-55.172;-47.833;1.341;6.966;-1.229
3029572.957;-62.920;-64.149;-78.045;-56.215;-53.495;-0.075;3.576;-2.384
3029572.965;-61.728;-62.957;-75.027;-53.309;-56.215;1.341;2.794;-0.522
3029572.973;-63.665;-66.534;-76.815;-55.134;-53.868;0.037;-1.118;0.596
3029572.981;-73.612;-75.512;-86.799;-67.949;-63.479;-6.929;-10.058;-3.204
3029572.989;-78.417;-78.194;-90.487;-73.574;-64.410;-10.058;-13.523;-5.141
3029572.997;-82.701;-79.460;-92.499;-79.870;-67.577;-9.611;-11.399;-7.302
3029573.005;-62.995;-59.120;-72.494;-50.589;-55.507;-10.841;-10.282;-10.245
3029573.013;-47.311;-44.741;-61.579;-26.599;-46.119;-4.657;-2.086;-6.445
3029573.021;-39.041;-37.998;-54.650;-22.948;-38.035;2.384;5.849;-2.421
3029573.029;-35.465;-37.588;-50.366;-25.854;-37.439;3.651;7.562;-0.931
3029573.037;-38.892;-40.382;-54.762;-29.244;-42.096;3.576;6.333;-0.857
3029573.045;-44.331;-41.649;-60.461;-34.608;-44.182;1.602;4.098;-2.347
3029573.053;-47.609;-50.291;-60.461;-30.026;-44.778;-0.894;1.006;-3.353
3029573.061;-50.142;-55.470;-61.877;-37.588;-44.107;-4.768;-4.135;-6.780
3029573.069;-49.584;-53.197;-63.963;-49.025;-47.050;-6.631;-5.886;-8.866
3029573.077;-51.633;-52.005;-65.938;-47.721;-45.896;-12.144;-10.952;-15.721
3029573.085;-51.558;-51.856;-66.385;-40.494;-45.411;-15.013;-15.050;-18.887
3029573.093;-49.509;-51.931;-62.250;-40.010;-45.486;-10.431;-12.442;-13.411
3029573.101;-51.297;-54.017;-64.410;-42.543;-52.638;-7.898;-9.686;-11.250
3029573.109;-52.117;-55.060;-68.955;-43.549;-56.289;-9.313;-10.021;-11.176
3029573.117;-53.234;-54.277;-71.414;-40.047;-59.716;-12.442;-11.511;-13.635
3029573.125;-48.168;-48.466;-64.410;-34.794;-47.758;-11.921;-9.462;-12.890
3029573.119;-41.500;-41.984;-60.052;-29.765;-42.096;-9.723;-5.253;-13.635
3029573.127;-41.239;-42.580;-60.350;-32.522;-37.327;-10.356;-4.098;-20.042
3029573.135;-39.600;-45.672;-57.071;-37.216;-36.024;-8.233;-1.378;-20.191
3029573.143;-42.282;-49.286;-56.773;-36.210;-38.035;-10.245;-2.645;-22.240
3029573.151;-41.313;-47.758;-55.730;-39.227;-35.316;-11.176;-5.402;-22.016
3029573.159;-40.643;-46.827;-56.960;-36.210;-32.671;-9.090;-5.849;-17.546
3029573.167;-50.031;-57.928;-65.118;-45.970;-38.706;-17.472;-15.497;-24.326
3029573.175;-47.460;-56.848;-64.299;-45.300;-42.915;-25.518;-23.842;-28.647
3029573.183;-42.245;-50.589;-56.997;-37.141;-36.359;-30.883;-28.238;-30.696
3029573.191;-40.159;-45.523;-56.624;-32.894;-37.849;-34.347;-29.691;-33.416
3029573.199;-36.955;-41.313;-54.464;-32.224;-36.769;-35.278;-28.014;-34.831
3029573.207;-38.296;-43.996;-52.005;-33.565;-33.639;-33.975;-26.375;-36.210
3029573.215;-37.588;-46.119;-51.148;-32.820;-28.536;-28.573;-21.346;-34.869
3029573.223;-38.072;-45.076;-53.607;-33.975;-31.888;-23.022;-13.337;-31.479
3029573.231;-39.376;-46.045;-55.097;-36.210;-32.857;-24.661;-15.497;-30.212
3029573.239;-44.070;-51.744;-57.891;-47.833;-40.680;-26.524;-21.830;-29.653
3029573.247;-45.151;-53.607;-58.971;-47.795;-44.219;-26.897;-22.985;-29.691
3029573.255;-43.735;-51.297;-55.879;-42.170;-36.284;-25.667;-21.271;-28.126
3029573.263;-42.357;-49.546;-53.868;-45.635;-34.459;-26.673;-22.762;-29.467
3029573.271;-38.333;-47.646;-50.180;-45.113;-30.100;-30.100;-27.157;-31.963
3029573.279;-33.639;-42.729;-48.354;-33.490;-31.888;-34.310;-30.249;-33.863
3029573.287;-30.398;-40.382;-46.305;-30.063;-33.118;-36.173;-28.871;-35.167
3029573.295;-20.862;-28.871;-32.745;-28.871;-20.228;-32.112;-22.165;-32.634
3029573.303;-23.842;-31.069;-33.043;-24.736;-20.936;-33.677;-22.203;-37.365
3029573.314;-27.418;-34.720;-37.253;-34.235;-22.054;-32.634;-21.793;-38.035
3029573.322;-28.722;-36.433;-38.520;-27.306;-24.140;-34.310;-23.656;-38.482
3029573.330;-30.808;-39.414;-37.588;-29.244;-23.954;-33.341;-22.948;-36.098
3029573.338;-28.946;-41.500;-35.018;-41.947;-22.799;-30.138;-21.234;-31.218
3029573.346;-27.120;-36.955;-32.783;-45.449;-19.036;-28.312;-20.415;-28.647
3029573.354;-25.071;-34.943;-30.808;-39.898;-18.850;-29.318;-20.526;-26.114
3029573.362;-19.148;-30.994;-23.432;-26.934;-13.821;-31.479;-18.179;-21.309
3029573.370;-15.385;-24.661;-18.515;-18.440;-10.505;-36.322;-18.589;-22.277
3029573.378;-5.886;-14.603;-12.517;-3.763;-8.941;-37.327;-16.876;-21.644
3029573.386;2.012;-7.376;-4.359;-8.829;-2.496;-43.698;-19.819;-28.312
3029573.394;5.290;0.261;0.820;-2.645;7.115;-48.354;-22.687;-34.571
3029573.402;11.437;5.811;7.898;2.272;15.013;-43.735;-17.583;-32.522
3029573.410;11.697;2.384;11.586;4.694;17.919;-40.531;-16.093;-30.622
3029573.418;10.654;-1.900;11.176;1.565;14.231;-40.419;-17.919;-28.051
3029573.426;6.221;-5.029;7.190;-4.694;9.164;-38.594;-16.838;-23.693
3029573.434;5.104;-5.513;9.872;-13.709;10.580;-33.006;-12.517;-16.727
3029573.442;10.431;0.037;12.405;-6.892;9.201;-27.679;-6.855;-10.058
3029573.450;13.672;5.923;13.188;3.465;11.548;-37.104;-14.938;-17.770
3029573.458;8.531;-1.900;9.164;-4.098;13.821;-49.137;-26.636;-26.599
3029573.466;2.645;-9.164;3.576;-10.021;7.749;-53.421;-31.143;-31.628
3029573.474;1.751;-8.456;-3.465;-5.402;3.241;-57.444;-33.900;-37.439
3029573.482;-1.080;-12.852;-7.451;-9.015;1.378;-55.768;-29.951;-36.545
3029573.490;-9.276;-23.395;-13.262;-18.403;-4.880;-46.641;-17.844;-32.745
3029573.498;-10.990;-26.710;-12.815;-28.946;-3.651;-40.345;-10.021;-28.647
3029573.509;-16.950;-33.453;-17.956;-28.126;-4.247;-37.178;-9.611;-25.369
3029573.517;-21.942;-43.176;-23.320;-39.749;-10.617;-22.575;-1.341;-9.462
3029573.525;-33.937;-59.940;-30.287;-63.740;-21.756;-27.381;-6.482;-15.050
3029573.533;-42.841;-63.814;-39.972;-66.869;-30.510;-42.357;-25.332;-27.716
3029573.541;-33.639;-53.383;-31.404;-50.329;-23.767;-46.194;-31.032;-28.796
3029573.549;-26.859;-50.478;-24.475;-42.170;-14.752;-37.886;-22.128;-23.320
3029573.557;-22.873;-48.839;-21.495;-44.554;-9.760;-25.854;-11.101;-13.262
3029573.565;-16.093;-36.657;-19.819;-30.808;-11.064;-34.496;-21.197;-22.165
3029573.573;-18.254;-34.571;-23.730;-28.498;-9.090;-20.862;-7.637;-16.317
3029573.581;-15.907;-35.055;-22.948;-34.869;-5.551;2.533;15.795;1.155
3029573.589;-21.160;-41.127;-28.573;-42.804;-13.225;13.746;16.540;0.149
3029573.597;-33.192;-58.673;-34.794;-54.948;-18.813;2.012;-5.215;-17.732
3029573.605;-33.379;-56.364;-35.539;-52.750;-18.179;4.582;-9.686;-10.841
3029573.613;-52.117;-75.176;-56.326;-67.726;-37.104;-5.886;-16.093;-20.564
3029573.621;-63.628;-88.960;-70.482;-90.152;-51.819;-26.338;-29.132;-34.086
3029573.629;-70.594;-97.379;-78.753;-94.697;-57.034;-44.480;-36.508;-42.133
3029573.637;-75.474;-105.053;-85.719;-104.047;-62.734;-54.203;-34.682;-50.366
3029573.645;-75.102;-105.277;-86.986;-107.810;-65.006;-44.182;-22.613;-43.996
3029573.653;-79.535;-104.122;-93.542;-103.563;-71.675;-49.062;-26.487;-49.993
3029573.661;-92.760;-120.848;-108.331;-110.604;-87.582;-76.517;-56.662;-71.190
3029573.669;-108.220;-136.048;-126.362;-129.417;-103.675;-85.570;-67.838;-84.005
3029573.677;-124.462;-150.390;-142.977;-144.690;-120.774;-101.551;-82.739;-105.053
3029573.685;-141.598;-170.730;-162.087;-152.439;-137.873;-110.157;-90.823;-118.241
3029573.693;-150.949;-176.467;-176.057;-162.944;-152.253;-107.773;-87.880;-122.041
3029573.718;-165.775;-194.274;-187.755;-180.081;-162.013;-118.911;-101.477;-136.867
3029573.726;-183.284;-213.198;-207.648;-204.444;-179.708;-143.722;-130.311;-166.260
3029573.734;-201.873;-229.441;-229.776;-216.961;-198.707;-153.221;-143.908;-180.900
3029573.742;-210.628;-233.985;-239.462;-213.124;-207.610;-167.415;-165.030;-198.297
3029573.750;-203.289;-225.827;-233.017;-204.742;-195.652;-174.530;-174.753;-214.055
3029573.758;-203.513;-225.976;-238.046;-207.387;-198.148;-185.333;-191.070;-228.174
3029573.766;-193.678;-216.551;-228.360;-200.234;-190.586;-190.400;-203.289;-239.238
3029573.774;-195.988;-220.574;-232.831;-215.210;-198.036;-193.417;-212.155;-251.308
3029573.782;-203.662;-226.460;-247.471;-214.279;-209.510;-192.486;-214.726;-259.131
3029573.790;-207.089;-223.853;-253.879;-212.230;-212.714;-197.887;-221.692;-272.281
3029573.798;-211.969;-230.037;-260.584;-215.434;-210.404;-203.550;-233.613;-280.812
3029573.806;-225.082;-242.889;-278.056;-231.527;-220.872;-207.834;-239.722;-294.633
3029573.814;-245.757;-260.323;-304.431;-247.248;-245.012;-217.780;-255.853;-312.030
3029573.822;-266.135;-283.569;-327.416;-256.374;-265.315;-228.882;-279.732;-327.677
3029573.830;-296.198;-315.532;-361.763;-286.698;-294.596;-257.716;-317.357;-362.135
3029573.838;-315.234;-332.892;-384.971;-321.940;-319.146;-271.313;-336.990;-377.223
3029573.846;-335.053;-353.903;-408.962;-343.323;-329.539;-277.050;-351.369;-386.946
3029573.854;-357.963;-375.472;-437.088;-346.154;-353.232;-294.261;-372.268;-408.329
3029573.862;-372.902;-395.067;-451.840;-365.525;-367.835;-305.139;-387.654;-424.646
3029573.870;-381.097;-402.145;-464.171;-380.836;-375.584;-306.182;-391.863;-434.108
3029573.878;-381.619;-399.053;-471.920;-371.709;-382.215;-309.758;-396.669;-442.900
3029573.886;-394.732;-412.017;-489.876;-377.931;-396.185;-313.409;-403.635;-451.878
3029573.894;-409.856;-429.898;-507.608;-397.749;-413.954;-331.141;-424.236;-474.937
3029573.902;-426.136;-443.421;-528.134;-415.072;-431.687;-340.417;-438.616;-489.540
3029573.900;-441.708;-454.187;-546.463;-418.574;-443.012;-343.323;-446.551;-496.879
3029573.908;-443.086;-458.881;-549.518;-420.176;-441.261;-333.488;-441.521;-488.870
3029573.916;-444.800;-460.222;-556.260;-422.858;-446.029;-336.245;-445.917;-495.538
3029573.924;-458.620;-478.476;-574.626;-441.968;-465.401;-346.489;-456.460;-508.055
3029573.932;-476.092;-500.642;-595.488;-459.626;-486.672;-365.116;-472.181;-529.140
3029573.940;-485.778;-507.087;-605.658;-463.761;-487.901;-374.094;-477.955;-542.700
3029573.948;-487.007;-504.889;-612.773;-464.916;-490.434;-373.833;-479.035;-542.030
3029573.956;-485.629;-497.736;-616.200;-461.787;-497.513;-371.523;-476.874;-542.812
3029573.964;-487.976;-503.100;-619.739;-456.758;-497.550;-374.541;-478.998;-548.139
3029573.972;-492.372;-513.718;-626.668;-467.561;-501.387;-371.188;-478.625;-545.196
3029573.980;-500.008;-516.847;-635.833;-470.094;-511.296;-384.264;-493.452;-558.943
3029573.988;-503.212;-514.053;-641.085;-478.402;-511.184;-395.179;-503.697;-572.577
3029573.996;-510.029;-522.472;-649.840;-473.745;-518.188;-394.918;-505.298;-577.047
3029574.004;-514.388;-533.648;-656.396;-475.459;-522.137;-390.112;-501.908;-577.196
3029574.012;-513.941;-534.058;-654.720;-488.944;-519.864;-386.089;-499.226;-574.738
3029574.020;-509.173;-525.601;-648.983;-484.288;-515.394;-385.903;-499.673;-579.059
3029574.028;-499.785;-518.672;-638.589;-468.828;-507.087;-384.040;-499.487;-576.079
3029574.036;-496.022;-518.076;-637.136;-466.630;-509.396;-383.444;-498.556;-575.930
3029574.044;-491.627;-517.368;-636.056;-467.040;-506.714;-374.876;-488.982;-567.921
3029574.052;-481.270;-509.582;-627.488;-461.601;-500.083;-368.133;-480.078;-556.335
3029574.060;-469.647;-495.948;-615.306;-449.568;-485.107;-356.957;-465.624;-543.483
3029574.068;-465.103;-494.607;-609.644;-442.006;-486.076;-357.591;-464.916;-538.602
3029574.076;-457.391;-487.268;-602.305;-433.475;-481.419;-351.220;-459.887;-528.321
3029574.084;-449.643;-480.749;-596.717;-425.540;-476.427;-341.535;-449.941;-515.431
3029574.094;-439.025;-473.373;-586.510;-422.001;-464.469;-335.276;-443.533;-502.951
3029574.102;-432.171;-470.132;-577.047;-418.797;-454.932;-330.880;-436.902;-495.315
3029574.110;-426.434;-468.157;-571.124;-418.536;-455.230;-326.410;-430.718;-485.852
3029574.118;-417.940;-460.856;-561.364;-408.404;-447.445;-322.610;-425.577;-476.986
3029574.126;-412.501;-458.099;-553.280;-402.816;-437.088;-323.914;-424.944;-475.012
3029574.134;-405.610;-453.629;-545.308;-399.724;-433.661;-318.810;-418.238;-465.475
3029574.142;-401.027;-450.388;-542.365;-396.296;-434.816;-311.658;-406.690;-457.354
3029574.150;-388.138;-440.776;-527.985;-386.983;-422.150;-303.462;-397.004;-443.235
3029574.158;-380.836;-437.349;-518.821;-385.493;-405.535;-298.433;-390.932;-436.157
3029574.166;-370.555;-428.706;-510.551;-376.403;-398.532;-293.851;-384.487;-428.408
3029574.174;-356.324;-414.774;-496.469;-355.802;-384.897;-280.403;-370.182;-410.415
3029574.182;-347.830;-403.598;-489.019;-350.662;-383.817;-274.666;-363.626;-401.922
3029574.190;-340.156;-399.053;-483.431;-343.509;-379.011;-271.536;-360.608;-393.577
3029574.198;-342.280;-404.045;-482.462;-349.246;-376.031;-266.060;-352.338;-386.313
3029574.206;-337.809;-401.288;-475.869;-346.005;-368.692;-261.068;-342.317;-379.272
3029574.214;-326.037;-394.285;-463.538;-336.468;-358.112;-250.526;-329.725;-365.749
3029574.222;-325.255;-392.050;-464.655;-336.058;-360.683;-246.465;-323.839;-360.981
3029574.230;-315.122;-384.562;-454.299;-330.396;-355.877;-243.783;-317.171;-355.281
3029574.238;-305.027;-375.882;-443.272;-319.444;-343.472;-242.181;-313.446;-351.742
3029574.246;-295.304;-361.502;-434.704;-303.835;-335.053;-237.711;-307.150;-342.242
3029574.254;-291.020;-362.024;-430.346;-298.433;-332.296;-237.525;-304.058;-331.886
3029574.262;-292.435;-366.718;-429.302;-305.176;-334.419;-238.232;-302.084;-330.470
3029574.270;-287.816;-364.743;-425.875;-312.701;-333.190;-233.203;-294.112;-321.120
3029574.278;-283.830;-361.875;-422.820;-305.176;-332.147;-224.970;-284.612;-311.397
3029574.275;-280.440;-355.244;-417.493;-295.565;-325.665;-218.712;-281.632;-301.376
3029574.283;-273.399;-349.879;-409.745;-286.140;-317.469;-206.791;-270.791;-284.351
3029574.291;-272.393;-349.060;-405.014;-292.584;-313.111;-204.220;-267.215;-280.850
3029574.299;-264.533;-345.148;-398.196;-285.171;-312.366;-198.670;-262.856;-270.978
3029574.307;-253.357;-334.904;-383.370;-280.477;-300.147;-188.947;-252.984;-259.541
3029574.315;-243.187;-321.716;-376.739;-261.031;-289.083;-183.545;-246.055;-250.898
3029574.323;-237.189;-317.208;-379.197;-261.925;-282.116;-176.020;-238.381;-238.866
3029574.331;-233.278;-314.340;-375.696;-252.947;-280.216;-171.810;-234.284;-233.948
3029574.339;-221.245;-305.288;-360.459;-244.863;-269.003;-164.025;-227.392;-217.147
3029574.347;-209.361;-292.324;-346.825;-231.452;-251.718;-152.029;-215.620;-200.905
3029574.355;-196.993;-278.056;-334.196;-222.400;-243.969;-138.581;-203.960;-185.706
3029574.363;-185.370;-267.141;-317.656;-208.877;-232.942;-132.136;-198.483;-172.891
3029574.371;-185.184;-268.854;-313.930;-212.677;-232.458;-132.322;-198.111;-174.418
3029574.379;-177.026;-263.005;-303.797;-210.926;-227.019;-124.425;-189.431;-164.509
3029574.387;-167.675;-249.185;-293.106;-192.635;-221.469;-112.392;-177.920;-152.178
3029574.395;-148.006;-230.297;-272.729;-168.383;-204.146;-110.231;-174.642;-146.329
3029574.403;-129.007;-215.210;-249.259;-158.399;-185.147;-106.320;-169.314;-135.563
3029574.411;-106.767;-188.611;-223.778;-146.925;-169.128;-97.379;-161.789;-127.740
3029574.419;-82.441;-163.354;-196.099;-117.347;-145.510;-75.996;-141.077;-101.924
3029574.427;-67.838;-149.384;-172.742;-100.657;-124.350;-65.938;-129.789;-88.513
3029574.435;-65.118;-147.372;-164.695;-106.730;-120.886;-63.851;-127.293;-82.329
3029574.443;-56.103;-139.549;-151.284;-92.499;-115.633;-56.997;-119.507;-68.136
3029574.451;-53.346;-134.967;-142.008;-88.252;-108.033;-51.111;-110.939;-62.324
3029574.459;-49.919;-126.213;-134.557;-80.205;-105.388;-44.145;-98.981;-53.346
3029574.469;-43.735;-116.415;-123.829;-70.743;-99.540;-36.620;-88.587;-45.672
3029574.477;-43.362;-118.464;-119.731;-65.938;-99.801;-34.459;-85.272;-44.405
3029574.485;-40.792;-118.166;-109.561;-69.179;-92.983;-25.034;-80.131;-39.563
3029574.493;-38.892;-114.813;-101.104;-75.884;-92.499;-21.197;-76.741;-37.402
3029574.501;-30.026;-106.134;-87.284;-68.508;-82.478;-15.683;-70.073;-24.438
3029574.509;-29.132;-104.643;-81.547;-57.928;-78.082;-9.984;-65.640;-18.068
3029574.517;-26.934;-100.359;-78.008;-61.505;-77.821;-3.204;-60.797;-14.454
3029574.525;-19.819;-96.597;-70.781;-55.209;-74.282;9.649;-49.695;-3.241
3029574.533;-14.976;-88.327;-64.149;-46.082;-68.881;19.930;-38.631;3.949
3029574.541;-6.370;-76.517;-48.019;-36.582;-60.201;30.063;-27.940;15.907
3029574.549;-1.714;-71.004;-37.625;-28.163;-51.521;33.267;-20.973;20.228
3029574.557;2.123;-65.975;-31.218;-31.926;-43.921;32.410;-13.150;23.395
3029574.565;4.694;-65.379;-27.232;-29.989;-39.823;29.840;-10.915;23.879
3029574.573;5.700;-62.510;-24.363;-18.738;-39.339;28.647;-13.225;22.575
3029574.581;9.239;-56.885;-18.552;-14.678;-42.394;34.496;-8.382;33.677
3029574.589;6.519;-56.885;-14.156;-13.337;-37.476;35.428;-5.178;37.327
3029574.597;9.127;-55.842;-6.780;-19.707;-29.244;36.806;-2.347;39.153
3029574.605;19.297;-47.386;0.410;-14.789;-24.252;43.288;5.886;47.348
3029574.613;24.289;-38.408;3.763;0.708;-18.887;45.449;13.188;47.274
3029574.621;26.301;-34.347;2.198;8.680;-22.277;47.795;18.030;53.942
3029574.629;21.756;-37.104;1.825;4.210;-21.495;45.002;15.758;50.999
3029574.637;17.546;-42.394;1.639;-4.433;-18.291;41.723;13.895;48.093
3029574.645;17.472;-42.506;-1.974;-3.129;-16.242;45.858;18.775;52.638
3029574.653;15.087;-41.574;-14.752;-3.055;-20.154;44.368;21.122;48.168
3029574.679;19.334;-36.247;-13.076;-7.041;-23.954;50.403;23.916;53.383
3029574.687;24.177;-30.361;-4.992;4.470;-18.924;58.524;27.306;56.066
3029574.695;29.057;-19.111;2.906;9.798;-4.917;63.106;29.393;56.326
3029574.703;34.161;-11.958;10.654;22.948;-2.421;66.757;31.739;54.799
3029574.711;32.671;-16.093;10.468;21.681;-6.966;67.800;32.224;51.372
3029574.719;36.918;-11.362;15.907;25.220;-5.215;71.637;34.459;58.077
3029574.727;40.159;-1.155;22.016;29.057;2.384;72.867;34.198;60.126
3029574.735;44.182;3.949;29.728;35.204;13.150;71.414;32.224;60.983
3029574.743;45.337;2.272;31.665;33.341;13.821;73.798;35.428;67.092
3029574.751;45.449;3.278;32.075;30.808;17.360;75.251;40.010;70.184
3029574.759;53.570;10.915;40.866;45.747;22.464;80.541;47.944;80.913
3029574.767;52.899;9.015;44.294;37.327;20.564;76.555;44.294;78.976
3029574.775;58.338;16.727;50.664;36.955;31.702;74.208;42.580;79.572
3029574.783;61.095;18.477;54.277;37.812;39.786;74.692;43.437;81.882
3029574.791;58.040;23.060;54.017;47.311;35.837;74.282;43.958;78.492
3029574.799;66.608;31.143;61.132;66.459;41.537;78.641;51.074;86.650
3029574.807;71.116;32.596;66.645;64.671;48.243;81.696;57.071;93.021
3029574.815;69.849;31.888;70.035;53.272;54.315;81.770;58.077;94.920
3029574.823;74.469;40.680;76.406;66.347;62.250;88.811;66.087;103.824
3029574.831;68.583;40.345;70.333;61.244;52.154;85.607;64.187;100.546
3029574.839;78.715;48.801;81.807;72.010;66.981;80.429;59.903;99.689
3029574.847;70.967;43.735;74.394;70.930;66.794;80.541;61.803;98.273
3029574.855;62.622;34.012;65.006;63.181;56.811;84.564;66.981;100.806
3029574.863;61.058;29.616;63.255;58.785;51.931;80.056;61.952;100.508
3029574.860;56.252;29.169;58.897;56.028;51.111;80.019;64.112;98.459
3029574.868;60.908;32.410;61.318;55.879;55.209;83.633;71.898;104.941
3029574.876;64.783;40.568;64.671;57.928;59.195;86.911;77.896;107.884
3029574.884;66.385;46.454;68.732;67.949;64.522;88.178;78.566;107.996
3029574.892;66.236;45.449;69.514;70.296;68.061;88.178;78.790;105.090
3029574.900;65.751;47.907;69.179;77.970;71.079;91.866;84.862;102.520
3029574.908;69.179;51.782;72.233;81.845;75.251;95.069;89.034;106.841
3029574.916;66.310;53.532;67.167;73.761;66.198;92.834;85.793;105.686
3029574.924;64.559;51.409;62.548;75.102;61.654;88.699;82.552;104.532
3029574.932;67.428;49.211;65.975;78.082;69.104;88.252;84.564;108.704
3029574.940;65.155;49.546;66.683;65.081;67.949;82.664;80.802;103.898
3029574.948;74.878;58.375;76.443;71.526;72.569;88.587;89.295;115.111
3029574.956;80.653;62.063;83.558;79.311;81.807;92.983;95.591;121.258
3029574.964;81.360;64.299;82.515;83.931;81.733;91.232;93.021;121.631
3029574.972;85.719;68.098;86.240;85.458;83.558;94.287;97.305;126.399
3029574.980;92.238;75.549;94.213;88.289;92.126;100.285;105.388;130.050
3029574.988;104.010;87.023;105.500;96.262;103.973;109.188;114.478;142.269
3029574.996;101.775;87.395;105.649;96.709;97.044;105.761;109.337;141.412
3029575.004;99.465;88.699;105.426;101.030;97.677;103.973;108.108;141.710
3029575.012;104.383;90.636;111.014;104.420;106.283;107.698;113.845;148.565
3029575.020;105.985;93.579;113.845;106.320;108.518;106.134;110.753;149.757
3029575.028;109.896;94.138;116.527;102.706;106.469;109.151;111.423;157.170
3029575.036;114.664;102.632;121.482;107.996;114.925;112.876;114.702;158.362
3029575.044;120.141;108.629;127.293;112.727;118.017;112.839;116.304;158.623
3029575.041;126.287;111.237;134.818;118.949;122.711;115.559;120.252;162.832
3029575.049;127.926;115.670;140.406;122.078;126.250;112.206;117.570;159.480
3029575.057;135.079;124.723;149.086;128.821;134.893;113.435;118.911;166.781
3029575.065;132.211;122.152;146.255;132.211;132.620;111.014;117.123;165.775
3029575.073;130.571;118.576;143.647;124.238;125.691;110.194;118.278;164.658
3029575.081;136.197;121.333;150.427;121.631;127.107;117.384;125.878;172.369
3029575.089;134.185;118.427;149.980;124.574;130.571;120.215;128.709;172.965
3029575.097;140.481;123.903;157.394;118.464;134.334;123.978;133.701;180.639
3029575.105;146.143;137.463;166.111;139.587;142.120;128.672;139.140;184.514
3029575.113;146.553;142.530;164.285;149.719;140.145;131.018;140.965;185.408
3029575.121;147.894;144.206;162.311;151.470;135.303;133.030;144.802;188.686
3029575.129;139.214;135.861;156.835;143.051;127.703;123.121;136.048;178.069
3029575.137;141.300;136.197;159.740;139.624;134.036;121.035;135.936;176.542
3029575.145;139.140;132.583;159.070;140.220;136.010;126.436;142.157;177.659
3029575.153;141.524;133.142;161.901;140.741;139.736;126.846;142.865;179.298
3029575.161;153.333;148.751;172.816;151.619;143.908;126.697;143.945;182.278
3029575.169;141.710;139.736;160.448;150.315;131.950;122.078;138.618;178.963
3029575.177;151.768;141.934;168.011;152.402;134.669;125.878;143.982;191.629
3029575.185;151.172;140.555;168.160;147.969;135.824;130.348;148.080;195.801
3029575.193;147.633;138.916;166.446;152.513;135.712;134.036;151.247;195.093
3029575.201;151.992;139.475;171.177;150.874;143.871;139.661;158.809;204.332
3029575.209;151.880;146.739;173.301;153.854;144.839;135.750;155.345;199.713
3029575.217;155.829;152.029;177.696;161.342;147.410;133.924;152.364;198.632
3029575.225;162.050;160.448;184.812;171.773;154.227;141.114;161.231;201.352
3029575.253;154.115;151.806;175.424;164.174;146.106;131.503;153.333;190.772
3029575.261;151.508;151.023;170.656;164.099;143.647;127.442;149.049;189.953
3029575.269;149.198;146.925;172.108;165.403;147.298;126.883;146.441;187.419
3029575.277;156.350;152.960;176.169;163.913;153.333;134.818;153.854;194.684
3029575.285;157.692;160.113;175.759;174.232;151.098;139.028;158.250;193.454
3029575.293;158.288;159.629;176.542;160.597;146.776;150.539;169.165;201.836
3029575.301;168.383;171.661;184.141;170.209;158.176;160.523;180.490;213.273
3029575.309;167.675;178.367;180.788;184.737;156.797;155.009;175.014;206.158
3029575.317;171.885;174.530;184.029;178.516;155.270;157.356;177.734;218.339
3029575.325;167.154;167.862;178.665;166.185;152.811;153.817;175.610;218.339
3029575.333;169.687;167.564;180.602;167.936;158.958;157.580;178.665;222.065
3029575.341;177.957;170.283;186.823;169.650;171.699;168.644;188.835;226.349
3029575.349;194.199;201.017;200.868;194.125;186.265;188.723;204.965;235.997
3029575.357;191.145;196.919;198.670;196.584;178.590;189.617;201.799;239.722
3029575.365;179.932;179.037;186.563;178.106;163.130;184.067;195.876;240.542
3029575.373;161.603;165.962;167.638;156.946;147.559;172.667;181.198;225.753
3029575.381;151.657;154.972;159.033;151.806;146.888;167.713;172.518;207.983
3029575.389;151.396;160.672;158.474;165.477;148.937;163.242;163.689;189.953
3029575.397;175.349;195.242;177.138;195.317;163.689;188.015;186.749;213.534
3029575.405;159.293;182.204;164.770;187.084;150.166;172.146;170.432;194.237
3029575.413;147.037;166.968;155.754;174.232;143.945;153.780;150.688;177.138
3029575.421;156.239;172.220;167.452;167.452;153.147;154.041;153.594;180.975
3029575.429;154.749;171.848;170.618;168.085;151.433;148.863;147.298;173.859
3029575.437;166.707;184.551;179.112;176.616;155.866;150.949;150.912;182.502
3029575.430;200.681;221.916;212.342;206.009;187.047;154.302;159.219;188.760
3029575.438;213.794;230.409;225.157;216.365;188.127;154.041;163.317;189.543
3029575.446;233.166;248.179;248.328;230.297;210.479;147.112;158.586;185.445
3029575.454;248.700;272.952;267.923;254.847;232.235;144.802;156.201;180.267
3029575.462;247.061;262.596;268.482;247.397;228.733;138.506;150.315;177.957
3029575.470;262.521;266.545;284.985;244.901;241.846;144.690;157.058;185.110
3029575.478;281.408;297.390;304.393;232.831;262.633;152.662;164.881;193.603
3029575.486;310.317;339.895;328.943;269.264;282.526;166.222;177.547;207.089
3029575.494;304.542;334.531;327.677;330.210;268.221;154.451;163.019;190.847
3029575.502;301.562;314.564;333.823;324.212;276.864;156.984;162.087;195.429
3029575.510;313.371;324.734;351.034;269.935;294.894;161.119;165.664;194.758
3029575.518;332.631;384.450;374.392;319.593;313.520;158.288;164.621;183.545
3029575.526;335.574;389.405;378.154;336.505;330.247;159.927;165.813;183.694
3029575.534;324.026;363.030;367.202;320.934;317.954;156.090;162.423;178.367
3029575.542;324.361;350.326;366.718;303.723;302.829;161.007;168.160;188.835
3029575.550;318.512;343.956;365.824;297.353;308.454;169.650;175.647;197.552
3029575.558;306.480;339.635;352.338;287.257;292.361;168.160;173.077;196.621
3029575.566;284.053;311.509;330.843;264.794;257.008;158.809;163.019;190.921
3029575.574;261.776;289.530;312.254;249.557;234.917;142.194;148.825;171.475
3029575.582;266.545;283.904;317.432;242.107;237.823;147.820;159.629;178.181
3029575.590;248.700;261.068;306.293;203.177;227.243;141.747;154.749;169.501
3029575.598;242.293;247.732;302.829;181.422;226.758;142.269;153.147;165.515
3029575.606;239.238;258.572;300.482;208.057;227.690;143.386;150.204;165.477
3029575.614;218.041;246.875;284.314;195.988;206.977;135.526;139.959;149.831
3029575.624;219.569;235.625;289.306;179.633;209.808;147.410;152.104;162.907
3029575.632;224.523;237.226;295.825;180.230;216.439;155.792;163.727;168.532
3029575.640;222.772;230.409;292.547;183.135;213.757;158.288;165.701;172.481
3029575.648;206.083;220.686;275.336;159.666;201.277;146.702;154.674;161.417
3029575.656;189.953;210.591;263.341;151.135;191.815;126.697;138.022;135.675
3029575.664;202.022;220.947;275.299;177.659;198.297;135.116;147.894;146.292
3029575.672;207.052;224.747;276.826;178.479;198.893;143.461;158.139;156.797
3029575.680;190.698;204.965;260.621;146.441;186.376;124.499;144.280;147.000
3029575.688;178.069;184.812;249.632;125.021;187.196;110.753;134.110;141.934
3029575.696;165.962;166.036;239.201;112.318;174.046;102.706;131.130;133.626
3029575.704;184.625;202.656;249.520;135.116;189.990;109.822;144.653;152.327
3029575.712;210.740;237.189;272.729;181.831;208.840;134.595;169.575;178.516
3029575.720;211.783;226.088;283.606;164.583;211.708;144.728;175.610;197.813
3029575.728;205.226;218.190;276.379;174.269;204.220;130.385;163.652;184.774
3029575.736;180.006;192.821;249.334;150.166;179.149;97.901;137.910;134.744
3029575.744;192.411;200.011;265.762;140.555;197.217;114.180;150.688;156.239
3029575.752;188.500;194.646;263.713;140.108;196.919;115.968;151.396;155.233
3029575.760;184.327;197.776;257.455;136.197;189.729;123.270;157.766;161.938
3029575.768;197.738;205.748;270.717;153.333;199.936;137.128;172.108;177.883
3029575.776;204.258;212.379;283.010;164.770;215.918;141.785;175.647;185.594
3029575.784;239.424;241.511;321.604;181.682;267.401;173.561;204.779;226.982
3029575.792;213.832;228.919;283.159;169.985;206.903;152.960;183.471;202.693
3029575.800;187.419;209.585;257.678;159.256;178.553;120.103;153.109;156.090
3029575.808;196.211;207.126;275.001;152.253;199.080;135.265;164.583;174.232
3029575.820;181.273;192.076;259.914;128.038;191.964;132.695;157.990;167.526
3029575.828;186.935;189.729;264.607;128.821;193.603;142.381;168.197;184.439
3029575.836;208.728;211.224;293.255;156.201;219.494;159.107;187.010;200.905
3029575.844;196.286;204.593;281.595;160.187;211.410;145.398;175.796;183.061
3029575.852;189.506;191.256;271.238;135.899;198.185;144.131;174.642;184.588
3029575.860;179.075;188.872;260.100;123.046;184.067;135.861;165.701;174.642
3029575.868;186.227;195.764;268.631;141.673;198.223;142.194;171.773;180.863
3029575.876;184.253;193.007;267.774;129.901;196.099;143.461;172.406;174.567
3029575.884;187.345;190.511;269.301;137.724;196.509;142.790;172.108;167.713
3029575.892;195.019;196.621;274.628;133.514;204.034;148.378;176.653;175.610
3029575.900;199.005;214.502;280.850;141.263;212.416;150.986;178.255;175.647
3029575.908;194.274;212.751;274.591;160.001;206.195;147.149;174.195;176.020
3029575.916;186.041;199.154;267.550;141.598;199.862;141.300;167.005;168.234
3029575.924;194.237;197.515;281.408;136.942;215.918;152.625;176.430;176.318
3029575.932;188.760;190.139;271.276;123.307;212.193;154.302;178.441;178.255
3029575.940;179.633;192.970;260.025;119.135;199.229;140.741;164.025;161.305
3029575.948;187.941;206.009;264.980;140.034;194.907;133.924;154.786;156.462
3029575.956;205.040;218.190;279.844;163.764;214.055;145.510;165.701;162.311
3029575.964;224.262;238.307;298.955;172.295;233.799;157.058;178.404;172.183
3029575.972;234.470;249.259;309.050;170.693;241.324;162.274;184.774;178.255
3029575.980;237.823;254.139;313.967;179.745;254.959;163.466;183.284;172.034
3029575.988;230.782;243.261;303.127;174.530;247.173;161.678;178.441;176.691
3029575.996;206.418;218.116;277.683;148.602;222.996;148.080;164.397;164.621
3029576.004;195.056;201.762;267.886;129.826;217.706;140.890;157.095;155.531
3029575.999;209.101;213.310;278.875;141.002;232.123;149.645;165.105;168.197
3029576.007;205.375;217.594;275.113;143.237;225.939;148.006;164.509;157.878
3029576.015;225.082;235.178;294.931;162.758;245.571;165.403;181.943;174.567
3029576.023;232.123;245.459;303.574;167.564;259.764;171.810;187.159;176.281
3029576.031;218.377;233.464;286.140;164.844;238.791;158.921;171.848;162.311
3029576.039;213.645;225.678;280.030;150.092;232.384;160.709;173.338;169.054
3029576.047;206.418;218.228;274.442;144.206;230.670;153.892;167.452;161.938
3029576.055;205.822;216.141;269.450;147.633;224.933;156.090;173.189;167.154
3029576.063;213.720;225.268;277.124;153.929;237.487;168.122;187.382;174.828
3029576.071;207.238;214.949;265.464;145.733;226.870;159.256;180.453;165.366
3029576.079;206.977;219.941;271.648;138.283;228.658;143.461;165.626;155.941
3029576.087;205.599;226.162;273.399;149.496;234.060;135.303;157.915;149.794
3029576.095;193.492;206.120;257.678;141.002;215.359;125.840;150.315;148.453
3029576.103;194.535;201.575;256.412;121.370;218.228;132.881;159.107;154.860
3029576.111;203.773;211.857;262.223;139.028;226.647;139.661;165.626;166.111
3029576.119;212.155;208.505;273.846;133.403;240.393;144.094;172.369;178.590
3029576.127;213.757;213.459;274.293;137.091;244.528;143.535;171.624;171.401
3029576.135;218.973;224.561;278.503;145.212;244.267;141.002;169.389;176.914
3029576.143;207.983;218.004;266.358;147.335;229.888;132.769;164.248;170.656
3029576.151;198.446;197.068;255.071;123.903;224.672;132.769;165.589;170.544
3029576.159;213.012;207.126;264.160;124.946;243.746;144.467;177.287;189.990
3029576.167;199.825;191.815;250.600;115.298;225.343;126.325;161.007;170.991
3029576.175;196.509;188.164;244.603;107.586;219.010;117.011;154.115;167.638
3029576.183;224.411;219.494;274.330;141.747;250.340;138.097;176.504;191.666
3029576.199;239.350;235.848;292.845;156.499;271.611;150.539;190.213;206.605
3029576.207;204.295;193.790;249.445;118.650;239.201;121.482;162.981;179.186
3029576.215;226.162;219.420;262.670;143.200;262.670;141.934;183.433;192.747
3029576.223;243.895;245.124;282.973;159.405;269.972;152.700;192.337;205.822
3029576.231;266.656;262.372;303.723;195.689;295.006;181.124;223.182;235.066
3029576.239;234.172;221.394;274.368;154.786;264.905;151.657;190.847;209.846
3029576.247;180.900;164.695;219.271;97.007;210.218;96.820;132.024;154.190
3029576.255;175.759;164.434;207.424;91.121;197.217;94.697;126.995;138.320
3029576.263;177.771;173.450;210.740;98.087;206.791;92.611;122.748;139.251
3029576.271;155.009;155.084;200.011;78.790;199.676;71.712;102.669;112.876
3029576.279;168.271;168.160;221.729;105.761;215.061;77.002;110.716;113.957
3029576.287;190.400;188.239;240.169;123.195;231.266;97.416;132.620;138.879
3029576.295;174.157;168.160;223.257;98.571;222.027;87.842;125.505;125.505
3029576.303;172.220;171.289;216.588;99.018;212.938;91.940;130.832;137.091
3029576.311;166.632;161.789;208.505;96.187;206.605;92.499;130.087;136.010
3029576.319;158.362;154.115;206.493;93.356;199.601;77.598;110.120;118.949
3029576.327;166.707;158.846;217.482;94.660;209.175;83.968;114.553;129.156
3029576.335;170.693;163.466;226.051;90.785;213.049;86.315;116.378;124.536
3029576.343;173.859;170.544;230.074;101.700;215.992;93.915;124.611;134.744
3029576.351;176.355;171.550;229.664;107.512;217.371;102.147;135.452;142.232
3029576.359;154.525;143.684;203.438;82.105;198.111;91.270;129.528;132.434
3029576.367;161.193;157.803;206.269;94.473;198.260;84.899;123.009;130.534
3029576.375;163.093;170.767;211.075;114.813;197.999;79.162;119.507;114.441
3029576.383;168.048;164.211;212.714;104.941;197.291;84.154;126.623;120.923
3029576.390;160.560;133.738;200.346;105.575;189.282;82.105;125.542;115.670
3029576.398;159.666;130.199;202.395;100.918;179.559;85.682;129.342;117.943
3029576.406;165.440;145.510;199.825;110.790;183.098;95.516;137.947;133.067
3029576.414;150.688;129.938;194.162;96.411;165.738;89.556;132.099;119.433
3029576.422;153.370;113.137;195.652;94.958;168.979;96.709;138.432;130.124
3029576.430;158.101;107.922;199.154;104.941;187.419;103.675;142.455;138.469
3029576.438;149.198;135.787;189.915;110.567;178.143;97.230;137.612;129.677
3029576.446;140.816;132.397;183.657;102.371;167.489;82.403;126.660;119.582
3029576.454;143.647;128.672;184.216;104.345;168.718;81.696;126.287;111.908
3029576.462;154.451;135.750;201.464;105.277;183.359;98.683;144.765;132.211
3029576.470;120.178;101.253;166.968;75.586;154.302;70.632;117.421;99.018
3029576.478;120.252;105.128;165.440;86.799;149.012;69.328;114.441;93.244
3029576.486;132.732;110.269;176.169;92.797;157.356;83.111;126.250;111.088
3029576.494;130.013;109.375;171.885;84.117;158.027;81.472;124.574;101.998
3029576.502;125.431;108.555;169.314;74.431;153.407;74.804;116.825;104.420
3029576.510;117.160;102.259;166.669;73.127;150.874;70.371;112.355;100.397
3029576.518;113.845;99.950;163.019;68.620;152.513;71.786;114.068;99.726
3029576.526;135.191;115.559;182.092;91.307;174.083;92.164;135.228;121.519
3029576.534;148.527;134.669;193.566;100.806;184.216;104.196;146.292;123.046
3029576.542;124.760;105.314;169.426;63.479;159.517;86.203;128.634;108.629
3029576.550;125.617;105.761;173.002;70.669;158.772;85.086;126.734;104.569
3029576.558;135.675;124.685;185.259;94.548;169.761;92.760;130.758;111.051
3029576.566;123.568;110.641;167.936;84.490;156.835;79.982;113.919;103.712
3029576.574;108.927;96.262;154.003;59.195;140.853;67.316;99.130;86.240
3029576.586;116.117;99.950;158.139;54.277;148.490;77.225;110.380;99.912
3029576.594;124.201;111.572;167.526;81.100;164.621;82.217;116.192;100.881
3029576.602;113.547;102.408;157.692;71.973;152.513;73.239;105.798;88.736
3029576.610;110.306;92.164;156.164;52.638;146.441;80.951;112.876;101.700
3029576.618;100.508;91.083;145.361;53.160;140.034;70.110;101.551;86.464
3029576.626;111.461;103.414;153.370;70.855;150.725;85.570;117.011;107.288
3029576.634;119.805;111.461;163.242;85.905;161.529;91.121;121.854;113.584
3029576.642;103.302;96.299;145.063;69.365;142.865;71.079;100.993;93.579
3029576.650;105.798;94.958;148.825;54.985;143.386;70.967;100.210;98.534
3029576.658;100.993;93.952;142.008;49.807;138.246;65.342;94.622;86.166
3029576.666;108.555;100.620;148.788;59.456;145.547;79.684;109.263;104.606
3029576.674;103.898;95.442;148.788;65.714;140.518;78.157;108.629;100.881
3029576.682;93.989;84.117;139.959;55.358;129.379;71.637;101.961;91.232
3029576.690;91.270;88.029;135.563;45.449;125.058;79.013;110.418;102.893
3029576.698;101.551;102.036;149.012;55.321;144.206;71.377;101.291;89.966
3029576.706;109.747;104.792;154.823;61.542;149.682;76.592;107.326;101.328
3029576.714;102.222;96.597;147.671;50.589;148.565;64.261;95.740;88.327
3029576.722;101.775;95.628;147.335;42.357;153.296;58.264;89.593;79.349
3029576.730;111.908;100.583;156.648;44.368;166.073;66.720;94.511;94.511
3029576.738;117.905;110.939;165.850;56.662;174.381;66.794;89.929;89.929
3029576.746;108.853;95.256;155.456;23.767;161.901;63.516;84.825;90.301
3029576.754;109.896;96.075;157.058;30.100;163.279;62.510;86.427;88.811
3029576.762;100.993;89.556;146.776;28.834;155.717;53.681;79.125;76.480
3029576.770;106.208;104.383;148.229;40.717;161.938;60.871;85.235;88.774
3029576.781;100.136;100.099;141.524;43.064;161.976;52.229;76.108;76.257
3029576.789;114.739;106.804;152.849;52.415;173.040;71.377;95.144;99.167
3029576.797;103.414;93.617;143.424;34.869;160.523;60.722;85.346;84.564
3029576.805;99.838;90.674;137.836;30.249;152.290;56.289;82.590;76.145
3029576.813;94.958;80.355;132.285;28.946;153.929;54.725;82.403;79.237
3029576.821;98.050;88.625;135.712;44.815;159.331;55.581;83.484;75.698
3029576.829;100.136;90.562;136.234;40.233;158.846;63.069;89.332;89.668
3029576.837;79.572;75.735;114.962;18.924;136.979;44.443;71.004;68.918
3029576.845;83.782;81.584;116.937;36.433;139.326;52.303;81.100;74.208
3029576.853;101.626;99.055;134.557;43.660;160.560;73.463;101.738;101.626
3029576.861;83.111;84.080;116.415;37.812;149.272;53.346;82.105;75.400
3029576.869;85.980;83.558;120.923;40.457;148.602;61.095;91.903;87.544
3029576.877;67.875;63.479;100.099;23.656;127.070;45.560;74.841;71.079
3029576.885;67.763;60.014;98.348;2.980;125.132;50.180;78.455;73.425
3029576.893;84.601;79.833;112.280;24.401;142.194;71.377;103.004;96.709
3029576.901;81.062;85.197;105.239;55.730;139.624;64.708;95.963;82.329
3029576.909;77.672;77.151;100.397;41.984;138.059;63.367;93.766;82.366
3029576.917;85.719;92.797;113.957;42.617;147.000;64.857;94.138;81.956
3029576.925;80.876;80.504;107.326;31.777;141.747;60.946;85.570;75.251
3029576.933;68.173;72.643;90.338;25.816;121.929;59.530;82.329;77.784
3029576.941;82.590;90.934;103.191;54.426;131.764;66.161;90.301;78.976
3029576.949;79.796;77.039;103.600;35.204;128.374;73.463;94.548;91.530
3029576.957;57.183;53.495;76.629;5.066;107.922;59.083;77.225;76.182
3029576.965;49.956;52.638;61.542;18.142;97.007;50.850;70.147;66.645
3029576.959;39.525;30.026;54.166;13.225;89.034;55.693;76.368;76.704
3029576.967;20.489;-0.335;40.457;-22.203;79.237;54.054;70.892;67.651
3029576.975;11.176;-1.416;28.834;-44.890;59.418;57.705;71.116;74.022
3029576.983;11.958;8.158;15.646;-21.197;53.048;58.189;67.316;71.935
3029576.991;-8.456;-24.959;-3.837;-51.372;33.714;41.910;47.609;54.613
3029576.999;-11.027;-48.503;-5.178;-65.006;34.980;44.517;51.334;64.187
3029577.007;-27.195;-70.892;-16.466;-119.880;15.944;18.179;24.475;36.769
3029577.015;-36.843;-37.663;-37.774;-130.273;-10.468;-8.419;-4.284;21.495
3029577.023;-29.877;-22.352;-15.683;-79.237;-13.337;-15.870;-12.368;13.113
3029577.031;19.185;-9.909;55.581;-11.250;81.919;28.424;37.774;47.721
3029577.039;63.516;37.439;90.785;20.750;138.804;81.100;91.530;100.993
3029577.047;58.822;66.012;85.235;30.436;115.782;73.202;82.217;91.419
3029577.055;32.075;27.679;46.454;-5.625;74.804;55.730;63.591;84.303
3029577.063;4.508;-13.970;27.940;-27.046;49.099;34.049;43.735;61.728
3029577.071;10.356;-5.960;35.428;-18.179;67.279;43.474;52.005;65.453
3029577.079;18.403;-15.758;32.969;-35.353;67.241;70.147;71.861;89.295
3029577.087;27.567;-1.639;52.005;-38.110;73.835;78.641;71.488;88.140
3029577.095;27.530;8.978;55.730;-34.794;69.886;64.783;53.942;77.784
3029577.103;15.832;-11.623;44.070;-38.520;56.177;44.703;33.863;56.438
3029577.111;4.955;-38.221;23.730;-50.068;54.911;45.076;37.290;53.421
3029577.119;-12.591;-70.669;-11.139;-78.827;31.777;49.211;43.921;60.946
3029577.127;0.410;-23.805;8.009;-38.296;37.663;40.233;35.763;49.844
3029577.135;22.352;-7.898;49.956;-19.968;64.895;58.338;57.854;71.526
3029577.143;38.855;-0.820;61.318;-11.139;91.009;79.907;81.249;96.038
3029577.154;13.486;-33.975;24.177;-48.652;63.814;54.911;57.928;73.202
3029577.162;3.241;-39.227;3.837;-68.322;47.386;39.227;44.517;62.026
3029577.170;5.439;-30.175;-4.247;-68.694;46.864;30.436;35.539;48.913
3029577.178;5.327;-23.320;-10.170;-51.633;49.844;26.152;36.061;52.191
3029577.186;3.465;-35.092;-18.552;-56.997;55.432;26.524;37.923;51.856
3029577.194;6.631;-26.897;-25.630;-46.417;54.426;29.542;38.929;49.844
3029577.202;-9.872;-46.268;-47.423;-60.312;39.302;27.977;36.731;49.174
3029577.210;-36.731;-86.464;-68.545;-102.445;22.016;15.646;25.444;26.263
3029577.218;-27.716;-30.696;-62.697;-86.389;22.054;4.098;12.591;16.578
3029577.226;-29.057;-29.430;-66.385;-71.786;22.240;3.614;9.574;16.131
3029577.234;-21.271;-31.926;-50.701;-66.571;30.361;-4.210;2.347;6.668
3029577.242;-24.773;-36.173;-55.507;-69.998;29.653;-6.743;1.527;2.086
3029577.250;-33.379;-44.331;-65.267;-94.660;26.599;-1.527;3.539;1.416
3029577.258;-33.788;-40.680;-66.161;-77.859;9.984;5.402;8.270;13.150
3029577.266;-29.281;-30.622;-52.899;-50.291;28.349;3.353;7.004;8.680
3029577.274;-40.829;-45.374;-65.863;-87.768;21.607;-5.290;-2.384;-3.763
3029577.282;-39.637;-41.276;-66.832;-88.997;21.867;2.012;4.172;7.190
3029577.290;-25.406;-29.765;-51.409;-73.761;37.104;10.207;13.150;9.649
3029577.298;-38.370;-35.539;-63.442;-81.696;17.583;-10.021;-8.121;-4.210
3029577.306;-49.807;-56.289;-77.300;-92.313;8.829;-15.274;-13.523;-8.158
3029577.314;-54.985;-43.511;-92.983;-96.336;-11.101;-18.701;-15.385;-16.205
3029577.322;-54.017;-39.078;-77.412;-89.109;-0.373;-16.987;-13.039;-10.878
3029577.330;-49.584;-43.996;-69.961;-90.376;19.968;-10.394;-5.700;-12.182
3029577.338;-33.453;-9.425;-63.628;-73.202;20.489;0.596;6.147;2.459
3029577.365;-43.586;-17.583;-71.712;-80.019;13.150;-12.256;-5.588;-12.778
3029577.373;-50.552;-38.370;-76.853;-88.774;10.803;-12.964;-6.855;-15.870
3029577.381;-53.719;-49.323;-84.303;-116.341;4.657;-6.706;-1.080;-5.513
3029577.389;-39.600;-7.525;-73.202;-82.068;20.824;-1.006;0.820;1.453
3029577.397;-26.673;12.182;-51.036;-45.113;17.993;8.084;9.574;12.554
3029577.405;-41.127;-5.998;-64.261;-50.887;2.049;-4.731;-0.522;-6.296
3029577.413;-45.300;-16.652;-67.055;-74.580;11.921;-10.319;-3.651;-17.546
3029577.421;-42.990;-14.380;-65.640;-74.692;13.374;-6.594;-3.353;-6.668
3029577.429;-44.703;-8.941;-68.769;-71.451;10.319;-8.754;-5.849;-13.672
3029577.437;-36.620;-7.749;-65.528;-80.243;15.162;3.874;8.456;6.184
3029577.445;-26.077;7.041;-47.982;-56.550;29.616;8.456;10.580;9.239
3029577.453;-28.647;10.543;-48.317;-49.025;24.699;2.310;4.694;-2.719
3029577.461;-31.143;2.198;-46.566;-61.989;29.355;6.072;9.984;6.109
3029577.469;-37.923;2.757;-60.014;-65.416;9.798;-0.857;5.700;-8.754
3029577.477;-22.464;29.393;-44.331;-45.635;22.613;13.597;19.744;9.686
3029577.485;-16.168;30.100;-31.479;-38.594;44.554;21.942;26.450;15.013
3029577.493;-6.892;34.273;-17.881;-31.330;49.099;32.224;30.845;23.581
3029577.501;-17.509;28.908;-23.320;-51.074;35.018;29.989;28.722;27.977
3029577.509;-30.287;15.758;-35.129;-71.861;19.409;14.156;15.385;1.080
3029577.517;-27.642;22.277;-31.404;-53.272;25.593;19.260;19.595;9.872
3029577.525;-42.208;1.788;-46.417;-61.095;12.591;10.356;7.302;0.671
3029577.533;-46.752;-4.284;-47.684;-82.366;9.425;11.027;8.047;1.378
3029577.541;-45.374;6.072;-45.002;-93.095;7.339;18.962;20.564;9.164
3029577.549;-40.643;13.188;-37.104;-68.732;16.280;21.942;26.710;3.502
3029577.545;-33.751;17.583;-27.306;-57.630;21.644;29.840;33.788;20.266
3029577.553;-54.315;4.545;-50.962;-73.425;-1.229;14.417;19.222;5.066
3029577.561;-44.182;18.440;-40.308;-60.759;8.009;7.376;17.732;-3.465
3029577.569;-32.187;27.306;-27.418;-55.283;18.552;13.411;22.873;11.660
3029577.577;-28.089;27.493;-22.128;-48.988;22.501;14.305;21.942;10.990
3029577.585;-32.969;19.781;-27.232;-69.961;14.678;11.884;19.372;14.454
3029577.593;-53.346;-5.588;-54.687;-98.720;-7.562;-3.874;5.588;-5.625
3029577.601;-35.465;15.721;-30.361;-81.323;9.649;12.927;24.922;7.823
3029577.609;-28.983;27.530;-24.475;-72.010;9.239;23.656;38.631;21.197
3029577.617;-38.892;26.152;-33.788;-66.422;2.123;14.789;29.989;8.196
3029577.625;-27.344;42.766;-24.289;-44.219;15.944;15.646;33.118;9.537
3029577.633;-30.473;26.338;-25.071;-51.036;16.615;19.036;36.694;13.448
3029577.641;-29.728;19.036;-24.512;-60.722;14.789;23.730;38.594;18.142
3029577.649;-27.306;24.363;-33.081;-69.849;11.809;34.571;48.354;32.783
3029577.657;-26.263;32.187;-29.318;-65.677;11.176;31.330;42.915;28.126
3029577.665;-16.913;37.402;-8.419;-41.723;21.942;38.631;50.440;38.110
3029577.673;-24.140;23.805;-12.368;-66.608;11.213;28.089;40.978;22.389
3029577.681;-23.432;35.465;-16.093;-52.974;21.793;21.048;34.012;8.568
3029577.689;-27.865;25.481;-18.552;-72.755;20.638;21.160;30.696;15.870
3029577.697;-31.963;25.332;-19.632;-77.784;14.789;22.836;32.373;13.001
3029577.705;-25.742;26.263;-8.866;-57.817;23.842;31.032;41.202;22.687
3029577.713;-23.730;24.661;-9.649;-62.697;27.567;37.290;46.901;32.932
3029577.721;-22.128;25.071;-5.960;-69.402;33.602;39.749;50.329;32.745
3029577.729;-14.678;34.682;-2.049;-62.957;28.200;58.897;65.230;61.058
3029577.741;-36.657;5.215;-23.656;-84.527;7.302;31.851;40.866;13.784
3029577.749;-35.204;8.456;-11.809;-84.303;15.348;31.963;43.102;15.832
3029577.757;-27.232;26.338;1.341;-70.296;30.845;29.132;44.443;13.150
3029577.765;-23.134;28.424;1.714;-57.369;33.043;29.020;43.400;16.503
3029577.773;-21.942;33.118;-0.782;-62.995;27.418;29.728;41.835;23.581
3029577.781;-6.929;49.062;13.486;-42.990;34.422;48.168;58.487;37.104
3029577.789;-12.666;37.849;7.302;-64.112;30.212;41.500;52.117;36.247
3029577.797;-14.827;34.980;0.708;-59.754;27.269;41.351;52.974;35.875
3029577.805;-1.192;45.858;19.148;-50.440;39.339;53.532;67.912;46.827
3029577.813;-3.539;52.154;19.372;-44.964;37.886;41.239;59.307;39.153
3029577.821;0.000;56.773;19.595;-35.539;36.433;28.871;49.695;20.862
3029577.829;-3.427;49.248;23.060;-52.378;40.233;12.442;32.708;4.023
3029577.837;13.895;70.781;38.818;-22.352;52.638;31.479;47.199;24.363
3029577.845;24.252;81.919;49.062;1.229;68.508;48.764;63.553;42.431
3029577.853;11.660;67.055;39.488;-22.464;61.505;43.437;61.058;38.110
3029577.861;-2.272;58.040;24.587;-46.417;48.317;35.018;51.409;29.095
3029577.869;-18.477;51.782;5.998;-59.344;23.916;30.510;47.721;27.269
3029577.877;-22.352;58.189;-0.075;-60.797;18.328;21.756;42.915;17.546
3029577.885;-5.700;66.049;15.050;-39.227;41.574;25.518;45.858;24.661
3029577.893;-10.207;68.434;9.090;-53.048;27.157;17.136;40.084;16.615
3029577.901;-7.004;70.557;11.697;-44.405;29.579;19.930;44.890;14.752
3029577.909;-6.072;61.989;10.878;-45.821;33.043;27.195;51.409;24.363
3029577.917;-2.794;68.806;8.009;-40.978;35.763;27.195;50.999;24.512
3029577.925;-7.078;65.677;2.421;-46.976;30.100;7.935;30.361;8.196
3029577.935;-8.419;64.112;0.410;-54.054;28.089;2.012;24.848;3.576
3029577.943;-15.274;52.638;-10.505;-68.136;23.171;-4.768;17.136;-6.221
3029577.951;-24.103;38.669;-15.385;-72.122;18.626;2.161;20.377;4.917
3029577.959;-22.650;33.192;-10.505;-77.523;20.713;4.955;21.532;7.972
3029577.967;-8.605;57.928;0.484;-46.715;35.278;14.082;33.155;13.001
3029577.975;-16.242;48.093;-16.727;-54.874;25.667;7.041;28.238;9.425
3029577.983;-15.348;41.686;-11.884;-72.122;27.455;2.384;24.252;2.384
3029577.991;5.625;67.391;7.972;-44.741;42.543;14.566;40.866;15.311
3029577.999;23.060;90.115;23.544;-21.942;54.576;7.078;33.677;9.350
3029578.007;14.044;80.019;11.139;-27.195;37.402;-3.502;23.618;-2.049
3029578.015;43.847;106.096;38.072;-3.614;57.817;17.285;47.199;21.160
3029578.023;56.662;115.447;53.607;6.072;70.445;12.480;43.325;14.044
3029578.031;53.011;107.177;48.466;2.645;63.889;7.935;41.239;10.990
3029578.039;68.806;131.577;64.373;23.805;72.606;21.830;57.407;23.916
3029578.047;65.006;130.013;57.966;17.919;59.009;15.460;49.807;17.248
3029578.055;63.516;132.471;52.378;33.900;54.538;22.277;59.195;24.624
3029578.063;59.009;127.740;49.844;36.508;49.658;19.893;56.550;20.117
3029578.071;57.071;119.098;45.598;17.993;45.858;15.199;52.080;20.415
3029578.079;55.879;113.286;41.574;9.798;44.666;19.930;58.711;22.985
3029578.087;52.899;114.739;38.855;11.809;45.933;21.569;61.095;21.756
3029578.095;56.140;117.905;48.950;18.403;60.908;25.518;63.628;29.728
3029578.103;41.686;107.363;31.963;12.033;48.876;9.052;43.847;12.778
3029578.111;32.522;99.838;17.136;13.448;33.043;4.396;36.806;8.270
3029578.119;32.932;95.628;15.311;8.941;41.798;13.001;45.374;14.231
3029578.114;22.873;82.552;1.937;-9.686;33.677;18.105;50.068;16.317
3029578.122;8.047;64.820;-10.952;-34.422;17.844;14.305;44.405;15.572
3029578.130;17.583;78.157;6.258;-6.407;27.344;10.207;43.102;7.972
3029578.138;8.643;78.119;1.043;3.725;25.332;6.519;45.486;2.868
3029578.146;-6.966;61.207;-13.486;-26.040;12.852;-5.066;34.571;-9.537
3029578.154;-5.700;63.144;-19.670;-18.850;13.225;-4.545;35.763;-13.076
3029578.162;-6.668;58.636;-23.283;-16.168;2.645;4.470;46.007;-4.768
3029578.170;-3.986;66.124;-17.881;-21.607;4.545;-3.017;36.545;-12.964
3029578.178;2.421;74.208;-3.614;-14.752;20.899;1.006;38.110;-4.806
3029578.186;2.421;74.953;-5.737;-15.162;17.770;2.272;34.720;-2.831
3029578.194;-2.384;65.938;-12.778;-16.391;9.201;1.676;33.975;-4.657
3029578.202;-1.639;62.212;-14.864;-16.354;11.437;4.992;39.414;-1.006
3029578.210;-0.596;69.663;-13.001;-4.880;16.503;4.396;40.606;-7.339
3029578.218;5.364;73.798;-6.557;0.335;22.613;13.635;51.111;3.725
3029578.226;8.419;78.753;0.298;-5.960;22.091;22.911;59.009;14.491
3029578.234;-21.271;48.466;-30.175;-31.404;-1.788;0.373;35.763;-8.568
3029578.242;-31.218;36.508;-47.497;-41.500;-17.993;-2.123;33.453;-9.835
3029578.250;-26.301;39.414;-36.322;-32.559;-10.468;-0.931;36.061;-11.474
3029578.258;-25.183;36.210;-31.106;-33.341;-1.453;-0.224;37.365;-10.245
3029578.266;-12.033;53.309;-21.458;-25.779;3.129;11.139;46.827;-0.782
3029578.274;-11.101;58.673;-20.675;-16.093;5.402;9.835;45.449;-3.427
3029578.282;-10.133;61.207;-18.477;-10.803;9.798;12.405;46.827;0.224
3029578.290;-13.523;53.011;-22.873;-16.764;4.955;7.562;39.674;-6.482
3029578.298;-6.072;56.885;-18.068;-16.242;9.611;15.385;46.939;2.719
3029578.325;-2.570;60.126;-14.156;-12.331;7.935;18.366;50.142;2.198
3029578.333;-10.245;54.017;-20.005;-12.144;3.725;14.529;46.641;-2.719
3029578.341;-7.451;65.714;-8.382;-9.872;7.153;14.715;48.503;-0.633
3029578.349;-0.112;65.714;1.118;-13.672;15.162;16.689;49.584;-1.565
3029578.357;-4.210;59.232;-3.278;-15.348;8.903;17.658;53.570;-0.075
3029578.365;-7.264;59.754;-10.170;-14.380;5.513;15.348;52.713;-2.272
3029578.373;-9.276;52.601;-7.451;4.135;10.878;8.792;45.970;-8.419
3029578.381;-9.350;52.974;-6.407;-13.821;9.425;6.929;42.580;-8.531
3029578.389;0.633;67.391;2.533;-11.846;15.795;12.890;47.199;-3.241
3029578.397;-4.694;56.252;-5.774;-10.282;9.313;10.543;46.454;-2.570
3029578.405;-0.633;57.556;2.272;-17.546;14.491;15.013;52.042;1.788
3029578.413;1.565;65.155;6.519;4.843;23.618;15.907;54.576;-1.974
3029578.421;8.456;79.051;14.566;18.626;18.924;15.385;55.954;-1.490
3029578.429;14.119;82.776;19.222;19.409;30.138;13.411;52.117;-3.241
3029578.437;17.695;87.433;22.650;13.374;35.018;17.993;55.097;3.278
3029578.445;6.668;74.580;10.394;10.207;22.314;13.821;50.887;-1.937
3029578.453;2.347;65.900;8.605;4.321;23.730;8.196;43.213;-7.115
3029578.461;8.829;73.537;18.850;12.964;25.593;18.217;53.048;6.109
3029578.469;5.364;67.502;14.901;5.774;24.065;14.491;51.558;0.410
3029578.477;-0.149;58.189;9.313;-4.210;16.987;1.863;39.637;-8.307
3029578.485;11.064;73.425;19.409;12.033;26.003;9.760;47.088;1.416
3029578.493;7.525;72.122;20.526;15.125;26.934;6.631;43.772;1.416
3029578.501;-2.123;56.401;8.494;4.880;21.495;4.061;42.282;-0.037
3029578.509;-1.676;55.023;5.513;-6.519;15.274;6.557;45.374;0.820
3029578.504;-3.017;57.444;3.576;-4.359;11.399;1.974;41.202;-1.304
3029578.512;1.639;59.158;10.952;17.621;16.801;0.000;38.594;-1.006
3029578.520;0.708;61.989;7.115;4.806;17.546;-1.863;37.774;-2.086
3029578.528;-6.147;50.291;-2.831;-11.101;9.276;-4.210;35.428;-3.204
3029578.536;-3.017;47.609;5.066;4.917;10.431;-4.768;35.204;-5.960
3029578.544;2.831;61.952;9.947;4.731;13.895;-3.166;37.737;-0.224
3029578.552;-8.643;50.627;-0.782;-5.923;4.433;-14.491;26.040;-12.293
3029578.560;-6.221;48.466;2.943;-2.161;8.717;-16.131;23.209;-10.990
3029578.568;-9.313;37.700;3.353;-13.672;4.359;-11.325;27.306;2.719
3029578.576;-11.660;36.098;-0.075;-14.231;2.310;-3.390;32.447;10.021
3029578.584;11.735;63.553;21.905;8.270;18.477;0.075;35.428;13.150
3029578.592;14.491;63.255;24.214;12.964;15.721;3.278;38.445;13.523
3029578.600;26.189;76.070;37.737;25.854;22.352;11.325;46.790;21.122
3029578.608;21.458;66.981;34.235;24.326;17.285;10.170;47.460;20.489
3029578.616;0.037;49.733;9.015;1.453;-2.272;-6.855;28.946;0.112
3029578.624;5.253;50.254;15.870;5.551;3.204;-1.304;34.794;8.196
3029578.632;16.391;67.391;32.969;14.342;18.179;7.637;45.858;15.981
3029578.640;8.792;60.238;25.854;11.846;14.976;-3.017;33.528;3.837
3029578.648;4.880;47.423;20.154;3.204;11.288;-0.373;32.149;7.041
3029578.656;3.390;57.220;12.480;10.245;10.580;-3.204;26.003;2.980
3029578.664;8.829;63.032;22.724;26.524;16.764;3.390;30.659;6.892
3029578.672;-0.261;48.839;13.746;8.531;11.846;2.198;26.040;-1.602
3029578.680;5.141;56.997;18.328;15.609;19.185;12.144;34.571;4.433
3029578.688;2.272;53.421;14.678;17.583;13.299;23.134;45.300;12.815
3029578.700;11.064;59.642;22.016;13.523;22.016;35.651;56.252;23.469
3029578.708;-2.198;42.208;7.600;8.233;13.113;17.770;37.178;9.835
3029578.716;-3.353;45.672;5.737;5.141;15.795;10.170;27.157;4.619
3029578.724;-1.788;52.862;5.886;15.311;20.154;4.023;18.105;-0.894
3029578.732;-0.894;46.603;7.674;15.013;22.873;1.118;16.205;-5.215
3029578.740;0.112;44.182;12.852;8.419;27.306;5.066;23.544;-5.811
3029578.748;-0.447;50.738;11.586;16.950;26.934;10.803;27.865;3.055
3029578.756;-14.305;29.318;-1.080;-3.688;11.437;4.023;20.489;-4.098
3029578.764;-20.377;21.085;-2.235;-18.440;13.672;-1.527;11.884;-10.766
3029578.772;-11.176;33.006;6.184;-3.800;27.865;2.980;13.784;-5.662
3029578.780;-11.362;34.496;1.974;-4.247;27.381;3.204;13.486;-5.700
3029578.788;-28.051;12.927;-19.968;-16.429;6.743;-6.817;1.974;-11.846
3029578.796;-25.220;18.328;-9.574;-16.764;12.666;-6.706;1.676;-11.213
3029578.804;-10.654;35.539;9.760;1.751;28.834;-0.373;10.058;-3.092
3029578.812;-8.494;31.814;10.617;-7.860;28.238;7.711;18.962;8.531
3029578.820;-29.169;10.654;-12.070;-21.383;5.215;-7.376;3.949;-10.394
3029578.828;-31.367;2.459;-15.087;-35.055;6.407;-10.915;4.955;-13.858
3029578.836;-21.644;16.317;-4.210;-21.905;14.454;-6.407;10.207;-8.568
3029578.844;-28.722;8.196;-9.611;-20.042;8.605;-8.196;7.637;-10.394
3029578.852;-30.473;0.596;-13.076;-20.564;6.072;-5.700;14.454;-3.874
3029578.860;-20.564;18.924;2.012;-23.730;11.697;-18.589;4.321;-12.591
3029578.868;-12.666;27.046;12.852;-11.809;18.179;-20.266;5.327;-9.052
3029578.876;7.860;41.910;31.702;23.618;29.430;-12.890;13.225;-1.267
3029578.884;15.981;48.913;36.396;26.040;26.301;-12.554;13.597;-3.092
3029578.879;30.659;58.152;49.397;34.906;30.883;-3.278;23.395;3.949
3029578.887;28.796;52.489;48.913;37.923;27.902;-11.325;15.013;-8.643
3029578.895;35.875;56.326;56.997;41.313;32.410;-2.384;25.406;1.267
3029578.903;39.935;64.895;64.485;43.698;32.410;2.496;28.796;7.488
3029578.911;30.771;53.421;56.550;42.394;23.320;-9.649;18.142;-8.717
3029578.919;35.986;56.215;60.461;30.026;28.983;0.857;28.759;3.651
3029578.927;36.433;60.201;58.115;34.422;26.077;3.688;31.255;3.800
3029578.935;34.198;64.149;57.034;50.925;19.185;-2.272;27.381;-5.551
3029578.943;19.483;41.761;46.082;17.062;10.952;-14.715;11.846;-19.334
3029578.951;19.632;40.196;46.901;22.128;14.938;-14.864;8.121;-19.632
3029578.959;24.587;49.919;50.887;46.119;23.283;-3.465;18.440;-10.356
3029578.967;15.870;37.514;41.202;27.306;18.105;-4.172;17.770;-13.970
3029578.975;10.245;24.624;37.737;23.432;15.609;-12.927;11.735;-26.636
3029578.983;8.307;33.304;34.682;17.546;9.276;-22.538;5.066;-38.892
3029578.991;2.980;30.659;27.008;19.372;1.192;-28.275;-1.453;-43.958
3029578.999;6.668;42.245;32.298;26.450;2.906;-21.458;7.674;-33.677
3029579.007;-6.817;21.681;20.564;8.009;-7.525;-29.877;-0.894;-38.445
3029579.015;-3.688;23.842;23.730;7.860;-6.743;-29.169;-0.447;-36.992
3029579.023;6.929;31.963;36.918;18.477;3.725;-22.613;7.823;-30.696
3029579.031;2.235;32.000;31.777;15.981;2.682;-22.203;5.588;-27.232
3029579.039;5.923;29.542;35.092;24.140;8.233;-11.735;14.119;-16.205
3029579.047;12.480;36.918;41.835;28.647;20.228;-16.615;10.654;-25.593
3029579.055;7.264;29.802;33.192;20.899;21.718;-27.046;1.974;-34.124
3029579.063;6.407;36.731;30.808;19.632;15.683;-32.634;-0.633;-37.812
3029579.088;11.474;45.784;33.900;34.980;17.583;-30.771;1.974;-36.769
3029579.096;11.586;37.365;35.614;31.553;17.546;-26.897;6.519;-30.659
3029579.104;8.941;30.622;31.292;22.836;14.938;-24.550;8.419;-23.581
3029579.112;10.394;33.490;32.783;36.433;20.117;-27.716;6.780;-27.716
3029579.120;8.307;34.757;30.324;20.862;15.125;-29.430;5.066;-29.393
3029579.128;-2.310;25.369;21.271;6.743;1.267;-39.525;-5.327;-43.102
3029579.136;6.594;39.153;31.628;23.097;11.735;-28.461;4.247;-28.461
3029579.144;1.341;32.857;26.301;29.020;8.866;-33.267;-2.012;-32.485
3029579.152;0.261;22.836;28.685;18.105;9.313;-34.533;-2.347;-30.883
3029579.160;9.276;30.771;37.663;8.382;15.236;-28.312;2.906;-22.426
3029579.168;13.076;40.792;39.041;14.603;14.231;-27.716;1.267;-20.005
3029579.176;18.738;47.125;50.329;35.465;26.077;-19.111;8.345;-11.101
3029579.184;7.339;32.894;40.382;20.042;18.030;-31.926;-2.719;-26.412
3029579.192;6.184;29.281;41.649;12.964;17.621;-34.086;-4.470;-27.902
3029579.200;6.929;33.975;41.239;8.903;19.819;-30.063;-2.570;-24.214
3029579.208;8.233;32.261;42.059;8.531;20.489;-26.710;-1.788;-20.340
3029579.216;11.399;40.978;46.603;15.832;27.381;-22.389;0.782;-15.050
3029579.224;0.075;33.639;34.906;19.372;15.721;-33.751;-13.188;-27.791
3029579.232;-2.049;25.183;30.324;6.631;8.084;-32.708;-13.672;-25.630
3029579.240;-5.253;17.993;27.381;-11.176;5.625;-36.843;-15.832;-32.149
3029579.248;-0.410;20.601;32.522;-3.725;11.772;-33.341;-9.350;-29.504
3029579.256;1.267;32.559;37.253;22.165;12.368;-25.779;1.267;-23.171
3029579.264;-4.172;30.771;30.920;21.085;12.852;-32.261;-7.339;-30.324
3029579.272;10.431;35.800;45.821;23.097;28.610;-28.946;-8.382;-23.097
3029579.286;-0.261;17.621;35.875;-3.465;24.550;-36.769;-15.758;-32.187
3029579.294;2.161;25.779;34.198;-4.210;19.595;-36.620;-13.411;-33.341
3029579.302;15.050;37.141;47.237;20.266;26.710;-19.558;3.241;-15.125
3029579.310;26.710;46.343;56.028;22.240;41.649;-5.811;16.093;-2.570
3029579.318;6.072;25.667;32.708;-13.597;20.042;-28.349;-7.153;-24.028
3029579.326;4.433;27.679;30.659;-1.378;16.056;-26.114;-6.557;-22.389
3029579.334;29.989;48.317;55.283;24.587;47.833;-0.447;18.962;5.215
3029579.342;17.397;38.259;41.500;21.160;36.135;-12.554;8.680;-6.817
3029579.350;-2.943;16.354;20.601;-4.210;14.268;-32.485;-10.431;-28.349
3029579.358;-16.056;3.166;6.706;-21.346;0.335;-45.337;-22.314;-40.531
3029579.366;-18.440;1.937;5.253;-11.623;-0.633;-47.311;-24.177;-41.164
3029579.374;-12.740;4.545;9.239;-25.183;0.708;-44.964;-21.383;-37.923
3029579.382;4.582;21.011;26.636;-0.186;20.750;-31.553;-8.270;-19.632
3029579.390;5.662;26.971;28.722;4.247;21.271;-34.012;-13.933;-22.948
3029579.398;-9.499;12.517;14.827;-9.723;6.407;-48.243;-30.696;-36.433
3029579.406;-7.153;14.380;17.472;-9.350;13.635;-49.509;-31.888;-40.755
3029579.414;-7.860;0.149;16.615;-21.271;7.637;-42.953;-25.891;-32.671
3029579.422;-6.519;5.923;21.718;-24.997;12.144;-37.774;-20.675;-28.796
3029579.430;-7.600;11.921;22.165;-14.305;18.738;-42.580;-23.246;-36.098
3029579.438;-2.123;11.325;20.713;-7.376;14.454;-33.788;-14.082;-25.593
3029579.446;3.986;12.815;30.734;-5.290;25.183;-29.393;-11.027;-21.532
3029579.454;5.178;11.027;38.892;-9.201;28.126;-30.994;-17.360;-23.209
3029579.462;-0.782;6.445;34.049;-20.079;18.105;-42.543;-29.393;-34.943
3029579.470;9.686;25.630;44.964;-8.121;32.447;-40.680;-26.710;-36.843
3029579.465;12.480;22.948;49.993;-19.111;41.276;-38.855;-24.028;-35.875
3029579.473;-0.075;8.121;37.551;-18.664;27.977;-46.231;-31.777;-42.692
3029579.481;6.631;17.472;40.717;-2.235;28.238;-36.806;-23.283;-35.726
3029579.489;11.437;23.879;43.400;4.284;28.647;-21.122;-6.892;-21.681
3029579.497;12.405;20.638;48.280;-3.912;36.098;-23.320;-8.866;-24.885
3029579.505;15.534;22.911;54.352;-7.786;39.600;-25.891;-13.150;-19.334
3029579.513;16.280;20.005;57.481;-8.233;42.692;-23.842;-9.649;-18.328
3029579.521;-4.880;2.719;35.912;-37.253;23.581;-46.231;-31.330;-39.600
3029579.529;-2.757;1.863;37.104;-39.153;22.873;-43.549;-31.777;-32.783
3029579.537;-1.676;2.719;38.967;-33.937;24.550;-47.423;-37.290;-40.792
3029579.545;10.878;15.236;47.013;-23.395;35.167;-34.980;-22.724;-29.989
3029579.553;7.153;13.113;43.735;-24.773;37.365;-32.932;-20.489;-28.387
3029579.561;5.886;14.901;46.529;-11.586;36.918;-34.161;-21.346;-30.808
3029579.569;8.233;20.117;48.243;-24.401;41.835;-26.897;-13.933;-22.538
3029579.577;6.184;16.317;45.411;-25.854;39.823;-24.810;-12.256;-23.432
3029579.585;-6.035;-3.614;29.914;-36.918;22.799;-31.330;-19.148;-30.287
3029579.593;-4.061;6.482;31.926;-27.753;24.140;-26.636;-13.076;-24.959
3029579.601;-7.935;0.633;30.398;-35.092;24.959;-27.232;-11.623;-21.793
3029579.609;-7.749;-4.470;29.579;-33.565;29.355;-25.593;-9.425;-14.901
3029579.617;6.258;10.543;42.766;-16.205;39.414;-16.280;1.118;-5.998
3029579.625;-1.900;0.112;33.379;-36.806;28.275;-27.865;-11.288;-14.380
3029579.633;-3.912;-1.825;29.914;-35.390;33.267;-33.788;-16.913;-18.105
3029579.641;-6.072;-3.353;24.512;-36.769;22.091;-37.216;-19.670;-21.085
3029579.649;-7.749;-5.849;24.438;-50.552;15.274;-39.786;-21.569;-25.742
3029579.675;-3.763;4.321;28.461;-30.845;26.152;-36.620;-17.136;-22.836
3029579.683;2.198;4.731;33.081;-24.252;34.831;-29.989;-9.798;-12.480
3029579.691;5.513;5.551;35.726;-21.905;41.537;-28.387;-8.829;-10.356
3029579.699;-3.166;1.676;25.630;-31.553;31.888;-37.327;-19.893;-18.813
3029579.707;-5.253;-0.745;22.464;-41.239;28.610;-42.096;-23.581;-25.481
3029579.715;0.894;6.780;22.352;-27.083;30.063;-43.064;-23.022;-26.859
3029579.723;5.290;9.686;24.885;-16.205;34.645;-44.964;-24.363;-25.444
3029579.731;12.070;7.786;35.129;-16.093;40.233;-38.520;-18.179;-20.042
3029579.739;7.376;3.725;26.636;-25.816;33.900;-41.090;-22.426;-23.693
3029579.747;15.721;16.056;36.173;-22.389;43.921;-36.545;-18.515;-17.919
3029579.755;18.142;12.927;37.104;-19.968;52.415;-35.241;-18.626;-16.280
3029579.763;11.399;12.852;27.157;-13.374;43.437;-35.428;-20.117;-14.640
3029579.771;8.345;13.225;23.097;-17.509;34.682;-36.769;-19.334;-17.770
3029579.779;5.066;-0.484;20.377;-22.389;42.841;-40.345;-22.724;-19.297
3029579.787;1.676;-1.304;17.285;-22.873;36.731;-40.457;-20.862;-16.466
3029579.795;-7.339;-7.600;8.903;-40.308;27.977;-44.405;-23.432;-19.968
3029579.803;-5.104;-9.723;8.494;-40.531;31.739;-42.096;-20.675;-15.907
3029579.811;-13.635;-19.819;-1.937;-40.196;17.248;-47.758;-26.040;-21.122
3029579.819;-10.356;-20.824;3.502;-42.878;21.346;-45.896;-25.071;-18.962
3029579.827;0.149;-6.817;15.497;-38.818;34.571;-39.004;-18.887;-13.597
3029579.835;1.118;-3.017;14.566;-25.816;34.906;-40.233;-22.650;-21.122
3029579.843;9.574;6.035;19.446;-22.352;39.488;-29.393;-12.219;-15.572
3029579.851;20.228;15.050;26.226;-9.462;47.050;-19.744;-1.006;-7.823
3029579.859;15.385;9.499;23.320;-5.849;46.492;-27.232;-9.872;-13.113
3029579.856;6.855;0.820;16.987;-14.007;38.818;-38.780;-22.724;-23.618
3029579.864;0.782;-4.172;7.860;-25.108;35.353;-43.474;-26.003;-27.232
3029579.872;-10.058;-14.454;-4.359;-42.282;21.607;-47.907;-30.808;-27.716
3029579.880;-17.211;-24.773;-10.207;-49.286;18.105;-47.497;-29.020;-27.306
3029579.888;-15.236;-22.314;-11.176;-53.346;18.738;-43.437;-23.991;-22.948
3029579.896;-11.139;-21.905;-12.554;-38.333;20.191;-43.474;-24.028;-17.881
3029579.904;-9.611;-21.942;-8.941;-49.621;27.716;-47.907;-29.095;-16.280
3029579.912;-1.825;-12.182;-2.272;-44.480;31.926;-41.910;-22.426;-4.955
3029579.920;-1.080;-16.354;-4.508;-28.238;29.020;-45.374;-26.077;-3.502
3029579.928;-6.594;-28.275;-8.233;-42.319;26.561;-43.437;-23.916;-3.427
3029579.936;-8.903;-30.920;-8.643;-60.871;27.120;-36.731;-18.068;-2.086
3029579.944;-15.348;-20.862;-16.652;-53.570;23.022;-33.416;-18.738;-5.737
3029579.952;1.304;-0.857;-0.112;-10.058;36.769;-36.098;-17.844;-13.821
3029579.960;6.892;4.172;6.817;-7.264;38.110;-43.288;-20.936;-26.822
3029579.968;10.356;7.860;9.723;-2.123;37.402;-45.635;-22.314;-33.937
3029579.976;22.911;23.544;19.595;14.976;42.841;-44.443;-19.111;-36.359
3029579.984;17.732;16.689;14.715;8.270;36.471;-47.944;-24.773;-41.649
3029579.992;21.271;24.550;18.924;9.835;36.024;-51.036;-31.888;-44.256
3029580.000;21.718;19.148;21.309;-3.651;38.370;-55.842;-42.915;-52.303
3029580.008;15.460;12.815;18.552;3.986;39.972;-55.097;-44.554;-55.432
3029580.016;10.617;11.064;10.729;-3.912;38.631;-44.666;-32.745;-45.858
3029580.024;15.534;16.205;15.832;-1.006;42.990;-30.436;-16.689;-32.708
3029580.032;16.280;24.177;15.646;14.193;39.861;-21.905;-3.949;-28.089
3029580.040;13.337;16.652;11.846;17.397;36.918;-21.718;0.633;-30.361
3029580.048;14.417;8.643;15.572;14.976;41.127;-21.569;3.316;-30.175
3029580.056;21.458;20.750;20.266;21.756;42.245;-10.990;17.546;-20.452
3029580.064;29.542;36.322;26.748;26.412;51.521;-2.272;24.028;-12.815
3029580.072;25.108;27.008;19.968;26.561;49.993;-10.021;14.342;-16.131
3029580.080;26.077;23.022;20.042;24.885;49.509;-11.884;9.201;-12.629
3029580.088;39.525;40.196;31.851;33.677;61.244;-3.017;14.864;1.155
3029580.096;41.910;39.972;33.937;29.877;57.742;-7.302;8.680;1.416
3029580.104;30.845;29.877;22.985;29.355;48.615;-17.025;-2.012;-12.554
3029580.112;19.073;16.466;12.852;22.911;42.245;-20.340;-5.811;-16.689
3029580.120;11.325;12.107;3.912;11.548;30.063;-21.681;-7.711;-18.850
3029580.128;10.096;8.531;-1.527;10.841;28.647;-15.311;-0.335;-15.311
3029580.136;15.572;7.600;2.533;10.431;29.281;-6.333;9.649;-6.817
3029580.144;23.991;21.011;14.938;15.758;41.164;-4.806;13.523;-6.929
3029580.152;28.610;30.547;23.469;25.369;50.776;-1.602;19.036;-3.092
3029580.160;25.146;26.263;21.681;25.854;47.907;-0.447;19.260;-0.149
3029580.168;24.363;18.850;22.203;38.818;49.025;-0.186;18.813;-1.304
3029580.176;19.558;11.325;14.752;23.395;37.029;-1.416;15.758;-2.310
3029580.184;10.170;7.711;2.868;10.580;23.246;-11.325;6.184;-12.331
3029580.192;17.844;17.993;11.362;18.142;35.129;-3.055;15.497;-3.986
3029580.200;32.112;26.077;26.859;40.345;54.576;14.529;31.441;16.466
3029580.208;34.310;30.994;29.318;37.029;52.825;12.666;28.126;16.242
3029580.216;20.526;18.701;15.087;19.856;34.012;1.229;17.323;5.625
3029580.224;8.456;4.694;2.943;27.642;21.160;-7.600;9.798;-4.061
3029580.232;-1.378;-2.272;-8.047;17.136;9.723;-18.962;-3.539;-14.976
3029580.229;0.857;-7.078;-6.445;1.192;14.342;-14.268;-1.006;-11.250
3029580.237;8.196;3.204;1.565;2.421;27.157;-7.898;4.098;-5.253
3029580.245;15.162;6.035;7.972;16.950;27.567;-0.484;12.033;2.868
3029580.253;19.744;10.952;13.337;25.816;33.900;1.118;13.225;4.619
3029580.261;42.319;36.620;34.571;39.451;57.966;27.828;38.743;32.671
3029580.269;15.646;6.706;8.047;5.700;30.883;2.645;14.156;7.339
3029580.277;17.807;9.015;6.855;35.204;24.736;-14.193;-0.633;-11.399
3029580.285;4.508;-5.588;-5.849;23.507;5.290;-24.214;-11.548;-19.744
3029580.293;-8.941;-18.217;-20.079;9.611;-14.454;-28.275;-14.566;-25.854
3029580.301;-5.364;-11.846;-17.211;15.572;-12.703;-13.188;3.688;-14.007
3029580.309;2.384;-2.906;-4.284;26.710;-11.884;-6.221;11.362;-8.978
3029580.317;-8.829;-13.933;-16.950;18.962;-20.713;-9.574;5.811;-10.543
3029580.325;-12.778;-26.114;-17.174;13.001;-20.973;-12.740;2.384;-8.978
3029580.333;-15.758;-28.871;-19.558;6.258;-21.830;-20.377;-6.929;-16.764
3029580.341;-13.746;-23.916;-17.323;14.678;-17.881;-18.366;-7.004;-14.156
3029580.349;-23.656;-33.937;-27.046;2.161;-23.991;-20.079;-9.462;-17.881
3029580.357;-18.924;-25.406;-21.532;1.341;-25.257;-13.337;-3.278;-10.617
3029580.365;-10.207;-18.813;-11.325;17.621;-12.778;-10.990;0.857;-8.345
3029580.373;-9.649;-16.950;-12.740;25.965;-11.735;-11.921;0.559;-7.823
3029580.381;-16.280;-24.848;-19.968;18.217;-20.005;-20.228;-6.333;-13.784
3029580.389;-18.887;-35.204;-17.881;8.494;-22.724;-22.464;-6.557;-13.486
3029580.397;-27.306;-45.970;-24.959;-8.494;-29.095;-28.126;-9.760;-18.962
3029580.405;-34.124;-45.672;-33.155;-19.483;-38.408;-29.132;-10.319;-17.993
3029580.413;-29.653;-38.110;-26.487;-5.178;-35.651;-23.395;-5.998;-12.182
3029580.424;-26.599;-41.425;-18.254;-10.952;-30.100;-15.497;-2.123;-2.608
3029580.432;-32.410;-44.517;-23.097;-18.142;-33.267;-23.209;-11.623;-9.984
3029580.440;-21.644;-35.726;-14.789;-1.192;-25.705;-17.844;-9.052;-0.298
3029580.448;-23.916;-34.086;-17.956;-5.253;-27.828;-20.899;-13.337;-4.545
3029580.456;-30.436;-44.480;-20.824;-10.021;-32.820;-28.275;-21.644;-12.964
3029580.464;-28.983;-48.131;-18.999;-17.956;-33.118;-31.106;-23.246;-13.299
3029580.472;-16.987;-36.061;-8.829;-13.039;-20.452;-20.713;-12.629;-1.714
3029580.480;-23.507;-44.443;-13.150;-15.758;-25.332;-24.885;-16.578;-8.121
3029580.488;-37.439;-50.515;-28.498;-21.867;-39.563;-39.749;-31.181;-24.214
3029580.496;-36.024;-50.627;-26.412;-6.817;-37.253;-36.284;-29.169;-20.042
3029580.504;-22.613;-35.092;-14.305;-1.676;-26.114;-19.111;-15.013;-2.012
3029580.512;-32.522;-46.231;-20.601;-20.117;-38.072;-22.911;-21.458;-6.258
3029580.520;-38.445;-58.599;-26.524;-32.745;-45.262;-42.468;-39.302;-24.438
3029580.528;-27.642;-50.552;-17.174;-19.819;-33.192;-37.067;-32.187;-13.448
3029580.536;-28.759;-51.856;-16.913;-27.306;-20.042;-32.187;-28.722;-5.998
3029580.544;-37.290;-64.224;-22.203;-35.912;-28.089;-36.284;-30.994;-12.629
3029580.552;-55.879;-84.564;-43.176;-56.550;-54.277;-49.248;-42.617;-24.624
3029580.560;-57.556;-86.538;-48.243;-70.557;-65.379;-51.968;-45.113;-29.504
3029580.568;-38.594;-59.158;-25.630;-39.041;-46.305;-42.208;-35.949;-20.377
3029580.576;-32.783;-52.601;-17.285;-23.209;-35.688;-43.362;-36.359;-22.501
3029580.584;-47.646;-74.171;-32.783;-42.021;-45.784;-48.615;-45.337;-26.971
3029580.592;-38.669;-65.267;-24.214;-43.511;-41.835;-34.757;-32.745;-14.193
3029580.600;-37.588;-66.534;-20.675;-46.380;-36.843;-36.471;-31.963;-19.185
3029580.608;-48.988;-80.764;-33.081;-50.738;-47.162;-46.082;-40.866;-30.398
3029580.619;-33.230;-53.160;-19.409;-31.479;-35.167;-31.590;-26.301;-16.801
3029580.627;-31.069;-49.062;-19.521;-17.099;-35.837;-29.877;-27.418;-10.245
