Timestamp,AFz,AF3,AF4,AF7,AF8,Pz,P3,P4,2024-05-08 11:36:51.019,fs=125
4753423.404;-2.794;13.113;-11.399;24.177;0.969;2.906;2.049;-0.075
4753423.412;-4.545;12.480;-12.182;23.432;1.229;2.384;-0.522;1.676
4753423.420;-0.931;16.317;-9.723;31.292;2.868;3.688;0.298;4.210
4753423.428;3.465;21.085;-4.545;38.445;10.543;4.843;3.465;3.837
4753423.436;5.215;25.816;-2.459;40.829;11.474;5.960;6.594;3.055
4753423.444;5.290;25.257;-1.602;39.302;11.586;5.774;7.823;2.198
4753423.452;4.955;24.736;-1.304;39.227;11.921;5.253;7.004;-0.149
4753423.460;5.886;28.051;1.304;41.351;14.119;9.313;10.282;3.241
4753423.468;3.465;24.252;-2.794;35.428;12.591;10.170;9.052;5.253
4753423.476;6.594;23.581;0.373;38.855;14.715;12.554;8.903;6.631
4753423.484;3.166;22.538;-6.258;38.035;8.568;14.231;9.760;8.158
4753423.492;4.917;25.555;-2.608;40.680;9.164;13.895;11.921;9.798
4753423.500;7.078;27.902;-1.006;46.715;12.629;13.597;11.958;10.133
4753423.508;-1.714;20.638;-11.288;37.812;8.829;8.047;3.651;5.215
4753423.516;-0.447;20.824;-6.258;37.663;5.327;9.350;1.974;6.072
4753423.524;-1.788;22.799;-8.009;40.196;-2.012;3.353;-2.719;-1.788
4753423.532;0.782;26.561;-7.451;44.554;3.465;2.310;0.224;-5.886
4753423.540;-0.633;23.469;-4.992;44.219;8.568;6.035;5.774;-3.353
4753423.548;13.374;39.265;10.207;60.312;21.569;17.434;16.168;8.382
4753423.556;28.536;55.805;23.358;73.463;23.358;18.626;14.417;11.288
4753423.564;48.615;76.704;42.804;95.591;35.055;16.689;11.735;12.815
4753423.572;77.337;113.547;68.359;136.271;46.827;11.884;6.780;7.600
4753423.580;126.734;172.146;115.484;204.146;73.202;8.196;5.588;2.384
4753423.588;173.375;221.990;157.170;260.733;95.367;12.964;12.293;4.880
4753423.658;217.110;272.393;189.655;318.885;105.798;22.985;25.779;9.984
4753423.666;249.632;308.193;211.447;365.861;102.483;27.306;31.255;14.268
4753423.674;268.519;331.216;222.214;397.302;105.798;30.063;34.310;19.446
4753423.682;273.921;341.795;214.465;416.748;85.048;28.461;34.906;18.030
4753423.690;272.430;345.595;203.848;428.930;70.035;27.008;35.837;17.546
4753423.698;264.123;341.982;190.064;430.718;55.097;27.530;37.067;18.515
4753423.706;250.451;332.296;169.761;426.397;35.614;29.244;38.594;16.838
4753423.714;234.209;319.034;150.390;419.728;24.661;35.204;43.288;20.415
4753423.722;204.071;290.647;119.135;394.061;3.986;33.341;41.947;18.775
4753423.730;166.073;251.867;78.827;355.840;-19.409;32.708;39.786;18.142
4753423.738;133.254;221.170;45.002;325.479;-40.755;32.485;39.376;17.546
4753423.746;99.875;185.221;13.337;289.641;-55.172;34.980;42.729;21.458
4753423.754;71.153;153.780;-14.417;257.902;-72.382;31.590;39.190;17.695
4753423.762;41.574;123.791;-41.761;228.174;-87.470;28.908;37.253;16.689
4753423.770;15.385;96.299;-66.310;198.074;-101.551;22.762;30.585;14.976
4753423.778;0.261;79.870;-80.653;177.436;-110.939;18.664;26.114;14.715
4753423.786;-19.372;59.083;-100.732;156.686;-124.946;15.311;22.464;11.586
4753423.794;-33.490;44.331;-113.398;138.544;-132.807;12.890;18.515;8.307
4753423.802;-39.041;38.631;-115.745;129.640;-130.944;17.472;22.314;9.388
4753423.810;-43.586;33.006;-119.954;123.195;-135.452;23.060;25.891;11.474
4753423.818;-49.397;24.028;-124.685;113.361;-139.400;21.569;22.985;11.176
4753423.826;-56.997;14.864;-128.336;104.085;-137.426;13.821;17.434;6.780
4753423.834;-63.777;8.345;-134.669;96.150;-141.971;7.078;12.703;3.017
4753423.842;-69.626;1.341;-139.847;89.854;-146.590;7.600;15.497;3.688
4753423.836;-81.509;-12.368;-152.513;75.661;-159.107;11.399;21.197;6.892
4753423.844;-91.679;-23.656;-161.044;62.361;-165.440;12.480;20.266;4.843
4753423.852;-97.156;-30.585;-165.179;54.091;-167.862;13.001;16.652;2.943
4753423.860;-91.679;-26.040;-159.554;57.258;-163.391;21.942;22.836;11.511
4753423.868;-88.550;-23.171;-155.009;59.083;-157.095;26.785;29.467;16.689
4753423.876;-86.762;-21.942;-152.476;59.679;-153.817;28.238;35.428;18.179
4753423.884;-82.888;-21.122;-145.920;58.226;-147.820;27.865;35.688;15.646
4753423.892;-83.297;-22.687;-145.845;56.401;-148.751;27.567;33.267;14.603
4753423.900;-91.046;-31.479;-153.221;46.790;-156.239;23.432;28.685;10.990
4753423.908;-93.095;-32.932;-153.929;44.741;-156.537;26.003;32.187;13.821
4753423.916;-94.250;-33.118;-155.382;43.921;-160.597;29.802;36.582;18.068
4753423.924;-99.204;-36.955;-159.256;41.761;-161.901;26.152;33.714;15.311
4753423.932;-99.652;-38.184;-159.554;41.686;-162.572;25.854;33.155;15.236
4753423.940;-102.930;-42.468;-162.609;36.173;-165.068;25.071;31.814;16.131
4753423.948;-106.581;-46.603;-166.148;33.416;-166.520;26.897;32.857;19.334
4753423.956;-107.475;-48.466;-166.856;30.100;-164.174;33.043;37.588;23.730
4753423.964;-100.844;-42.282;-161.715;33.304;-162.125;39.227;43.288;28.089
4753423.972;-94.399;-37.178;-153.966;38.370;-152.364;38.147;42.655;29.653
4753423.980;-92.126;-36.210;-150.800;38.706;-146.106;32.969;39.749;28.312
4753423.988;-97.603;-42.506;-154.823;29.653;-146.255;21.458;29.653;19.334
4753423.996;-102.744;-47.237;-159.778;24.028;-152.178;16.019;24.773;15.013
4753424.004;-103.265;-46.566;-161.156;23.916;-152.588;18.217;26.226;16.838
4753424.012;-104.345;-49.099;-162.534;20.042;-154.339;22.314;28.647;19.111
4753424.020;-106.134;-51.744;-163.950;16.429;-153.594;26.822;32.671;21.420
4753424.004;-107.959;-53.309;-165.217;11.325;-152.327;29.951;37.253;22.389
4753424.012;-106.655;-53.458;-162.460;7.749;-148.825;29.020;38.892;20.787
4753424.020;-102.818;-50.515;-157.841;8.754;-144.318;28.014;38.967;19.334
4753424.028;-109.784;-55.321;-166.707;3.986;-151.657;27.865;39.339;20.042
4753424.036;-120.848;-68.918;-172.444;-15.348;-154.153;23.730;36.322;18.813
4753424.044;-88.997;-44.927;-133.924;2.421;-122.041;14.976;26.040;11.176
4753424.052;-66.906;-29.393;-105.053;9.201;-97.193;13.672;21.830;10.766
4753424.060;-45.225;-15.646;-74.431;12.144;-67.204;13.784;21.048;12.480
4753424.068;-27.791;-6.109;-48.243;10.170;-36.582;9.276;15.683;8.270
4753424.076;-11.884;3.614;-25.593;9.909;-14.678;8.643;14.901;6.184
4753424.084;1.155;11.548;-6.296;10.580;4.247;13.188;18.589;10.394
4753424.092;9.760;16.689;9.462;9.276;21.830;16.876;20.154;13.784
4753424.100;19.409;21.793;23.805;7.302;38.333;22.650;25.295;18.626
4753424.108;19.297;18.664;25.854;0.224;42.804;21.830;22.575;17.509
4753424.116;8.866;8.196;19.073;-12.368;42.953;20.266;21.011;14.864
4753424.124;2.384;3.390;12.331;-17.397;39.116;20.042;22.501;14.417
4753424.132;-10.021;-9.686;1.378;-29.840;35.129;17.285;20.266;13.150
4753424.140;-21.011;-19.670;-9.201;-38.259;25.705;19.372;19.893;15.534
4753424.148;-27.977;-24.885;-16.689;-43.660;19.036;19.073;17.770;14.380
4753424.156;-28.163;-26.189;-17.025;-44.964;21.160;18.515;18.105;11.809
4753424.164;-30.361;-28.871;-18.887;-46.566;21.756;19.632;18.030;14.901
4753424.172;-34.571;-33.267;-21.309;-50.440;23.283;18.105;14.864;15.981
4753424.180;-35.241;-33.453;-22.538;-50.068;23.022;19.707;16.205;15.646
4753424.188;-35.614;-35.316;-23.730;-51.931;21.793;17.993;15.385;11.884
4753424.197;-30.436;-30.249;-18.924;-48.280;28.722;20.303;19.185;11.586
4753424.205;-29.057;-28.573;-17.844;-46.194;27.604;20.899;22.911;11.846
4753424.213;-32.522;-31.814;-20.526;-46.901;25.406;15.646;19.334;8.903
4753424.221;-30.771;-30.547;-18.142;-45.374;30.696;15.162;17.360;9.388
4753424.229;-30.585;-31.330;-18.068;-46.454;30.659;14.529;15.683;10.207
4753424.237;-29.579;-30.659;-16.838;-46.119;31.926;17.993;18.626;12.405
4753424.245;-28.536;-29.802;-14.044;-44.778;35.837;20.266;20.713;11.176
4753424.253;-29.244;-30.659;-14.268;-46.417;35.428;22.314;22.687;11.623
4753424.261;-26.450;-28.200;-11.437;-46.194;40.047;26.263;26.077;15.572
4753424.269;-28.759;-29.467;-15.534;-46.231;33.639;24.103;24.065;14.603
4753424.277;-28.312;-29.020;-14.380;-44.107;37.588;24.028;22.054;15.274
4753424.285;-27.083;-29.393;-11.735;-45.039;41.574;26.263;22.016;18.328
4753424.293;-29.132;-28.908;-14.938;-43.623;35.428;23.730;18.291;15.609
4753424.301;-29.691;-29.802;-15.944;-43.288;34.310;18.589;13.486;10.282
4753424.309;-25.034;-26.412;-10.245;-39.935;44.033;19.260;13.262;11.884
4753424.317;-21.346;-21.718;-7.562;-34.645;46.827;24.773;19.260;15.944
4753424.325;-24.289;-23.581;-10.543;-36.582;41.723;22.985;18.328;13.746
4753424.333;-28.051;-25.705;-13.225;-38.669;38.706;20.415;15.534;11.660
4753424.341;-32.634;-26.636;-12.629;-39.004;41.425;24.475;18.328;15.534
4753424.349;-23.916;-19.222;0.596;-33.155;52.415;21.160;17.285;14.305
4753424.357;-16.354;-9.239;8.270;-23.022;56.587;20.824;19.409;14.752
4753424.365;-13.411;-4.694;12.144;-17.285;59.716;20.973;18.962;14.156
4753424.373;-16.913;-7.488;7.972;-21.718;52.862;19.334;18.775;13.746
4753424.381;-18.813;-9.388;8.270;-24.699;53.346;17.099;17.770;11.958
4753424.392;-17.956;-9.313;9.984;-23.954;57.444;19.893;21.644;12.107
4753424.400;-16.652;-7.860;7.190;-22.389;51.856;21.532;25.108;12.666
4753424.408;-15.199;-7.898;7.972;-22.389;53.309;23.469;26.189;13.299
4753424.416;-21.160;-14.678;2.757;-28.685;50.627;18.962;19.409;9.798
4753424.424;-24.550;-19.222;1.490;-32.000;48.913;19.073;16.503;9.313
4753424.432;-21.942;-16.168;4.880;-29.653;54.166;22.054;18.068;12.256
4753424.440;-19.260;-11.921;7.264;-24.140;53.756;21.160;18.068;12.070
4753424.448;-15.460;-9.276;10.692;-20.079;58.152;22.575;19.856;13.113
4753424.456;-15.199;-11.586;10.505;-22.314;56.252;21.644;19.968;11.660
4753424.464;-13.374;-8.643;12.256;-18.589;59.046;24.848;22.985;14.715
4753424.472;-12.740;-7.078;12.405;-17.211;58.338;25.965;22.277;15.087
4753424.480;-13.821;-6.668;10.170;-15.497;56.252;21.122;17.472;11.995
4753424.488;-7.823;0.373;15.423;-6.966;62.101;22.240;18.850;14.119
4753424.496;-3.316;4.321;19.558;-3.576;67.428;21.644;18.924;13.113
4753424.504;-3.725;2.831;18.775;-6.407;63.516;20.228;18.924;11.958
4753424.512;-4.321;0.745;17.993;-7.562;61.989;17.397;18.142;8.903
4753424.520;-4.433;1.080;17.919;-8.121;62.697;17.919;18.477;9.686
4753424.528;-8.941;-3.688;12.480;-12.442;57.705;18.291;18.440;9.798
4753424.536;-12.852;-8.494;9.350;-17.136;53.905;16.652;16.764;8.382
4753424.544;-13.523;-7.972;9.276;-16.764;55.507;17.546;16.950;9.835
4753424.552;-17.248;-12.219;4.172;-19.334;48.056;12.740;11.250;6.296
4753424.560;-13.821;-10.096;8.717;-18.440;56.550;12.368;9.835;7.413
4753424.568;-12.890;-8.382;6.966;-16.913;52.080;14.789;11.772;8.680
4753424.576;-13.560;-8.270;6.035;-14.864;48.243;16.838;13.001;11.697
4753424.618;-13.821;-9.649;6.817;-16.540;50.701;18.850;15.497;12.666
4753424.626;-14.231;-10.133;6.109;-17.062;50.738;20.117;17.844;11.921
4753424.634;-13.560;-7.823;7.227;-14.789;48.988;21.383;22.687;12.778
4753424.642;-14.603;-8.792;5.811;-14.268;46.119;18.105;22.501;10.543
4753424.650;-18.589;-11.958;1.825;-16.131;42.692;12.293;16.503;6.668
4753424.658;-13.858;-5.998;7.041;-10.803;48.727;15.907;19.781;8.978
4753424.666;-16.801;-9.872;5.849;-16.727;48.168;13.895;17.472;7.004
4753424.674;-14.976;-8.531;7.749;-14.640;51.670;16.131;20.415;8.233
4753424.682;-16.205;-10.766;5.066;-16.652;47.125;18.775;21.793;9.984
4753424.690;-17.658;-12.629;2.980;-17.881;42.059;20.377;23.097;11.399
4753424.698;-14.678;-8.307;7.190;-12.964;46.305;23.954;25.891;14.342
4753424.706;-12.591;-5.476;9.239;-8.754;48.131;21.756;23.879;13.150
4753424.714;-8.419;-1.825;13.448;-4.321;49.062;18.552;22.501;11.437
4753424.722;-4.992;2.198;16.801;-1.565;52.899;12.890;18.328;7.190
4753424.730;-3.763;2.980;17.844;-0.820;56.550;12.591;17.919;6.519
4753424.738;-6.221;0.857;12.629;-0.857;46.752;16.317;21.085;7.786
4753424.746;-8.643;-2.310;11.995;-3.539;47.237;16.093;20.005;4.806
4753424.754;-9.090;-2.608;12.629;-4.098;48.652;15.050;17.993;4.433
4753424.762;-13.262;-5.998;8.568;-6.668;43.027;14.156;15.162;5.849
4753424.770;-13.635;-9.052;9.090;-10.282;44.107;14.491;13.672;7.600
4753424.778;-5.551;-2.645;17.621;-4.023;53.607;18.589;18.477;12.629
4753424.786;-4.955;-1.416;18.999;-3.390;55.358;17.025;17.881;12.144
4753424.794;-8.717;-3.949;14.193;-4.321;48.764;12.405;11.586;9.090
4753424.802;-10.319;-5.625;11.623;-4.135;46.529;10.580;9.499;7.153
4753424.751;-12.070;-8.717;10.952;-8.866;45.337;8.009;7.749;4.359
4753424.759;-7.525;-4.545;16.689;-6.668;48.392;10.543;10.580;5.662
4753424.767;-7.413;-4.135;17.472;-6.706;50.738;13.411;13.337;7.302
4753424.775;-9.760;-4.396;14.305;-6.817;48.839;12.815;12.331;5.513
4753424.783;-6.706;-1.490;16.466;-3.651;50.552;12.070;10.915;7.004
4753424.791;-14.156;-6.855;10.729;-8.196;42.506;7.860;6.743;3.502
4753424.799;-15.758;-6.296;9.052;-6.668;41.798;9.388;8.307;5.141
4753424.807;-13.262;-3.874;11.772;-4.135;46.343;7.860;9.984;4.061
4753424.815;-12.219;-2.384;12.703;-3.576;47.162;4.955;9.350;2.310
4753424.823;-8.866;0.708;15.497;-0.596;49.509;7.302;11.958;4.806
4753424.831;-9.164;2.161;13.113;2.384;43.809;11.250;15.274;7.972
4753424.839;-8.568;4.172;12.703;5.141;41.388;19.670;21.346;13.039
4753424.847;-14.566;-3.017;6.557;-1.416;37.365;20.936;20.526;12.778
4753424.855;-17.919;-6.929;3.614;-6.072;35.092;16.429;13.076;9.574
4753424.863;-12.144;-1.639;8.754;-1.006;40.494;15.832;12.144;10.841
4753424.871;-7.749;0.894;13.821;0.484;45.672;13.821;10.207;10.580
4753424.879;-5.178;3.502;15.758;2.459;43.437;13.709;10.096;10.729
4753424.887;-5.402;1.900;15.609;1.043;44.033;10.915;8.009;7.227
4753424.895;-4.098;3.688;15.385;3.204;44.741;10.394;6.892;6.184
4753424.903;-6.892;1.602;14.119;1.043;43.660;9.835;4.992;6.706
4753424.911;-11.474;-3.055;8.978;-3.353;37.774;7.562;2.757;5.513
4753424.919;-8.307;0.410;13.188;1.900;41.723;12.964;7.451;9.462
4753424.927;-3.688;4.619;16.727;6.221;44.629;14.082;9.090;10.245
4753424.935;-4.135;5.141;15.721;5.215;45.225;12.144;9.947;9.015
4753424.949;-5.923;3.874;13.374;4.470;41.127;8.158;7.488;4.098
4753424.957;-5.998;3.725;10.990;4.433;38.929;4.955;5.066;1.527
4753424.965;-4.359;5.700;12.219;6.221;40.345;5.476;5.253;2.757
4753424.973;-14.566;-7.041;1.192;-6.221;32.373;7.041;6.109;4.731
4753424.981;-18.291;-5.998;-5.364;-1.676;23.693;7.115;8.047;3.502
4753424.989;-1.937;14.864;4.470;26.338;27.940;7.562;11.548;2.682
4753424.997;-8.829;12.405;-13.933;31.106;4.694;8.270;13.635;4.098
4753425.005;-16.801;9.649;-32.298;33.490;-16.838;8.531;14.268;3.651
4753425.013;-26.561;3.986;-50.738;34.608;-35.353;8.009;13.933;2.421
4753425.021;-30.324;3.949;-63.740;39.972;-49.770;9.015;14.678;2.831
4753425.029;-37.514;0.373;-78.455;40.233;-63.069;9.649;15.758;4.396
4753425.037;-50.738;-8.196;-98.571;36.471;-81.845;5.849;13.001;1.006
4753425.045;-63.926;-16.876;-114.664;31.851;-96.895;2.831;8.903;-0.894
4753425.053;-74.320;-25.630;-127.107;26.524;-105.947;6.855;9.723;4.396
4753425.061;-82.552;-31.441;-136.867;22.911;-112.653;11.809;14.901;9.015
4753425.069;-92.909;-40.531;-148.602;14.231;-124.052;10.915;18.030;6.929
4753425.077;-90.525;-38.184;-144.877;16.727;-121.072;8.978;18.254;3.874
4753425.085;-81.249;-28.647;-136.085;24.848;-111.014;15.274;24.959;8.605
4753425.093;-78.753;-26.599;-134.036;26.785;-107.810;17.285;26.003;11.213
4753425.101;-85.495;-33.490;-138.730;20.489;-113.137;14.454;19.148;8.494
4753425.109;-94.548;-42.357;-146.180;10.431;-119.247;10.133;12.368;6.147
4753425.117;-96.411;-45.784;-146.143;6.184;-115.372;7.004;8.643;4.657
4753425.125;-98.273;-48.205;-148.937;3.278;-121.780;6.668;7.637;4.843
4753425.133;-99.503;-51.260;-149.310;-0.522;-121.333;6.780;7.935;6.072
4753425.187;-100.657;-53.346;-150.055;-3.465;-119.805;7.376;7.749;7.674
4753425.195;-100.136;-51.595;-149.645;-1.676;-118.800;10.096;10.096;8.345
4753425.203;-100.173;-50.254;-149.347;-0.224;-118.800;15.870;15.572;10.878
4753425.211;-99.465;-50.180;-148.192;-2.570;-116.900;18.366;20.191;11.586
4753425.219;-97.603;-50.925;-145.435;-2.533;-115.447;20.675;24.401;9.537
4753425.227;-93.691;-48.019;-139.512;-0.931;-108.741;20.191;25.705;8.233
4753425.235;-87.246;-42.915;-133.328;3.651;-104.941;19.819;26.897;9.462
4753425.243;-87.395;-43.511;-134.595;3.390;-110.492;17.956;23.618;9.649
4753425.251;-86.986;-42.953;-131.801;2.608;-101.700;17.472;20.489;7.786
4753425.259;-87.358;-42.282;-132.956;2.682;-104.234;18.813;19.334;9.872
4753425.267;-86.688;-40.792;-131.615;2.719;-103.936;17.062;18.626;10.133
4753425.275;-87.880;-41.798;-131.540;3.017;-101.626;15.311;18.403;9.164
4753425.283;-86.613;-42.841;-128.150;3.017;-96.150;17.285;20.377;10.543
4753425.291;-86.837;-42.319;-129.715;3.874;-103.377;23.507;25.146;15.646
4753425.299;-88.736;-44.331;-133.254;3.651;-107.437;25.667;27.195;17.658
4753425.307;-90.376;-47.758;-134.408;1.341;-104.271;21.830;22.985;14.901
4753425.315;-92.760;-51.036;-136.383;-0.894;-107.139;18.813;20.452;11.697
4753425.323;-93.356;-50.776;-136.420;-1.453;-108.518;14.827;19.446;8.084
4753425.331;-93.319;-51.111;-136.010;-2.682;-109.226;12.554;19.483;5.104
4753425.339;-95.591;-54.277;-137.277;-5.960;-109.971;12.405;20.824;5.066
4753425.347;-92.424;-51.074;-132.546;-4.321;-101.998;12.890;21.085;7.078
4753425.355;-92.089;-50.664;-132.732;-6.147;-105.388;12.033;20.042;5.849
4753425.363;-87.693;-47.535;-129.268;-3.129;-102.371;12.927;20.415;6.519
4753425.371;-80.653;-41.351;-121.221;1.490;-95.367;13.597;21.644;7.451
4753425.367;-79.200;-42.096;-119.507;0.410;-94.734;13.597;19.930;7.413
4753425.375;-77.449;-41.351;-120.327;-0.112;-91.009;14.231;20.117;8.978
4753425.383;-78.008;-42.617;-118.427;-2.049;-89.519;12.703;20.079;8.047
4753425.391;-77.486;-41.649;-116.937;1.416;-91.754;11.995;19.856;8.643
4753425.399;-79.870;-41.947;-118.762;-0.075;-96.895;11.884;18.552;7.041
4753425.407;-83.633;-43.437;-123.195;-3.353;-99.503;12.815;20.787;6.594
4753425.415;-99.204;-58.897;-137.165;-20.824;-109.412;15.683;23.581;7.190
4753425.423;-73.723;-41.537;-104.532;-9.015;-81.249;12.852;20.824;4.470
4753425.431;-40.606;-15.236;-66.869;10.170;-49.584;12.927;20.154;6.184
4753425.439;-11.660;7.078;-29.281;22.426;-14.380;14.715;19.185;7.972
4753425.447;13.523;26.226;3.278;32.112;13.560;14.044;14.901;6.557
4753425.455;35.390;41.127;30.175;38.333;32.075;8.643;9.947;2.161
4753425.463;52.825;52.750;55.619;41.015;60.312;5.551;6.519;2.719
4753425.471;62.361;58.599;70.930;39.935;75.549;4.694;5.811;2.719
4753425.479;70.594;64.038;83.819;39.376;90.674;5.737;6.333;3.949
4753425.487;71.563;62.771;87.880;34.347;94.995;4.433;2.682;4.023
4753425.495;69.104;57.667;88.587;26.189;97.156;4.582;0.000;3.949
4753425.503;59.977;47.199;82.254;16.280;96.299;5.290;2.719;3.874
4753425.511;59.120;46.082;81.174;16.764;98.906;5.364;5.923;3.055
4753425.519;55.470;42.729;76.108;12.554;96.299;4.508;5.290;-0.373
4753425.527;53.979;41.611;75.251;12.182;95.591;11.995;9.649;6.221
4753425.535;49.546;39.041;72.904;11.027;92.052;14.305;10.058;7.004
4753425.543;43.698;33.714;68.061;6.333;87.656;9.537;4.284;4.284
4753425.551;40.084;29.840;66.347;3.651;85.942;5.513;0.261;1.676
4753425.502;37.365;27.642;62.138;3.017;82.701;6.892;2.719;2.310
4753425.510;31.367;20.638;56.475;-3.278;77.523;7.227;-0.373;3.129
4753425.518;24.624;14.454;51.185;-9.425;71.004;8.419;-1.453;5.774
4753425.526;19.968;10.841;46.976;-13.784;66.720;10.096;1.602;5.402
4753425.534;19.968;11.288;48.056;-12.405;67.689;13.672;8.531;5.998
4753425.542;20.936;14.119;50.701;-8.866;70.520;16.540;13.970;8.456
4753425.550;22.091;16.205;50.217;-6.706;68.210;13.746;9.127;7.153
4753425.558;23.134;15.981;51.633;-5.737;70.557;8.494;2.794;2.608
4753425.566;25.071;15.199;54.352;-5.774;75.735;9.350;3.651;4.247
4753425.574;28.089;16.317;56.513;-3.949;78.417;10.394;5.253;7.562
4753425.582;31.255;19.930;61.616;-0.373;82.180;13.970;7.376;9.239
4753425.590;31.665;20.452;64.224;-1.267;84.713;13.448;5.811;10.468
4753425.598;34.831;22.799;65.975;-0.484;86.278;13.001;5.811;9.686
4753425.606;37.588;24.177;68.545;0.969;88.476;15.423;7.376;10.170
4753425.614;39.004;25.705;70.333;3.539;90.376;16.242;5.551;12.927
4753425.622;41.910;27.902;73.612;6.482;96.112;14.417;3.166;9.872
4753425.630;43.325;28.759;72.718;9.164;89.854;16.429;4.731;10.766
4753425.638;40.904;26.859;69.737;7.711;91.046;11.511;-0.596;7.786
4753425.646;37.774;23.805;66.794;5.737;87.321;7.860;-0.149;5.476
4753425.654;37.625;22.911;68.359;5.178;89.742;8.270;2.682;5.364
4753425.662;42.245;27.977;71.898;10.654;92.164;13.262;7.823;8.605
4753425.670;36.433;23.544;65.118;6.109;83.484;10.841;5.551;6.743
4753425.678;38.333;25.965;69.104;8.456;88.289;11.735;6.855;7.674
4753425.686;37.178;24.736;67.241;7.711;80.541;8.754;4.731;5.998
4753425.651;34.720;21.867;65.267;6.072;85.272;3.427;0.149;2.049
4753425.659;32.224;19.819;61.616;4.470;80.355;1.639;-1.900;1.043
4753425.667;30.659;19.148;60.834;6.072;80.504;2.272;-2.570;2.272
4753425.675;28.834;17.695;58.152;4.508;76.965;3.017;-1.863;3.017
4753425.683;29.765;15.087;59.530;-0.484;81.584;3.316;-0.373;4.694
4753425.691;18.552;3.986;44.182;-10.282;63.442;1.863;-0.037;5.513
4753425.699;38.706;31.702;57.258;26.375;65.789;-1.416;-0.931;1.229
4753425.707;38.184;34.869;46.417;34.980;52.080;-0.931;0.373;-1.639
4753425.715;31.404;33.788;27.828;41.500;30.920;-4.657;-2.347;-3.986
4753425.723;16.987;24.401;4.619;39.414;8.605;-8.941;-6.147;-5.886
4753425.731;3.017;14.342;-18.142;38.594;-13.635;-7.302;-3.465;-3.837
4753425.739;-8.866;7.674;-37.551;38.557;-29.728;-4.321;1.043;-2.682
4753425.747;-22.203;-0.410;-57.220;36.284;-47.572;-6.780;1.565;-5.513
4753425.755;-37.774;-10.058;-76.815;32.447;-62.734;-6.966;2.310;-6.333
4753425.763;-48.503;-17.136;-90.003;30.585;-75.512;-3.353;5.327;-3.763
4753425.771;-55.917;-26.599;-95.405;23.022;-78.417;-2.347;3.874;-2.868
4753425.779;-60.461;-31.665;-98.906;18.403;-82.776;-3.204;2.682;-2.384
4753425.787;-60.610;-34.384;-98.720;16.056;-85.868;-1.490;4.396;-1.453
4753425.795;-57.407;-32.149;-94.324;18.291;-76.517;3.353;8.643;1.751
4753425.803;-62.324;-36.731;-98.534;15.125;-81.621;4.545;9.611;2.570
4753425.811;-72.047;-45.113;-110.269;6.855;-93.654;1.378;8.009;-0.633
4753425.819;-74.469;-46.827;-112.616;5.327;-99.428;0.224;6.221;-2.496
4753425.827;-74.841;-50.105;-110.753;2.012;-94.958;-3.278;-1.565;-5.141
4753425.835;-72.978;-48.913;-109.337;3.502;-93.654;-6.109;-5.700;-5.662
4753425.774;-74.357;-50.701;-111.349;2.496;-95.740;-7.302;-4.135;-5.700
4753425.782;-70.930;-48.988;-106.879;4.880;-92.797;-6.258;-3.763;-2.347
4753425.790;-71.004;-48.652;-106.990;4.768;-94.622;-4.955;-3.539;-1.490
4753425.798;-70.594;-47.982;-105.090;5.662;-90.748;-3.874;-2.235;-2.310
4753425.806;-62.883;-41.425;-97.714;11.586;-82.999;-0.671;3.204;0.261
4753425.814;-61.020;-41.164;-96.746;11.772;-80.876;-1.341;3.651;-1.788
4753425.822;-63.032;-43.586;-97.901;10.543;-80.876;-3.204;3.502;-4.284
4753425.830;-68.843;-49.062;-102.445;5.625;-91.679;-7.153;-0.671;-7.898
4753425.838;-68.657;-50.180;-100.806;4.992;-85.942;-11.176;-6.370;-10.990
4753425.846;-69.141;-50.589;-101.440;4.135;-86.091;-7.153;-4.321;-7.786
4753425.854;-65.938;-47.497;-97.305;8.084;-82.031;1.974;3.427;1.341
4753425.862;-68.694;-51.856;-100.471;2.943;-85.644;0.596;1.714;1.155
4753425.870;-68.508;-53.234;-100.993;2.347;-85.831;-0.522;1.825;-0.335
4753425.878;-69.365;-53.830;-101.589;2.235;-86.017;0.447;3.576;1.416
4753425.886;-68.210;-51.633;-102.930;3.949;-93.468;1.565;5.066;3.241
4753425.894;-64.820;-48.019;-99.465;6.296;-86.538;2.272;5.364;3.390
4753425.902;-64.038;-47.423;-97.901;4.917;-82.068;0.224;2.384;0.708
4753425.910;-65.081;-48.019;-99.204;2.459;-84.303;-2.459;1.565;-1.229
4753425.918;-59.754;-44.666;-95.181;5.104;-80.504;-1.788;4.470;1.751
4753425.926;-55.842;-41.276;-91.530;6.147;-74.580;-1.304;5.923;2.645
4753425.934;-52.303;-38.035;-89.034;7.525;-71.675;0.112;8.531;3.539
4753425.942;-53.383;-40.010;-90.748;4.694;-77.523;-0.186;6.929;1.788
4753425.950;-51.670;-40.531;-88.327;3.092;-75.437;0.522;6.221;1.937
4753425.958;-54.352;-45.374;-89.481;-2.496;-76.778;-2.086;4.880;0.186
4753425.954;-58.338;-50.366;-93.766;-8.605;-79.609;-3.465;1.825;-1.006
4753425.962;-57.630;-48.503;-94.138;-7.041;-81.249;-1.043;4.396;0.075
4753425.970;-58.338;-49.807;-95.256;-9.574;-81.398;-1.118;3.390;-1.751
4753425.978;-50.701;-42.729;-88.587;-3.763;-75.102;0.596;3.427;-0.410
4753425.986;-44.294;-37.514;-82.627;0.596;-67.391;0.969;4.880;0.037
4753425.994;-39.116;-33.453;-78.343;3.874;-66.683;1.490;6.892;2.012
4753426.002;-42.059;-37.104;-81.658;-0.075;-68.508;0.782;5.551;2.235
4753426.010;-41.500;-37.402;-79.982;-2.272;-63.665;0.596;5.253;3.390
4753426.018;-39.488;-35.018;-77.859;-1.304;-64.448;-2.086;3.129;0.298
4753426.026;-35.092;-30.920;-74.208;0.969;-61.505;-2.943;2.161;-2.086
4753426.034;-31.181;-27.642;-70.892;3.949;-59.642;-1.602;4.470;-1.937
4753426.042;-29.691;-26.524;-68.732;6.035;-55.656;-1.080;5.700;-2.272
4753426.050;-27.530;-24.922;-68.173;7.302;-57.258;0.522;7.190;-0.671
4753426.058;-22.538;-20.638;-63.926;11.437;-55.730;5.029;11.101;2.347
4753426.066;-17.472;-18.068;-57.630;13.672;-45.747;3.651;10.952;0.782
4753426.074;-20.005;-20.005;-60.983;11.213;-50.701;0.000;7.488;-1.714
4753426.082;-21.346;-21.569;-61.579;9.164;-52.452;-1.676;5.141;-2.682
4753426.090;-20.526;-20.601;-59.754;8.941;-50.105;-1.825;4.433;-3.763
4753426.098;-19.893;-20.042;-57.854;8.531;-47.237;-0.969;5.625;-4.284
4753426.106;-21.905;-22.762;-61.803;5.998;-58.189;-2.608;4.210;-4.694
4753426.114;-18.366;-19.707;-58.040;8.307;-50.887;-0.224;5.178;-2.868
4753426.122;-14.678;-15.534;-54.017;11.399;-44.778;1.341;5.513;-1.788
4753426.130;-11.325;-12.517;-50.329;14.193;-41.202;0.186;4.359;-2.347
4753426.138;-12.778;-13.001;-50.403;13.039;-42.096;-1.937;3.017;-3.465
4753426.118;-14.082;-15.385;-52.601;11.250;-47.609;-3.688;1.825;-4.731
4753426.126;-13.858;-16.242;-50.552;11.213;-46.790;-5.513;1.080;-6.631
4753426.134;-14.901;-17.546;-50.701;9.984;-44.852;-5.923;1.304;-6.668
4753426.142;-15.721;-18.664;-51.931;9.015;-46.603;-6.855;0.261;-7.972
4753426.150;-14.864;-16.801;-50.552;9.760;-45.262;-5.476;-0.075;-5.998
4753426.158;-11.921;-13.262;-47.088;12.405;-45.598;-5.327;-2.459;-5.327
4753426.166;-8.866;-11.064;-43.213;13.150;-41.388;-5.402;-3.353;-5.886
4753426.174;-7.302;-10.543;-40.904;14.864;-40.717;-3.763;-0.075;-4.768
4753426.182;-7.711;-11.548;-40.121;13.970;-39.302;-4.247;-0.261;-6.966
4753426.190;-7.153;-11.660;-38.818;12.331;-40.680;-5.066;-1.490;-9.313
4753426.198;-5.849;-11.884;-38.408;11.250;-39.786;-5.849;-0.447;-10.319
4753426.206;-4.098;-9.313;-36.918;12.591;-37.849;-6.184;0.335;-10.394
4753426.214;-4.843;-10.729;-36.694;10.654;-35.539;-9.090;-1.751;-10.543
4753426.222;-4.470;-11.176;-34.533;9.760;-33.937;-10.096;-4.359;-9.909
4753426.230;-5.029;-9.723;-37.365;11.064;-41.537;-5.886;-0.149;-7.935
4753426.238;-0.820;-6.333;-32.596;14.603;-35.428;-2.943;5.141;-6.184
4753426.246;2.906;-2.906;-29.244;18.626;-32.149;-2.831;7.600;-8.121
4753426.254;2.757;-3.800;-29.020;18.142;-30.324;-5.253;5.476;-11.250
4753426.262;1.676;-5.737;-31.106;16.093;-29.877;-6.445;2.421;-9.723
4753426.270;3.017;-2.980;-30.585;17.323;-38.520;-5.104;3.092;-7.115
4753426.278;5.029;-2.161;-26.710;17.993;-32.522;-6.035;3.539;-7.749
4753426.286;4.247;-2.049;-24.363;18.291;-27.716;-6.147;3.614;-7.860
4753426.294;6.072;0.261;-23.469;20.787;-27.828;-6.072;3.390;-6.258
4753426.302;6.072;-0.149;-25.034;20.564;-30.361;-5.774;3.651;-6.035
4753426.314;4.284;-1.937;-27.828;19.558;-33.453;-9.164;0.522;-8.568
4753426.322;5.662;-1.900;-25.108;19.260;-24.587;-9.313;1.229;-8.419
4753426.330;3.204;-2.459;-28.461;20.862;-32.671;-8.941;1.825;-8.531
4753426.338;-0.484;-6.407;-31.181;15.311;-35.837;-13.970;-1.229;-13.597
4753426.346;-1.863;-9.723;-31.292;10.990;-34.422;-15.870;-4.843;-14.938
4753426.354;-3.092;-11.064;-31.143;10.096;-33.453;-14.193;-4.955;-12.703
4753426.362;-2.719;-10.394;-31.888;11.362;-33.006;-12.591;-4.917;-9.723
4753426.370;-6.966;-13.337;-37.439;8.531;-41.015;-15.348;-8.680;-12.293
4753426.378;-2.943;-10.021;-31.926;10.207;-36.620;-12.256;-6.780;-10.468
4753426.386;0.931;-5.849;-27.865;13.001;-30.845;-7.823;-4.247;-7.115
4753426.394;0.075;-6.817;-27.902;12.331;-35.465;-8.270;-4.619;-8.009
4753426.402;-1.341;-8.866;-28.349;10.431;-37.178;-9.239;-6.370;-7.898
4753426.410;2.384;-5.141;-23.060;14.566;-29.877;-7.823;-4.023;-6.482
4753426.418;2.384;-5.551;-22.352;14.342;-27.865;-9.835;-4.694;-8.978
4753426.426;3.166;-5.476;-22.575;14.603;-30.622;-11.772;-6.668;-11.176
4753426.434;0.559;-5.811;-24.848;13.933;-35.651;-13.001;-5.811;-11.362
4753426.442;-2.235;-8.494;-27.157;12.182;-37.849;-15.534;-7.264;-13.635
4753426.450;-1.751;-7.302;-25.742;12.666;-35.726;-19.222;-9.537;-16.168
4753426.458;2.868;-3.390;-21.383;16.950;-30.845;-18.142;-9.723;-15.460
4753426.466;6.519;-0.447;-17.844;18.738;-26.152;-15.981;-9.798;-13.560
4753426.474;9.499;2.943;-13.262;21.122;-23.432;-11.884;-6.855;-10.207
4753426.482;11.101;5.104;-12.070;24.028;-27.157;-9.276;-4.061;-8.754
4753426.490;12.368;5.960;-10.021;24.326;-22.762;-11.250;-6.072;-11.586
4753426.498;16.168;10.245;-6.035;29.802;-19.148;-11.548;-5.923;-11.846
4753426.477;14.976;9.313;-8.345;29.430;-24.624;-11.250;-6.147;-10.878
4753426.485;13.076;6.631;-9.462;25.593;-22.613;-9.723;-5.774;-9.201
4753426.493;13.039;6.109;-9.947;24.773;-23.134;-8.605;-4.657;-8.419
4753426.501;13.821;6.519;-7.972;24.661;-20.675;-9.015;-3.353;-9.499
4753426.509;11.846;3.874;-9.723;23.283;-20.750;-10.952;-4.210;-10.915
4753426.517;10.394;0.894;-12.219;20.862;-22.799;-13.188;-8.605;-9.798
4753426.525;12.666;4.098;-9.499;24.736;-19.632;-10.096;-7.339;-6.929
4753426.533;9.909;4.098;-15.162;25.965;-31.181;-8.605;-5.774;-5.923
4753426.541;13.709;7.488;-10.841;29.244;-23.693;-5.215;-0.782;-3.055
4753426.549;16.019;8.866;-7.190;29.653;-17.770;-1.118;6.109;-0.037
4753426.557;11.921;4.508;-10.282;24.214;-21.346;-3.688;5.551;-2.682
4753426.565;11.101;3.800;-10.021;23.507;-24.550;-6.407;1.825;-5.551
4753426.573;11.325;3.986;-10.170;23.916;-25.742;-7.302;0.186;-6.482
4753426.581;9.313;2.198;-12.256;22.091;-25.779;-12.331;-4.806;-10.803
4753426.589;10.394;3.129;-9.947;23.656;-21.309;-10.654;-3.576;-9.872
4753426.597;9.909;2.608;-10.990;23.581;-25.630;-7.153;0.633;-7.935
4753426.605;6.258;-0.969;-15.572;20.117;-27.306;-4.433;2.943;-6.743
4753426.613;7.823;1.304;-14.566;22.911;-26.189;-4.694;2.757;-6.184
4753426.621;5.923;-0.782;-16.205;18.701;-29.542;-9.239;-3.763;-8.829
4753426.629;9.462;2.421;-11.772;20.005;-26.152;-8.680;-4.917;-9.574
4753426.637;7.488;-0.671;-13.150;17.248;-25.928;-8.792;-6.892;-8.754
4753426.645;6.221;-2.496;-12.368;14.752;-23.581;-7.637;-6.706;-7.227
4753426.653;6.743;-1.565;-10.468;17.323;-20.824;-9.872;-8.494;-9.462
4753426.661;8.643;1.974;-10.282;20.638;-21.979;-10.952;-11.548;-10.394
4753426.628;11.474;4.992;-7.227;22.277;-18.775;-9.164;-11.548;-8.531
4753426.636;10.692;3.688;-7.600;21.793;-19.446;-11.884;-12.331;-10.915
4753426.644;12.964;6.072;-5.029;24.140;-14.864;-10.729;-10.021;-10.282
4753426.652;15.013;7.749;-3.465;26.450;-13.113;-7.711;-7.711;-8.233
4753426.660;13.001;7.600;-7.562;26.859;-20.117;-6.035;-5.141;-7.115
4753426.668;10.952;6.482;-9.723;25.183;-24.363;-5.104;-3.800;-5.737
4753426.676;6.668;0.559;-14.342;19.930;-26.971;-9.313;-9.947;-8.345
4753426.684;9.052;1.714;-12.591;20.005;-24.550;-10.803;-13.299;-9.201
4753426.692;10.133;1.527;-11.884;18.924;-19.148;-10.394;-12.591;-8.829
4753426.700;9.723;2.086;-13.001;18.403;-26.636;-8.196;-7.600;-7.674
4753426.708;12.480;5.960;-10.319;24.773;-22.575;-5.253;-2.310;-5.998
4753426.716;11.586;5.290;-9.090;21.867;-20.117;-4.806;-4.917;-5.253
4753426.724;14.231;8.978;-5.513;25.257;-17.174;-1.974;-4.396;-3.017
4753426.732;15.981;11.176;-3.614;28.275;-16.876;-2.012;-3.763;-2.459
4753426.740;11.139;7.562;-6.594;24.699;-18.328;-4.582;-4.284;-4.955
4753426.748;13.560;8.531;-3.800;26.152;-15.311;-3.353;-2.161;-5.662
4753426.756;17.621;11.735;-0.373;29.206;-12.778;-2.496;0.633;-4.806
4753426.764;20.228;14.454;2.868;31.181;-8.494;-4.545;-0.298;-5.998
4753426.772;23.134;16.540;6.855;33.677;-3.502;-3.912;-0.969;-3.949
4753426.780;21.271;14.044;7.786;30.361;3.688;-4.992;-2.384;-3.986
4753426.788;16.503;10.952;2.198;27.344;-9.388;-6.892;-3.539;-3.502
4753426.796;14.193;8.866;-1.378;27.008;-14.044;-7.488;-4.768;-5.104
4753426.804;14.342;10.245;-1.378;27.120;-12.256;-5.737;-4.992;-3.241
4753426.812;16.801;11.101;0.447;27.455;-8.792;-5.923;-6.184;-2.272
4753426.882;13.448;7.078;-2.980;21.867;-11.288;-7.600;-7.190;-3.092
4753426.890;12.964;6.221;-4.955;18.589;-12.144;-6.966;-6.072;-1.751
4753426.898;16.019;8.121;-3.316;19.297;-9.388;-6.482;-3.465;-0.596
4753426.906;16.429;8.270;-4.396;18.030;-13.709;-8.680;-4.619;-2.570
4753426.914;16.354;7.749;-2.533;15.497;-7.860;-10.058;-5.551;-4.098
4753426.922;19.893;11.846;1.229;17.285;-4.694;-10.319;-5.737;-3.539
4753426.930;17.099;10.245;-1.751;14.603;-8.196;-14.380;-11.325;-7.004
4753426.938;13.523;6.817;-3.874;10.431;-9.239;-13.374;-10.282;-6.668
4753426.946;11.809;6.296;-4.843;9.462;-9.947;-10.617;-9.127;-5.960
4753426.954;14.007;8.307;-3.874;10.133;-11.437;-7.749;-6.743;-4.582
4753426.962;22.501;15.609;4.992;15.274;0.149;-6.519;-5.476;-3.874
4753426.970;25.071;17.472;7.823;17.099;3.241;-9.499;-7.749;-5.364
4753426.978;24.699;18.105;5.141;17.583;-1.080;-12.778;-8.754;-8.531
4753426.986;26.263;20.862;6.743;18.924;0.410;-9.984;-4.992;-8.270
4753426.994;28.126;23.060;10.356;19.819;4.433;-8.084;-3.502;-6.519
4753427.002;30.845;28.573;11.250;24.214;4.470;-7.600;-3.651;-6.258
4753427.010;32.261;29.802;11.958;24.252;5.588;-8.792;-5.849;-7.413
4753427.018;31.851;29.318;14.119;22.575;8.568;-7.749;-5.253;-6.706
4753427.026;30.510;30.473;10.505;22.799;4.843;-3.502;0.298;-2.980
4753427.034;29.244;29.691;7.711;22.985;1.676;0.745;3.427;-0.745
4753427.042;30.473;29.765;13.113;20.675;7.786;4.992;5.178;2.161
4753427.050;31.926;32.000;15.162;21.718;9.313;6.370;6.855;4.023
4753427.058;31.143;29.951;15.497;19.632;8.680;1.341;1.900;1.341
4753427.066;32.447;30.734;15.832;18.366;10.766;0.335;-0.820;0.224
4753427.107;34.012;32.298;16.764;19.707;8.605;0.633;0.373;-0.745
4753427.115;33.379;31.628;16.950;17.360;6.855;1.304;0.112;-0.037
4753427.123;34.422;31.628;20.340;14.380;14.864;3.204;-0.410;1.825
4753427.131;35.241;33.714;18.291;16.727;4.098;5.551;1.118;4.508
4753427.139;38.557;36.657;22.314;19.632;10.245;7.153;3.092;5.215
4753427.147;42.021;38.743;26.003;22.948;18.179;6.296;4.023;3.129
4753427.155;42.170;40.978;24.363;25.816;15.981;7.339;5.402;3.614
4753427.163;18.813;22.240;-0.447;6.743;-10.766;8.680;7.860;4.619
4753427.171;32.298;27.604;24.401;8.680;20.713;2.123;2.161;-0.186
4753427.179;67.018;56.289;65.155;29.765;50.515;-0.261;0.708;-0.708
4753427.187;92.462;73.873;95.628;37.402;75.810;4.657;3.241;5.029
4753427.195;112.429;85.831;124.201;40.345;101.142;9.201;2.719;8.866
4753427.203;125.989;92.536;143.759;37.849;119.805;10.096;2.608;8.903
4753427.211;129.491;92.424;152.960;30.324;131.875;7.302;-1.080;8.568
4753427.219;129.826;90.376;160.150;20.154;146.590;4.806;-4.172;6.482
4753427.227;130.199;87.805;167.601;13.523;162.795;3.129;-5.737;7.525
4753427.235;124.127;79.460;164.062;2.533;158.288;0.708;-9.462;6.296
4753427.243;114.478;69.402;155.196;-8.903;152.290;-2.980;-12.182;0.596
4753427.251;107.847;64.187;149.794;-13.709;149.757;-1.453;-8.903;1.155
4753427.259;103.079;59.679;145.137;-18.179;147.857;0.000;-5.104;0.671
4753427.267;95.777;51.558;136.793;-26.114;140.704;-0.633;-6.482;0.000
4753427.275;88.476;45.151;129.081;-32.224;136.159;-0.931;-9.388;1.676
4753427.283;81.658;39.265;122.376;-36.471;130.497;1.267;-10.952;5.178
4753427.291;76.629;35.875;117.123;-37.625;124.313;3.725;-11.064;7.004
4753427.303;77.039;37.216;117.645;-34.831;126.883;6.258;-8.866;7.004
4753427.311;71.861;31.963;112.727;-40.270;118.650;1.788;-10.245;0.373
4753427.319;69.998;30.100;113.994;-42.841;121.184;-3.204;-11.623;-6.258
4753427.327;69.402;31.106;112.504;-41.462;119.470;-4.321;-9.984;-5.625
4753427.335;71.302;31.032;111.684;-38.296;116.527;-2.831;-5.662;-2.161
4753427.343;70.892;27.567;111.423;-41.798;116.304;-4.880;-7.525;-3.092
4753427.351;69.141;24.773;110.343;-43.586;115.223;-5.662;-9.350;-3.427
4753427.359;72.308;28.610;114.925;-40.159;121.668;0.559;-7.302;2.794
4753427.367;72.122;29.691;113.361;-38.221;117.570;7.041;-3.204;8.009
4753427.375;71.824;29.467;110.343;-37.141;112.876;8.717;-2.459;7.562
4753427.383;70.892;29.132;108.592;-35.949;111.908;11.884;0.745;9.090
4753427.391;65.863;23.134;103.191;-40.941;107.028;13.374;0.931;10.021
4753427.399;56.662;15.646;94.213;-47.758;98.050;17.956;2.570;14.305
4753427.407;70.296;27.046;108.145;-36.582;108.443;18.068;0.596;15.683
4753427.415;71.898;25.444;112.355;-38.929;114.962;15.981;-5.327;15.385
4753427.423;75.847;29.542;115.409;-32.820;114.553;13.150;-7.302;13.299
4753427.431;73.947;25.630;111.535;-36.620;110.865;10.133;-9.015;9.947
4753427.439;72.829;24.624;109.263;-37.625;104.979;11.027;-7.935;11.623
4753427.447;70.520;24.103;108.182;-36.843;107.549;12.405;-5.625;14.640
4753427.455;63.218;15.572;102.036;-43.251;103.824;9.462;-8.643;11.101
4753427.463;63.144;14.231;100.918;-44.592;100.508;8.345;-8.270;8.605
4753427.471;69.216;19.222;106.394;-39.078;105.575;6.780;-7.302;5.774
4753427.479;71.675;23.767;108.257;-32.969;108.145;7.376;-7.711;6.631
4753427.487;71.600;24.326;106.357;-33.006;105.388;9.537;-6.706;9.499
4753427.483;68.955;21.122;105.351;-35.837;105.724;5.290;-9.313;7.786
4753427.491;68.173;21.830;103.861;-33.341;97.379;4.433;-8.866;6.370
4753427.499;65.379;17.807;101.104;-37.663;97.193;0.261;-11.362;2.012
4753427.507;70.408;22.650;107.065;-32.112;102.893;0.782;-10.170;1.527
4753427.515;74.245;27.083;111.386;-27.753;107.661;1.304;-8.307;3.949
4753427.523;71.675;27.195;109.896;-26.338;103.600;2.161;-6.743;5.104
4753427.531;72.643;29.840;112.690;-24.736;107.251;3.651;-5.215;6.184
4753427.539;76.219;32.447;115.894;-19.930;113.174;5.178;-4.470;7.935
4753427.547;73.723;31.255;110.455;-19.148;103.079;0.633;-8.233;4.545
4753427.555;73.984;32.373;110.194;-18.440;103.079;-1.416;-7.935;2.608
4753427.563;71.116;29.206;105.985;-21.420;98.459;-4.210;-7.711;-1.602
4753427.571;71.861;29.728;106.506;-20.750;97.342;-4.396;-7.711;-2.496
4753427.579;71.637;30.734;104.904;-17.025;93.803;-3.986;-9.611;-1.304
4753427.587;74.543;33.304;108.555;-14.864;98.571;-1.378;-9.611;2.608
4753427.595;71.041;29.393;106.655;-19.297;102.669;-2.012;-10.505;2.421
4753427.603;63.628;21.830;96.746;-25.779;86.874;-5.588;-15.572;0.186
4753427.611;64.448;21.830;98.087;-26.673;91.009;-7.115;-18.701;-1.639
4753427.619;69.179;25.593;103.116;-23.022;94.175;-7.153;-17.509;-2.384
4753427.627;72.569;29.020;107.214;-20.079;97.416;-7.562;-14.938;-4.135
4753427.635;69.477;26.152;102.744;-23.097;92.797;-7.637;-13.076;-4.582
4753427.643;68.247;25.742;101.551;-22.054;93.132;-9.388;-13.858;-6.780
4753427.651;68.657;26.263;102.781;-20.005;90.934;-9.201;-12.852;-6.333
4753427.659;69.961;28.014;104.792;-17.211;92.983;-5.886;-9.723;-2.868
4753427.667;75.474;34.384;109.188;-9.835;94.846;-2.161;-6.966;-0.745
4753427.662;77.151;36.247;112.280;-6.333;98.571;0.000;-5.662;0.522
4753427.670;73.090;34.086;106.692;-6.258;92.946;1.118;-4.806;3.055
4753427.678;69.365;31.851;100.583;-7.413;88.438;4.806;-1.118;6.184
4753427.686;70.520;33.453;100.881;-5.327;89.146;6.557;1.565;4.098
4753427.694;76.443;40.457;107.363;1.714;93.803;8.941;4.508;6.109
4753427.702;76.666;40.755;106.432;1.416;91.344;8.643;4.657;6.370
4753427.710;74.767;38.706;105.351;-0.782;91.642;7.488;3.688;5.774
4753427.718;70.296;35.800;99.540;-1.267;86.091;4.247;2.123;4.098
4753427.726;67.800;31.404;97.528;-5.551;85.793;1.229;-0.894;1.714
4753427.734;64.336;26.785;95.256;-10.841;84.117;-2.682;-4.880;-3.129
4753427.742;67.055;29.840;98.385;-6.445;88.997;0.596;-3.427;-0.186
4753427.750;63.367;28.461;92.201;-6.072;80.988;0.373;-5.178;0.782
4753427.758;62.212;29.653;90.934;-4.470;76.592;2.384;-3.539;4.284
4753427.766;62.697;28.238;94.250;-4.843;81.360;5.886;0.224;8.345
4753427.774;49.695;13.411;82.515;-19.819;69.551;-0.782;-4.880;0.857
4753427.782;48.168;11.772;81.249;-19.819;73.463;-4.806;-6.743;-4.210
4753427.790;61.579;26.301;92.685;-4.508;75.810;-1.565;-1.602;-0.931
4753427.798;60.126;25.444;90.897;-4.284;74.618;-2.943;-4.172;-1.714
4753427.806;55.581;22.911;85.495;-4.172;71.600;-5.998;-8.084;-3.614
4753427.814;56.401;22.911;85.458;-4.135;70.743;-4.768;-6.258;-1.565
4753427.822;56.885;23.060;86.054;-3.763;69.030;-2.943;-4.210;-1.974
4753427.830;57.258;24.624;85.533;-0.112;69.737;-0.894;-2.608;-1.155
4753427.838;55.209;24.401;82.776;0.484;66.273;-0.633;-2.719;-0.037
4753427.846;52.042;21.681;79.162;-3.316;63.404;-2.012;-3.725;-0.633
4753427.948;53.905;22.911;81.360;-1.192;68.471;0.782;-1.863;1.416
4753427.956;57.071;25.816;86.688;2.049;75.214;3.055;0.075;3.837
4753427.964;54.650;23.544;82.813;0.708;70.222;1.080;-2.347;3.204
4753427.972;57.369;26.003;84.937;3.539;71.153;3.427;1.602;5.588
4753427.980;57.630;23.991;83.782;1.825;71.824;1.714;0.000;2.086
4753427.988;55.321;21.979;81.100;-0.745;69.328;-1.304;-4.694;-0.931
4753427.996;50.440;16.876;76.815;-7.749;66.236;-4.545;-9.760;-3.316
4753428.004;51.968;16.689;78.939;-8.717;68.881;-4.284;-10.766;-3.539
4753428.012;59.381;24.512;85.644;-1.192;75.400;0.335;-5.513;-0.373
4753428.020;62.101;28.871;87.097;4.135;77.635;1.267;-1.900;1.378
4753428.028;60.648;28.238;85.756;1.863;76.815;-2.868;-7.264;-2.161
4753428.036;61.207;27.716;85.086;-1.080;74.208;-2.794;-8.754;-3.055
4753428.044;61.318;27.567;86.017;-2.347;75.735;-3.278;-7.674;-2.868
4753428.052;59.344;25.705;83.596;-5.662;72.233;-4.135;-9.015;-2.980
4753428.060;57.854;23.693;81.547;-7.860;70.482;-5.141;-10.543;-1.825
4753428.068;54.836;20.415;79.609;-11.660;71.004;-6.482;-12.554;-1.714
4753428.076;55.209;20.675;80.764;-10.058;72.233;-3.129;-10.096;0.224
4753428.084;56.066;22.687;80.280;-8.456;69.849;-1.341;-7.264;0.671
4753428.092;58.860;25.406;83.968;-8.456;76.182;0.075;-2.459;1.490
4753428.100;60.089;25.369;84.154;-9.574;76.219;1.304;-1.304;2.347
4753428.108;58.301;23.209;81.509;-9.499;71.190;0.745;-3.278;1.043
4753428.116;63.069;25.369;87.246;-7.935;76.629;3.465;-1.714;3.316
4753428.124;62.734;24.065;87.656;-9.499;77.002;-0.671;-7.376;0.857
4753428.132;60.648;22.352;84.415;-10.729;73.574;-2.012;-9.350;-0.484
4753428.143;64.485;25.369;87.060;-6.668;78.268;1.937;-3.166;1.676
4753428.151;66.347;27.902;88.625;-4.508;80.168;4.731;2.198;3.576
4753428.159;64.336;26.822;86.129;-5.476;77.970;5.849;3.092;3.837
4753428.167;59.344;22.426;80.615;-8.270;74.357;3.278;-0.820;0.931
4753428.175;57.332;20.266;78.864;-10.692;69.961;2.608;-2.980;0.484
4753428.183;54.799;18.440;77.076;-12.740;67.316;-0.037;-6.519;-2.161
4753428.191;54.799;18.142;76.331;-14.640;67.204;-0.112;-5.960;-2.198
4753428.199;59.679;22.650;80.429;-9.909;70.632;3.353;-2.310;2.086
4753428.207;57.071;21.420;77.188;-9.574;65.528;3.092;-2.198;3.278
4753428.215;55.656;21.532;78.119;-10.245;70.482;3.763;-3.055;3.651
4753428.223;56.773;20.675;78.678;-12.033;71.190;2.347;-7.004;3.874
4753428.231;55.805;19.111;75.139;-12.517;64.224;-0.373;-9.276;1.080
4753428.239;55.395;20.154;76.145;-11.176;68.769;2.384;-4.098;-0.820
4753428.247;57.220;21.346;79.721;-9.313;76.219;2.570;-1.825;-1.378
4753428.255;53.719;18.813;74.320;-10.617;66.161;1.751;-4.917;-2.682
4753428.263;48.839;12.815;70.482;-15.870;62.771;0.298;-8.643;-3.800
4753428.271;46.380;9.611;67.689;-19.707;59.232;0.261;-10.058;-2.347
4753428.279;46.156;11.511;67.577;-18.552;60.908;0.782;-7.451;-1.825
4753428.287;48.168;14.156;69.924;-13.150;64.299;1.937;-4.657;-2.645
4753428.295;46.492;11.809;69.439;-13.821;62.399;1.378;-4.210;-4.582
4753428.303;44.703;9.201;67.763;-14.827;60.908;1.006;-3.465;-4.433
4753428.311;43.139;7.264;65.826;-18.738;58.860;3.241;-2.123;-1.118
4753428.319;44.629;7.302;69.365;-20.377;63.442;2.645;-5.625;0.335
4753428.327;45.188;7.115;69.216;-20.340;63.404;-1.900;-11.250;-2.384
4753428.276;46.417;8.605;70.110;-19.036;63.665;-0.447;-10.654;-1.490
4753428.284;46.901;8.941;69.812;-16.987;64.373;2.123;-8.084;-0.931
4753428.292;46.864;10.505;68.024;-13.895;63.926;1.267;-5.588;-4.619
4753428.300;47.721;10.170;69.998;-15.236;65.714;1.304;-3.353;-4.657
4753428.308;45.821;7.637;66.757;-15.050;61.579;-2.682;-7.376;-7.078
4753428.316;47.162;11.921;67.130;-8.829;61.207;-2.049;-8.568;-5.402
4753428.324;49.435;14.491;70.408;-6.407;64.336;-1.676;-7.674;-3.539
4753428.332;45.896;8.829;66.869;-11.921;61.132;-5.513;-11.697;-6.929
4753428.340;44.666;6.072;65.081;-14.193;61.058;-7.376;-13.113;-9.611
4753428.348;48.429;8.568;67.838;-10.394;64.932;-5.141;-8.792;-7.637
4753428.356;46.641;6.817;65.528;-12.927;58.934;-2.608;-6.743;-5.476
4753428.364;42.617;4.806;61.542;-14.417;55.321;-4.545;-9.686;-6.035
4753428.372;38.147;2.757;58.748;-15.832;53.644;-6.743;-10.394;-7.860
4753428.380;39.302;3.390;61.207;-13.970;55.656;-7.674;-9.574;-9.909
4753428.388;38.072;0.782;58.562;-16.205;52.527;-9.835;-11.288;-12.480
4753428.396;40.121;2.943;59.828;-13.076;54.464;-8.009;-8.903;-9.537
4753428.404;46.417;9.201;66.832;-6.817;62.622;-3.241;-4.061;-5.737
4753428.412;49.993;14.417;68.061;-1.937;61.356;-4.023;-3.427;-7.600
4753428.420;48.354;14.305;64.373;0.075;56.699;-2.645;-2.608;-6.333
4753428.428;45.225;10.990;63.404;-4.321;55.172;-2.421;-4.731;-5.588
4753428.436;43.549;10.021;61.654;-5.588;50.776;-4.396;-6.296;-6.892
4753428.444;37.514;4.396;56.587;-8.158;49.248;-8.754;-8.978;-10.058
4753428.452;34.273;1.937;52.676;-9.649;45.523;-7.562;-7.190;-9.462
4753428.460;35.316;2.682;53.123;-8.866;46.119;-5.327;-6.333;-7.078
4753428.468;37.700;5.625;54.576;-5.402;46.939;-5.998;-7.153;-7.525
4753428.476;42.170;10.468;59.940;-1.006;53.011;-2.980;-3.278;-6.072
4753428.484;39.749;8.270;58.115;-2.123;51.074;-2.831;-2.645;-6.147
4753428.492;38.072;9.276;57.220;-1.490;47.982;-5.364;-5.923;-8.158
4753428.443;42.431;14.864;60.685;4.657;49.360;-5.029;-6.258;-7.786
4753428.451;44.145;17.211;62.846;6.184;53.719;-7.078;-9.984;-8.009
4753428.459;44.443;18.999;63.181;7.562;53.309;-5.327;-9.127;-6.333
4753428.467;43.474;18.589;62.920;9.239;52.936;-1.900;-5.849;-4.359
4753428.475;37.625;13.411;56.028;5.215;44.443;-3.502;-7.935;-6.929
4753428.483;36.731;11.995;54.836;3.129;44.815;-3.092;-6.221;-7.823
4753428.491;36.135;10.096;54.315;1.192;46.007;-3.353;-4.657;-7.674
4753428.499;36.620;11.735;53.048;3.204;43.586;-1.751;-2.459;-4.694
4753428.507;36.284;11.735;55.432;3.614;45.225;-1.490;-2.943;-3.465
4753428.515;39.116;14.789;58.562;7.264;50.515;-1.304;-2.570;-5.178
4753428.523;43.064;19.260;61.095;11.548;52.005;1.192;0.261;-4.135
4753428.531;41.835;19.111;58.040;12.964;45.039;1.714;-0.186;-3.465
4753428.539;37.365;14.976;54.352;9.574;43.176;2.421;0.373;-2.123
4753428.547;32.522;10.431;49.435;6.333;37.141;0.782;0.261;-2.384
4753428.555;33.602;12.070;51.558;7.413;38.259;-1.676;-1.490;-2.831
4753428.563;34.608;13.858;53.942;10.133;42.990;-3.837;-5.178;-4.955
4753428.571;35.055;13.039;54.054;10.096;44.331;-4.247;-6.706;-6.407
4753428.579;37.178;15.199;56.140;12.815;42.394;0.782;-0.857;-0.484
4753428.587;34.571;11.772;54.501;9.835;43.809;1.863;-0.112;2.310
4753428.595;30.920;9.574;48.466;8.419;40.606;-3.502;-4.992;-2.049
4753428.603;32.596;11.474;49.137;9.947;37.998;-8.158;-8.605;-6.072
4753428.611;32.671;11.809;49.137;10.431;37.774;-7.115;-6.147;-5.774
4753428.619;34.049;13.486;51.148;12.182;42.245;-2.496;-0.410;-2.310
4753428.627;31.330;9.835;47.833;7.227;40.308;-2.868;-2.645;-2.384
4753428.608;32.932;13.076;48.093;11.064;38.706;-1.602;-1.639;-1.714
4753428.616;30.100;10.803;45.709;9.723;37.141;-4.843;-4.061;-4.508
4753428.624;25.220;6.035;41.649;4.508;34.943;-10.468;-9.798;-8.009
4753428.632;26.375;7.562;41.537;5.290;30.510;-10.282;-9.537;-7.115
4753428.640;32.224;12.554;46.305;11.027;35.353;-6.184;-5.737;-4.992
4753428.648;33.341;13.597;47.572;12.033;36.918;-5.849;-6.482;-4.955
4753428.656;29.132;8.866;43.586;7.860;33.826;-8.345;-9.872;-5.737
4753428.664;22.165;3.576;35.167;4.321;25.034;-9.984;-11.586;-6.631
4753428.672;17.248;1.416;30.845;3.651;20.489;-9.090;-8.903;-6.929
4753428.680;19.334;2.719;33.006;6.109;21.197;-5.402;-3.502;-4.880
4753428.688;24.661;7.749;38.520;8.941;26.003;-4.135;-2.645;-3.092
4753428.696;27.940;10.170;42.915;8.754;32.671;-4.731;-4.843;-3.017
4753428.704;29.206;10.878;42.878;9.723;32.485;-1.267;-2.347;0.931
4753428.712;21.830;5.923;35.390;5.141;26.561;0.596;-1.416;2.980
4753428.720;14.156;-2.161;28.275;-3.129;18.552;-2.421;-6.929;0.633
4753428.728;15.311;-1.229;29.728;-2.086;19.297;-6.035;-12.517;-1.751
4753428.736;16.801;2.757;32.261;2.943;21.271;-4.917;-9.201;-0.894
4753428.744;19.446;5.811;33.677;5.625;21.718;-1.043;-4.172;1.416
4753428.752;19.111;5.402;28.871;2.570;20.079;2.868;-2.906;4.731
4753428.760;20.675;5.662;34.161;2.310;23.730;7.525;-0.186;8.233
4753428.768;17.434;4.508;31.106;1.602;17.509;8.456;1.974;8.531
4753428.776;11.474;-2.161;26.375;-4.061;14.715;3.576;-1.490;4.247
4753428.784;7.525;-4.806;24.363;-4.582;13.933;1.192;-1.825;2.421
4753428.792;5.178;-6.557;21.607;-7.227;11.437;-3.465;-6.184;-3.502
4753428.773;7.823;-4.023;19.819;-4.657;7.376;-9.239;-12.554;-9.425
4753428.781;11.474;-0.037;23.022;-2.123;12.703;-11.213;-16.503;-9.462
4753428.789;18.924;7.227;32.336;4.582;22.836;-0.037;-7.264;3.241
4753428.797;17.807;7.562;32.373;7.823;20.564;10.096;3.725;12.554
4753428.805;11.362;2.533;27.269;3.353;13.858;11.772;6.668;12.107
4753428.813;6.333;-2.794;20.340;-0.522;5.290;7.004;2.123;7.190
4753428.821;3.651;-5.774;19.036;-3.800;5.402;-0.745;-6.892;-0.037
4753428.829;4.694;-4.619;18.813;-3.576;3.837;-4.619;-11.139;-4.843
4753428.837;5.923;-2.012;20.154;-0.596;12.219;-7.115;-11.437;-8.233
4753428.845;7.264;-1.155;19.930;0.373;7.413;-4.470;-7.451;-7.153
4753428.853;7.972;-1.565;20.862;1.006;8.531;1.118;-3.055;-1.937
4753428.861;11.213;1.863;23.469;3.837;13.188;5.700;-0.745;3.166
4753428.869;11.958;1.304;23.469;2.943;15.423;7.674;0.335;7.302
4753428.877;5.662;-4.433;17.136;-0.224;7.711;4.321;-1.863;6.892
4753428.885;2.198;-6.072;13.113;-0.224;2.272;4.098;0.596;5.588
4753428.893;-1.974;-8.084;9.984;-1.863;0.075;2.161;0.559;1.341
4753428.901;1.043;-4.061;14.678;1.378;6.333;-2.384;-2.682;-3.427
4753428.909;4.396;-1.751;17.136;4.545;6.743;-1.825;-4.843;-3.241
4753428.917;1.192;-5.588;13.374;0.596;3.353;-1.676;-6.594;-3.763
4753428.925;1.751;-4.657;14.044;-0.410;4.470;3.502;-4.917;1.639
4753428.933;1.229;-6.668;12.927;-1.527;3.316;6.445;-2.943;6.258
4753428.941;-2.533;-10.617;9.276;-6.072;1.788;3.427;-4.582;6.109
4753428.949;-4.545;-12.740;6.706;-9.350;0.894;3.949;-1.155;6.407
4753428.957;-0.633;-7.972;9.127;-4.619;-1.416;5.923;3.129;8.680
4753428.982;3.465;-2.943;11.399;-0.112;2.645;6.296;4.433;9.537
4753428.990;1.453;-4.545;8.196;-1.900;-0.745;2.459;2.198;5.439
4753428.998;0.708;-4.061;5.439;-2.980;-3.502;-0.857;-0.484;2.235
4753429.006;0.857;-4.321;7.078;-5.998;0.373;0.037;-0.410;3.055
4753429.014;-3.204;-7.264;1.341;-8.382;-8.531;1.006;0.596;3.278
4753429.022;-3.576;-6.668;0.149;-10.766;-10.543;1.229;0.857;3.017
4753429.030;-0.335;-4.880;5.513;-9.947;-2.198;3.874;2.049;4.247
4753429.038;1.676;-4.098;8.643;-9.425;-1.043;5.364;2.384;5.923
4753429.046;6.221;0.596;13.784;-3.800;2.384;8.792;4.955;9.984
4753429.054;8.047;1.714;15.236;-2.347;3.502;9.015;4.508;10.394
4753429.062;8.866;2.384;15.832;-1.788;1.937;6.855;2.533;7.562
4753429.070;12.964;6.221;19.707;2.012;7.786;4.359;2.198;4.619
4753429.078;14.938;9.052;20.862;5.476;9.499;3.502;4.210;3.912
4753429.086;9.686;3.055;15.907;-1.155;5.215;2.645;3.353;3.166
4753429.094;10.543;2.310;17.099;-1.453;10.394;4.843;4.619;5.625
4753429.102;5.774;-2.384;12.629;-6.892;8.270;8.233;5.625;9.723
4753429.110;3.092;-5.029;9.686;-9.090;3.949;8.345;5.364;9.499
4753429.118;4.284;-4.135;9.015;-8.754;1.676;6.184;2.161;5.029
4753429.126;8.084;0.186;12.182;-5.811;5.402;5.402;1.565;4.955
4753429.134;8.941;1.602;13.895;-5.662;7.153;2.049;-0.596;3.129
4753429.142;8.382;3.576;13.188;-3.800;6.706;-2.198;-4.247;-0.224
4753429.150;7.935;2.645;11.288;-4.843;1.416;-4.433;-8.494;-1.155
4753429.158;9.574;3.204;12.666;-4.694;4.470;-2.086;-7.637;1.341
4753429.166;7.488;1.341;10.207;-6.855;4.731;0.410;-5.141;2.570
4753429.119;5.104;-1.900;7.041;-8.047;1.080;-1.751;-5.625;0.037
4753429.127;4.172;-3.763;7.674;-10.468;4.098;-1.974;-6.184;-0.559
4753429.135;2.906;-6.892;6.147;-13.858;3.986;1.192;-2.645;1.490
4753429.143;-3.278;-11.027;0.596;-17.285;-4.545;0.149;-1.937;0.671
4753429.151;-1.937;-9.537;5.141;-16.540;1.006;3.576;2.906;4.172
4753429.159;-6.035;-13.672;-0.112;-18.552;-4.843;0.261;-0.559;0.447
4753429.167;-9.127;-16.466;-2.831;-20.787;-5.811;-4.619;-5.178;-5.551
4753429.175;-6.445;-13.858;-0.261;-18.217;-2.459;-4.321;-4.396;-7.339
4753429.183;-1.565;-8.419;2.459;-12.778;-1.788;-2.906;-2.123;-4.806
4753429.191;1.229;-3.949;5.402;-8.047;2.235;-1.863;-1.229;-3.353
4753429.199;-0.261;-6.221;4.992;-11.213;4.359;-4.992;-4.023;-4.992
4753429.207;2.347;-3.651;6.743;-8.754;4.657;-5.998;-4.545;-4.023
4753429.215;5.364;-1.192;7.823;-5.960;7.711;-5.923;-4.135;-4.172
4753429.223;4.023;-2.012;5.513;-7.562;5.402;-7.600;-6.445;-4.917
4753429.231;1.304;-3.465;2.384;-9.239;-0.373;-8.419;-8.084;-5.551
4753429.239;3.576;-1.080;4.917;-6.668;3.241;-7.823;-6.929;-6.296
4753429.247;8.270;4.284;8.009;-1.155;5.178;-5.066;-2.496;-4.768
4753429.255;8.903;4.806;7.749;-1.229;6.631;-7.190;-3.465;-5.290
4753429.263;0.186;-4.731;-1.639;-11.027;-3.017;-13.746;-10.692;-8.978
4753429.271;2.198;-4.657;0.745;-11.884;-2.049;-16.242;-14.119;-11.623
4753429.279;4.396;-3.278;3.539;-9.984;3.316;-19.819;-18.552;-12.852
4753429.287;6.370;-1.863;4.359;-10.729;2.645;-20.564;-20.340;-14.491
4753429.295;7.115;-1.639;6.706;-9.052;6.855;-17.658;-16.764;-13.113
4753429.303;0.708;-7.711;1.527;-12.927;2.608;-16.987;-16.689;-13.337
4753429.254;-3.316;-10.431;-1.527;-16.801;-3.055;-14.491;-15.236;-11.586
4753429.262;-3.912;-10.170;-0.410;-16.391;-2.608;-11.660;-12.070;-8.941
4753429.270;-1.341;-6.966;1.118;-11.213;-1.006;-10.133;-8.158;-8.382
4753429.278;-0.894;-7.749;1.751;-11.139;-0.484;-11.437;-10.245;-11.697
4753429.286;1.900;-4.023;4.396;-7.078;-0.298;-10.766;-11.995;-9.984
4753429.294;3.614;-1.527;6.855;-5.700;1.825;-7.711;-10.580;-6.221
4753429.302;5.402;-0.522;10.207;-4.061;8.605;-3.837;-6.407;-3.129
4753429.310;9.015;4.098;11.995;1.639;6.221;-0.410;-3.017;-0.857
4753429.318;9.872;3.539;11.958;1.304;5.774;-3.874;-5.886;-3.092
4753429.326;10.319;4.992;12.293;4.247;7.227;-2.384;-3.688;-2.235
4753429.334;12.368;8.382;13.635;7.637;8.121;1.118;-0.522;0.671
4753429.342;12.554;7.525;14.342;6.892;10.207;-3.725;-3.837;-2.980
4753429.350;10.841;6.482;12.927;6.407;10.319;-3.465;-3.539;-3.986
4753429.358;13.150;8.978;14.119;10.170;9.872;0.484;0.335;-0.969
4753429.366;11.660;7.972;13.225;6.855;9.313;-1.639;-3.353;-0.224
4753429.374;8.084;5.253;9.164;4.806;4.917;-5.104;-5.923;-1.900
4753429.382;9.052;6.892;10.431;7.674;7.339;-3.278;-3.427;-1.118
4753429.390;11.139;9.090;14.380;8.829;11.586;-1.080;0.335;0.000
4753429.398;8.754;8.792;12.293;9.164;7.637;-2.235;-0.373;-2.943
4753429.406;10.207;10.617;13.150;12.107;9.462;0.224;1.304;-0.037
4753429.414;10.356;9.909;13.933;9.760;12.666;0.745;0.484;1.639
4753429.422;4.992;4.061;9.947;4.135;9.239;-1.825;-2.906;0.261
4753429.430;5.290;4.582;9.649;6.333;6.370;0.224;-1.751;3.390
4753429.438;3.204;0.820;7.600;2.868;3.725;-1.825;-4.843;2.347
4753429.448;0.596;-1.006;5.886;0.931;1.788;-2.943;-5.402;-1.416
4753429.456;1.490;1.565;5.066;3.166;-0.224;1.565;0.559;2.272
4753429.464;1.825;3.129;5.551;5.290;0.410;4.172;4.508;3.725
4753429.472;7.190;8.196;11.772;11.288;4.061;8.866;8.754;7.153
4753429.480;9.350;10.580;13.299;14.864;3.316;7.525;6.407;6.407
4753429.488;10.766;13.001;13.784;16.168;1.639;5.215;3.017;4.321
4753429.496;18.515;22.464;21.271;25.928;9.611;9.760;7.786;8.121
4753429.504;14.380;18.403;16.615;20.601;7.786;4.396;2.533;4.023
4753429.512;11.548;16.689;13.150;17.434;3.800;3.874;3.688;4.061
4753429.520;8.680;14.417;8.754;15.981;-0.075;3.166;3.278;3.316
4753429.528;5.253;12.182;7.264;14.901;-1.527;4.731;2.161;2.533
4753429.536;3.688;10.282;8.866;12.815;1.937;7.674;3.874;3.129
4753429.544;0.857;7.525;5.625;9.201;-3.241;6.780;2.608;2.794
4753429.552;2.831;10.021;6.296;12.070;-3.427;7.339;5.029;3.651
4753429.560;4.210;11.064;7.972;14.119;-1.043;4.359;1.937;5.327
4753429.568;3.316;12.442;8.643;15.087;0.484;0.410;-1.714;3.465
4753429.576;3.912;14.119;8.941;16.242;2.123;2.459;2.310;2.719
4753429.584;1.341;12.666;5.737;16.093;-0.484;3.576;6.258;2.310
4753429.592;4.880;17.770;9.872;22.501;2.831;6.892;11.697;2.310
4753429.600;8.978;21.420;13.970;26.226;4.210;8.717;13.448;2.272
4753429.608;10.096;21.420;15.311;24.624;3.949;8.866;13.150;3.390
4753429.616;11.399;21.495;19.409;24.140;8.307;8.084;11.064;2.682
4753429.624;10.692;21.048;19.334;24.140;9.537;5.104;6.631;0.969
4753429.632;10.319;20.675;17.472;23.469;6.407;6.855;7.302;2.868
4753429.597;9.350;19.595;16.950;21.905;6.296;8.345;8.605;6.445
4753429.605;4.955;16.391;12.666;19.595;1.378;6.631;5.811;5.811
4753429.613;5.551;16.801;10.356;19.595;-2.645;8.047;6.035;6.035
4753429.621;4.545;14.454;9.201;17.919;-0.857;7.264;3.837;6.557
4753429.629;1.006;12.554;5.700;17.397;-6.221;7.674;4.694;8.754
4753429.637;-2.533;7.786;2.459;13.113;-9.499;7.823;3.800;9.201
4753429.645;-4.210;5.811;0.149;10.766;-11.139;7.488;3.539;8.158
4753429.653;-3.427;7.525;1.192;11.697;-8.009;8.941;4.992;9.872
4753429.661;0.075;10.394;3.204;14.789;-6.258;5.998;2.421;7.190
4753429.669;2.906;12.182;7.004;16.317;-0.633;2.049;0.224;2.533
4753429.677;2.906;11.548;6.594;17.583;-3.092;1.304;0.931;2.570
4753429.685;0.149;8.307;3.502;15.609;-8.233;-0.857;-0.224;2.719
4753429.693;2.570;10.841;6.817;18.366;-4.508;2.682;1.416;5.886
4753429.701;1.341;10.617;5.737;18.440;-5.327;3.800;0.186;7.041
4753429.709;-2.086;8.866;3.912;16.056;-6.407;2.086;-0.708;7.227
4753429.717;-5.178;4.955;-0.522;11.772;-10.245;0.969;-1.192;6.855
4753429.725;-8.158;0.894;-3.763;6.296;-12.480;-1.453;-2.682;4.843
4753429.733;-10.543;-1.453;-5.774;3.763;-12.368;-3.539;-1.565;2.496
4753429.741;-6.109;3.316;-3.427;10.654;-13.895;-1.527;1.341;3.912
4753429.749;-3.204;6.668;0.037;11.995;-12.964;-1.192;1.490;5.066
4753429.757;-2.421;8.307;1.118;13.635;-11.399;2.235;4.806;8.121
4753429.765;-4.768;6.780;-0.484;12.591;-9.723;8.568;9.798;13.784
4753429.773;-11.325;2.421;-7.525;9.984;-17.211;13.970;13.746;18.515
4753429.781;-17.881;-4.172;-15.385;3.353;-28.647;9.723;8.754;12.629
4753429.822;-19.334;-6.706;-15.683;-0.931;-27.493;5.290;2.757;6.035
4753429.830;-18.328;-6.482;-13.076;-0.484;-23.581;3.092;-0.149;5.551
4753429.838;-18.999;-8.196;-13.560;-2.347;-23.693;0.857;-1.639;4.172
4753429.846;-15.832;-5.923;-11.139;-1.080;-17.807;1.118;0.335;4.061
4753429.854;-15.199;-3.763;-15.087;1.527;-23.432;1.974;3.017;5.402
4753429.862;-12.815;-1.043;-12.591;6.855;-22.799;1.378;2.496;4.806
4753429.870;-11.809;-0.820;-9.649;7.898;-18.142;-0.969;-0.782;2.570
4753429.878;-10.990;0.224;-9.835;8.829;-19.930;-0.484;-1.676;3.874
4753429.886;-8.717;2.421;-8.196;11.958;-19.856;2.347;1.378;6.370
4753429.894;-10.692;0.149;-11.288;10.133;-22.352;3.390;2.868;7.786
4753429.902;-12.778;-3.874;-12.890;5.104;-24.214;3.576;1.639;8.941
4753429.910;-12.815;-5.551;-13.299;4.582;-20.228;2.123;1.453;7.190
4753429.918;-14.082;-5.253;-16.242;5.811;-23.544;-0.298;-0.522;4.619
4753429.926;-7.972;1.937;-8.754;12.368;-17.025;1.043;1.341;4.508
4753429.934;-5.737;4.582;-7.525;13.746;-16.987;-3.241;-2.086;1.602
4753429.942;-4.657;5.476;-6.594;14.119;-17.621;-3.725;-1.527;1.527
4753429.950;-7.302;1.267;-8.680;9.798;-18.701;-5.774;-4.284;-0.373
4753429.958;-8.754;-0.671;-9.984;6.892;-15.795;-6.035;-5.402;-0.559
4753429.966;-12.554;-4.396;-13.597;2.012;-21.122;-7.562;-6.817;-0.782
4753429.974;-10.990;-4.619;-11.511;0.484;-18.477;-7.898;-7.674;-1.825
4753429.982;-13.858;-10.282;-13.746;-7.227;-18.552;-8.121;-7.674;-2.198
4753429.990;-26.077;-23.022;-29.169;-20.452;-34.608;-2.831;-3.204;2.794
4753429.998;-11.772;-1.639;-20.377;7.264;-30.063;1.118;1.118;5.625
4753430.006;1.341;14.454;-15.907;26.748;-31.516;2.794;5.402;7.227
4753430.035;9.984;27.269;-16.950;46.417;-39.190;-0.335;7.339;4.098
4753430.043;15.683;37.067;-19.856;62.548;-49.956;-3.092;4.955;0.224
4753430.051;18.179;44.815;-24.997;77.561;-65.528;-1.937;5.141;1.453
4753430.059;23.991;54.203;-24.177;92.983;-71.712;-0.037;7.674;2.570
4753430.067;36.433;73.090;-18.701;118.650;-75.214;4.396;13.262;6.519
4753430.075;47.199;86.166;-14.193;137.724;-78.045;6.631;15.944;9.686
4753430.083;55.619;99.689;-11.474;157.058;-82.441;9.350;17.658;11.362
4753430.091;60.163;109.375;-11.995;172.295;-90.599;13.188;20.340;14.454
4753430.099;64.559;115.484;-7.227;181.496;-84.713;11.735;19.148;10.580
4753430.107;61.505;115.894;-11.846;185.370;-88.699;9.723;20.005;6.184
4753430.115;50.254;105.910;-24.177;178.292;-98.310;7.451;19.446;3.465
4753430.123;31.702;89.519;-42.059;164.397;-108.480;5.923;18.217;2.868
4753430.131;7.935;65.602;-64.671;142.530;-124.723;5.513;16.689;4.210
4753430.139;-4.135;52.713;-75.586;128.448;-132.732;4.619;16.503;3.092
4753430.147;-17.099;39.712;-88.252;114.292;-139.661;-2.310;8.568;-4.210
4753430.155;-23.209;31.441;-92.313;105.314;-137.426;-5.402;6.184;-6.370
4753430.163;-27.493;25.444;-93.989;99.018;-133.738;-9.537;2.496;-7.153
4753430.171;-41.686;11.213;-109.747;83.968;-151.694;-16.987;-8.196;-11.846
4753430.179;-44.331;7.860;-110.082;79.535;-148.155;-7.488;-1.341;-5.253
4753430.187;-44.554;6.445;-108.518;77.412;-143.833;1.155;7.339;2.757
4753430.195;-46.082;4.619;-108.778;75.437;-140.369;3.763;12.293;4.023
4753430.203;-48.652;2.347;-111.610;73.425;-141.785;10.431;20.526;6.892
4753430.211;-46.715;1.267;-109.300;71.414;-140.294;8.829;16.540;8.494
4753430.219;-47.274;-0.969;-107.549;69.737;-138.320;3.763;10.915;0.410
4753430.198;-45.933;-1.565;-103.787;68.322;-132.397;9.090;14.938;3.129
4753430.206;-40.270;3.688;-97.305;71.637;-126.138;14.901;19.409;11.139
4753430.214;-27.940;16.205;-83.633;83.260;-111.870;29.393;32.373;26.822
4753430.222;-17.360;26.412;-72.196;94.473;-101.365;42.617;44.592;41.015
4753430.230;-11.586;31.814;-66.310;100.061;-95.069;47.535;48.950;48.950
4753430.238;-4.098;38.221;-57.109;105.277;-86.017;54.874;58.375;56.662
4753430.246;1.229;43.511;-52.229;110.455;-81.323;56.252;64.820;60.089
4753430.254;1.304;42.766;-52.154;108.294;-80.876;60.983;67.502;67.092
4753430.262;3.725;43.698;-47.535;110.641;-76.965;73.314;76.853;80.094
4753430.270;2.012;41.723;-47.237;110.492;-78.790;64.932;68.843;73.016
4753430.278;8.084;47.572;-41.164;114.515;-71.675;57.817;66.049;60.014
4753430.286;15.646;53.383;-31.963;118.166;-58.599;51.931;60.871;57.779
4753430.294;24.140;60.014;-24.326;125.319;-50.105;58.487;67.949;69.030
4753430.302;35.390;69.179;-12.293;133.514;-38.482;69.216;78.119;82.776
4753430.310;40.755;72.941;-5.215;137.314;-34.310;67.391;78.566;88.513
4753430.318;38.520;69.588;-2.757;133.477;-29.653;56.364;72.233;80.355
4753430.326;30.100;61.058;-10.617;124.536;-39.600;46.082;63.479;72.159
4753430.334;33.379;62.250;-7.898;125.580;-36.657;41.015;60.312;69.886
4753430.342;32.894;61.430;-8.009;126.325;-35.465;35.577;57.705;66.161
4753430.350;28.498;56.364;-10.915;119.582;-40.606;28.573;52.005;61.914
4753430.358;27.530;53.644;-9.649;117.645;-37.812;26.673;50.925;61.356
4753430.366;25.257;49.323;-11.921;115.186;-38.333;25.705;51.707;60.312
4753430.374;29.542;51.670;-8.382;116.676;-34.682;30.436;59.530;60.908
4753430.382;28.722;50.180;-9.239;116.751;-35.316;23.246;54.911;51.782
4753430.378;27.604;48.019;-8.866;114.106;-35.428;22.836;53.868;54.576
4753430.386;26.859;44.443;-6.966;110.380;-32.037;18.105;47.535;56.028
4753430.394;24.624;41.090;-9.611;108.220;-31.553;2.496;36.024;42.096
4753430.402;30.920;48.615;-4.470;115.298;-28.610;1.006;44.368;47.311
4753430.410;37.253;54.277;1.751;121.221;-22.613;2.347;51.670;53.830
4753430.418;35.688;51.782;-2.831;119.694;-25.481;-3.576;45.933;50.105
4753430.426;39.078;53.160;1.863;121.705;-17.621;-1.863;47.050;53.123
4753430.434;37.365;48.988;1.043;118.911;-20.638;-1.155;46.268;51.297
4753430.442;38.967;49.993;3.949;119.060;-17.621;-2.757;44.554;47.684
4753430.450;40.047;51.633;6.445;121.593;-12.554;-7.153;40.457;43.735
4753430.458;41.947;52.601;7.413;123.158;-14.864;-7.898;40.233;46.454
4753430.466;43.586;53.234;9.611;124.201;-11.809;-9.499;38.594;46.231
4753430.474;48.690;58.040;14.566;129.119;-6.035;-9.052;38.557;44.703
4753430.482;48.913;60.536;11.362;131.875;-12.890;-8.866;39.153;41.984
4753430.490;51.633;62.138;15.460;135.526;-5.737;-5.476;41.723;42.990
4753430.498;53.197;61.356;17.919;134.446;-1.974;-12.256;33.714;35.688
4753430.506;49.323;57.854;14.156;131.838;-6.445;-14.231;32.559;34.831
4753430.514;46.492;55.805;12.182;130.795;-7.637;-12.554;33.677;35.614
4753430.522;49.695;58.338;16.689;131.875;-0.969;-8.978;34.943;39.600
4753430.530;54.501;59.940;22.389;133.701;5.253;-9.164;33.341;39.749
4753430.538;50.589;56.960;15.534;129.603;-2.868;-14.454;27.530;36.694
4753430.546;55.581;60.871;20.526;133.403;3.837;-12.331;33.230;38.631
4753430.554;54.576;59.865;21.085;134.706;2.533;-8.792;38.557;39.600
4753430.562;51.036;55.321;16.876;130.944;-5.625;-2.198;44.405;44.703
4753430.587;49.435;53.197;15.646;130.869;-5.513;-7.264;39.451;38.184
4753430.595;54.799;57.630;20.601;135.228;2.831;-14.938;28.983;33.565
4753430.603;57.705;60.387;23.916;135.750;3.539;-18.701;24.512;30.436
4753430.611;68.136;71.339;35.688;146.329;14.976;-10.617;34.422;38.669
4753430.619;71.302;75.251;40.159;148.751;17.472;0.037;47.199;47.795
4753430.627;71.228;74.841;39.935;148.788;17.732;-3.576;47.386;43.027
4753430.635;74.059;78.231;39.823;154.376;18.105;-10.766;41.276;37.812
4753430.643;70.520;75.027;35.129;150.613;14.827;-4.694;45.486;45.970
4753430.651;71.153;74.878;37.886;151.508;13.225;-2.347;45.896;48.056
4753430.659;68.434;73.425;35.688;148.341;10.543;-1.825;48.764;46.678
4753430.667;67.241;72.867;33.677;145.845;6.445;-22.016;30.436;24.848
4753430.675;71.563;76.815;38.929;148.341;13.635;-24.289;27.381;25.220
4753430.683;73.761;79.013;42.357;149.608;17.807;-8.754;46.715;42.878
4753430.691;67.241;70.520;35.800;141.151;9.090;-18.440;37.998;41.649
4753430.699;65.267;68.471;34.533;139.289;7.451;-27.306;28.200;34.459
4753430.707;54.166;55.656;24.475;126.213;-0.149;-29.653;23.060;25.518
4753430.715;47.311;48.503;18.626;117.533;-3.427;-24.177;23.879;36.284
4753430.723;49.956;51.819;20.079;122.488;-4.508;-30.436;16.131;30.138
4753430.731;47.795;48.764;16.727;120.513;-8.643;-35.726;11.139;19.483
4753430.739;40.568;41.127;12.331;111.945;-9.425;-44.815;3.465;6.743
4753430.747;40.755;42.878;10.468;113.770;-13.374;-38.818;10.021;12.107
4753430.755;47.423;49.882;13.746;120.401;-9.164;-36.657;13.374;14.752
4753430.763;53.868;53.793;20.899;123.642;-0.559;-28.536;22.240;21.942
4753430.771;44.331;43.809;12.144;112.802;-8.903;-32.000;16.056;20.042
4753430.797;31.888;32.783;0.820;101.291;-21.309;-42.878;7.898;10.431
4753430.805;23.469;22.091;-7.637;90.338;-28.536;-57.667;-12.778;-5.998
4753430.813;32.894;30.026;1.788;95.852;-18.254;-46.231;-8.196;2.906
4753430.821;30.473;28.871;-0.447;92.685;-23.507;-45.113;-10.133;6.519
4753430.829;25.891;25.257;-4.210;90.227;-25.406;-41.649;-3.390;9.052
4753430.837;23.209;23.171;-7.041;87.619;-28.275;-47.646;-11.288;-4.657
4753430.845;22.538;21.756;-6.743;87.544;-26.152;-50.217;-18.775;-6.258
4753430.853;9.313;10.133;-19.558;74.469;-39.563;-57.295;-24.177;-11.809
4753430.861;-1.118;1.304;-28.275;65.155;-48.690;-62.697;-24.959;-13.150
4753430.869;1.229;1.676;-24.252;66.608;-42.878;-60.163;-24.065;-11.064
4753430.877;-0.559;-1.155;-23.134;64.000;-40.866;-59.418;-25.071;-15.609
4753430.885;-2.310;-4.061;-24.773;61.803;-42.319;-53.234;-16.093;-12.778
4753430.893;-4.396;-7.041;-28.461;58.189;-46.231;-51.893;-17.174;-9.462
4753430.901;0.931;-1.155;-23.581;63.628;-41.611;-55.544;-24.475;-11.027
4753430.909;-3.949;-5.700;-27.418;57.966;-44.294;-54.762;-23.358;-17.397
4753430.917;-7.451;-8.941;-32.000;53.123;-49.323;-54.464;-31.777;-17.732
4753430.925;-6.557;-6.668;-31.777;54.874;-48.392;-54.464;-32.336;-19.111
4753430.933;-4.359;-4.321;-31.441;56.848;-48.503;-63.255;-36.769;-32.336
4753430.941;5.811;5.998;-20.452;66.906;-35.390;-45.188;-16.876;-15.162
4753430.949;0.745;0.708;-25.667;61.467;-41.015;-45.076;-17.956;-18.664
4753430.957;5.402;4.843;-20.713;64.708;-35.129;-41.984;-18.515;-16.317
4753430.965;3.986;2.086;-21.905;60.797;-34.347;-46.343;-25.257;-20.228
4753430.973;4.955;2.980;-19.968;60.946;-29.616;-45.374;-22.911;-17.546
4753430.981;4.880;4.694;-20.303;61.952;-32.224;-43.884;-23.395;-16.727
4753431.038;-0.335;0.484;-26.226;58.524;-41.239;-49.025;-29.020;-19.968
4753431.046;1.416;3.316;-24.512;61.058;-35.800;-44.964;-23.991;-14.566
4753431.054;0.335;0.671;-25.555;56.922;-34.571;-36.322;-14.976;-5.290
4753431.062;-11.548;-10.952;-38.967;44.219;-47.274;-56.662;-37.700;-19.856
4753431.070;-8.158;-7.972;-34.422;45.672;-40.680;-52.638;-31.516;-15.050
4753431.078;-13.858;-12.964;-39.972;39.935;-42.059;-59.195;-36.322;-26.114
4753431.086;-18.887;-17.025;-45.672;33.788;-45.076;-59.977;-40.755;-29.951
4753431.094;-21.644;-21.122;-47.907;29.504;-47.572;-55.693;-36.806;-23.358
4753431.102;-24.587;-22.464;-49.323;26.375;-46.566;-55.246;-36.322;-21.458
4753431.110;-24.773;-19.819;-49.509;28.014;-47.050;-52.005;-31.851;-17.658
4753431.118;-27.828;-25.146;-53.905;21.756;-51.446;-57.444;-38.631;-21.048
4753431.126;-23.171;-21.979;-50.664;21.234;-46.901;-58.003;-39.265;-21.122
4753431.134;-27.977;-26.040;-57.742;15.534;-50.478;-50.925;-33.341;-14.454
4753431.142;-31.888;-28.983;-60.759;11.176;-52.303;-45.858;-28.238;-13.486
4753431.150;-9.388;-10.207;-30.659;22.016;-21.309;-45.039;-28.983;-17.807
4753431.158;-20.266;-20.713;-35.651;5.886;-23.134;-52.750;-38.743;-20.601
4753431.166;-23.395;-26.897;-33.379;-6.407;-18.254;-53.234;-39.153;-23.618
4753431.174;-26.934;-29.840;-36.582;-10.319;-19.372;-53.644;-41.015;-24.103
4753431.182;-37.812;-37.625;-48.988;-19.222;-29.653;-52.080;-42.841;-23.283
4753431.190;-41.462;-40.829;-52.527;-24.997;-31.292;-48.801;-42.506;-20.452
4753431.198;-44.294;-44.741;-55.358;-29.765;-33.826;-51.372;-46.529;-21.905
4753431.206;-48.578;-47.423;-57.593;-34.459;-34.571;-50.589;-46.343;-24.699
4753431.214;-54.538;-51.744;-63.069;-39.712;-43.325;-47.944;-45.560;-26.226
4753431.222;-44.852;-41.910;-52.191;-33.192;-31.330;-35.241;-34.980;-13.299
4753431.217;-37.104;-33.192;-42.766;-27.306;-22.464;-31.628;-32.075;-15.385
4753431.225;-46.492;-39.935;-50.627;-36.098;-28.163;-40.233;-42.766;-23.320
4753431.233;-60.312;-49.397;-61.989;-47.609;-40.457;-43.884;-47.572;-26.897
4753431.241;-74.692;-57.854;-69.626;-55.544;-47.386;-45.374;-50.031;-25.965
4753431.249;-80.653;-61.393;-73.761;-60.461;-50.366;-46.715;-52.415;-24.401
4753431.257;-91.381;-69.812;-83.931;-69.179;-59.493;-56.438;-57.817;-35.763
4753431.265;-100.955;-79.051;-94.697;-77.970;-70.855;-71.824;-65.230;-47.907
4753431.273;-103.116;-80.802;-96.969;-81.807;-72.345;-75.586;-69.141;-52.601
4753431.281;-99.838;-77.449;-95.032;-78.492;-67.391;-70.930;-62.138;-50.217
4753431.289;-95.740;-72.643;-90.636;-75.549;-61.020;-63.926;-57.183;-42.766
4753431.297;-86.986;-65.342;-82.739;-69.104;-55.917;-60.014;-55.097;-44.107
4753431.305;-82.403;-63.218;-80.504;-65.602;-54.054;-59.120;-55.023;-47.535
4753431.313;-77.561;-57.928;-76.219;-63.255;-50.217;-54.426;-50.105;-43.586
4753431.321;-79.907;-59.046;-78.790;-64.410;-54.166;-56.177;-55.954;-44.666
4753431.329;-83.335;-60.052;-83.819;-66.236;-60.499;-57.444;-56.438;-45.821
4753431.337;-85.197;-61.020;-85.123;-66.832;-61.207;-53.607;-52.601;-44.480
4753431.345;-82.143;-58.971;-80.578;-63.702;-53.309;-49.360;-49.435;-39.227
4753431.353;-77.076;-52.042;-77.039;-57.481;-52.638;-46.119;-43.549;-35.837
4753431.361;-78.753;-53.458;-79.907;-58.115;-56.066;-48.392;-41.500;-37.663
4753431.369;-76.443;-48.988;-77.859;-52.974;-52.825;-46.417;-41.351;-39.004
4753431.377;-80.988;-53.272;-81.323;-57.295;-56.364;-48.168;-45.598;-42.394
4753431.385;-90.450;-62.622;-92.387;-67.465;-66.943;-55.246;-54.277;-51.893
4753431.393;-93.766;-64.485;-96.187;-71.712;-69.439;-53.011;-53.383;-53.421
4753431.401;-98.385;-70.930;-101.365;-78.753;-75.810;-55.209;-61.989;-57.146
4753431.472;-105.314;-77.039;-108.108;-86.203;-80.876;-58.264;-69.812;-59.195
4753431.480;-108.108;-80.653;-112.616;-90.599;-82.850;-56.289;-72.382;-58.711
4753431.488;-110.194;-81.360;-116.490;-90.860;-88.364;-55.954;-69.588;-59.307
4753431.496;-121.891;-91.195;-127.964;-102.706;-100.397;-65.975;-74.320;-69.030
4753431.504;-132.769;-101.440;-139.251;-112.467;-111.349;-72.978;-76.815;-78.715
4753431.512;-137.165;-103.377;-143.126;-115.037;-116.341;-70.296;-78.455;-76.890
4753431.520;-144.616;-109.896;-149.719;-122.599;-124.350;-76.853;-87.842;-91.679
4753431.528;-151.284;-116.639;-156.760;-129.379;-132.658;-82.441;-92.648;-99.689
4753431.536;-162.870;-125.319;-168.197;-139.736;-146.590;-91.046;-104.755;-110.678
4753431.544;-172.891;-136.606;-176.951;-151.880;-152.998;-101.142;-119.209;-120.997
4753431.552;-179.969;-143.200;-184.514;-158.511;-161.380;-111.423;-129.715;-129.044
4753431.560;-185.855;-149.496;-191.927;-165.924;-170.209;-115.335;-137.091;-136.346
4753431.568;-195.242;-160.038;-202.768;-176.579;-180.043;-120.811;-144.206;-143.759
4753431.576;-203.624;-168.607;-210.255;-187.680;-188.649;-121.556;-147.559;-143.573
4753431.584;-205.822;-170.469;-212.267;-189.766;-189.953;-118.911;-145.026;-140.965
4753431.592;-215.471;-178.218;-221.580;-198.856;-199.452;-128.970;-153.668;-148.863
4753431.600;-223.033;-185.519;-227.615;-207.461;-206.530;-139.065;-160.895;-158.884
4753431.608;-227.541;-190.921;-230.856;-212.975;-210.665;-147.372;-166.483;-167.564
4753431.616;-227.727;-189.021;-231.750;-212.938;-211.671;-148.565;-167.750;-168.607
4753431.624;-236.109;-196.546;-240.207;-219.606;-221.618;-157.170;-175.498;-178.479
4753431.632;-246.093;-206.307;-249.855;-228.547;-233.389;-163.652;-183.955;-185.594
4753431.640;-255.704;-215.136;-257.678;-237.934;-241.846;-168.346;-191.033;-187.755
4753431.648;-258.610;-219.196;-259.615;-241.213;-242.926;-171.736;-195.168;-190.288
4753431.656;-254.251;-213.571;-253.953;-235.364;-239.201;-160.299;-186.451;-181.869
4753431.682;-269.003;-227.019;-270.717;-246.055;-256.784;-161.715;-189.468;-182.539
4753431.690;-269.152;-227.541;-268.593;-245.869;-255.033;-164.509;-191.480;-186.786
4753431.698;-271.425;-232.384;-266.992;-252.202;-248.440;-170.656;-201.240;-194.386
4753431.706;-280.552;-243.708;-274.479;-264.905;-249.483;-177.212;-207.871;-197.254
4753431.714;-281.632;-245.199;-273.548;-270.233;-244.789;-175.610;-206.791;-197.440
4753431.722;-293.441;-257.641;-282.601;-284.351;-250.004;-177.957;-209.436;-202.470
4753431.730;-303.313;-266.507;-289.120;-296.496;-250.377;-177.175;-209.138;-203.401
4753431.738;-301.227;-263.005;-286.512;-292.063;-248.291;-169.277;-198.856;-198.856
4753431.746;-301.041;-263.602;-287.145;-290.610;-249.222;-162.199;-195.391;-193.603
4753431.754;-299.662;-261.776;-285.655;-289.120;-250.041;-159.703;-194.311;-190.698
4753431.762;-288.859;-252.165;-274.405;-276.119;-239.499;-149.719;-182.837;-180.304
4753431.770;-289.194;-252.612;-275.522;-275.858;-241.287;-144.802;-178.926;-179.186
4753431.778;-284.128;-247.695;-269.562;-270.568;-237.860;-137.798;-171.773;-171.326
4753431.786;-289.157;-254.959;-273.474;-275.709;-236.966;-145.212;-179.522;-175.200
4753431.794;-286.102;-252.202;-272.058;-272.654;-236.183;-145.026;-178.143;-172.891
4753431.802;-286.289;-254.065;-273.027;-272.095;-237.599;-146.888;-182.614;-177.063
4753431.810;-287.667;-256.300;-275.709;-273.138;-238.866;-143.237;-178.926;-173.338
4753431.818;-284.575;-253.990;-275.299;-270.270;-240.877;-143.051;-180.341;-172.630
4753431.826;-279.844;-249.408;-271.611;-265.241;-236.258;-142.306;-179.410;-171.363
4753431.834;-274.144;-242.218;-265.762;-259.876;-232.495;-133.850;-169.761;-165.068
4753431.842;-265.278;-233.315;-257.455;-249.967;-223.964;-125.095;-162.385;-157.841
4753431.850;-256.635;-223.517;-249.483;-240.542;-217.222;-119.321;-155.121;-155.978
4753431.858;-252.724;-222.474;-247.397;-239.387;-218.302;-123.493;-156.835;-157.803
4753431.866;-249.706;-221.841;-246.540;-237.860;-216.030;-129.305;-162.050;-156.909
4753431.833;-246.577;-218.414;-243.597;-236.556;-212.938;-124.983;-160.411;-152.737
4753431.841;-240.542;-213.571;-236.966;-230.186;-205.003;-116.490;-151.545;-144.765
4753431.849;-240.766;-213.683;-236.891;-230.074;-202.619;-117.458;-152.104;-146.404
4753431.857;-238.903;-211.820;-235.289;-227.243;-198.930;-115.894;-151.098;-145.659
4753431.865;-236.705;-210.255;-232.980;-224.821;-198.670;-113.808;-150.241;-140.741
4753431.873;-236.928;-210.367;-231.825;-226.088;-195.876;-116.751;-155.270;-145.584
4753431.881;-237.040;-211.522;-232.868;-225.492;-195.839;-116.862;-152.402;-143.424
4753431.889;-234.321;-207.946;-233.613;-219.829;-197.403;-113.025;-147.037;-140.145
4753431.897;-231.601;-205.636;-232.235;-220.165;-190.921;-111.833;-147.335;-141.971
4753431.905;-224.970;-200.719;-223.704;-215.061;-186.674;-109.524;-141.673;-137.836
4753431.913;-217.743;-193.752;-216.849;-208.020;-180.453;-104.979;-133.067;-134.595
4753431.921;-218.637;-195.652;-218.153;-209.659;-179.932;-108.853;-140.890;-137.836
4753431.929;-211.410;-188.462;-212.342;-201.575;-175.014;-105.053;-139.847;-131.987
4753431.937;-205.077;-180.379;-205.971;-192.784;-173.263;-98.646;-130.944;-126.958
4753431.945;-204.183;-180.490;-206.083;-191.666;-172.146;-100.844;-130.795;-128.411
4753431.953;-197.738;-173.599;-201.799;-186.749;-167.824;-97.752;-126.250;-127.479
4753431.961;-195.876;-173.599;-201.054;-185.817;-165.477;-95.479;-124.499;-125.170
4753431.969;-197.850;-175.498;-203.326;-187.494;-167.601;-97.193;-127.554;-126.176
4753431.977;-193.231;-171.252;-199.117;-182.949;-162.050;-99.316;-128.113;-128.374
4753431.985;-193.082;-172.369;-200.011;-184.327;-164.956;-106.096;-133.254;-135.787
4753431.993;-192.896;-172.295;-201.873;-184.067;-167.787;-101.812;-130.162;-134.520
4753432.001;-191.815;-172.518;-200.421;-181.496;-165.068;-89.444;-120.923;-122.823
4753432.009;-190.400;-171.140;-198.819;-179.708;-166.185;-85.831;-123.382;-119.247
4753432.017;-190.623;-172.108;-199.452;-181.012;-165.999;-90.599;-129.230;-125.952
4753431.998;-184.439;-167.750;-194.609;-175.200;-161.752;-86.874;-125.356;-120.923
4753432.006;-178.330;-161.566;-187.121;-169.799;-153.594;-83.745;-121.072;-117.086
4753432.014;-172.891;-156.499;-181.273;-163.652;-147.596;-78.231;-110.939;-114.366
4753432.022;-172.518;-155.233;-182.018;-163.205;-148.080;-77.076;-111.163;-116.415
4753432.030;-171.140;-153.147;-180.751;-162.385;-149.049;-73.873;-109.747;-114.515
4753432.038;-170.283;-152.923;-180.043;-161.976;-145.212;-72.531;-116.564;-113.025
4753432.046;-166.632;-147.894;-178.143;-156.909;-146.367;-59.865;-105.426;-108.182
4753432.054;-164.583;-146.218;-176.802;-155.121;-148.714;-57.258;-106.245;-107.028
4753432.062;-166.483;-147.969;-177.994;-157.654;-148.527;-52.974;-104.010;-104.941
4753432.070;-163.354;-146.106;-174.046;-156.164;-142.902;-48.429;-100.583;-100.620
4753432.078;-161.715;-145.026;-173.151;-153.333;-139.661;-49.546;-102.893;-101.142
4753432.086;-158.697;-140.555;-170.916;-150.874;-139.289;-43.884;-100.173;-97.156
4753432.094;-158.213;-140.890;-171.848;-151.098;-140.741;-41.351;-98.981;-95.703
4753432.102;-158.772;-140.555;-173.002;-151.023;-141.934;-39.637;-99.242;-94.399
4753432.110;-154.898;-136.346;-168.346;-147.112;-137.314;-38.035;-95.107;-95.814
4753432.118;-152.513;-136.457;-166.632;-144.951;-134.185;-44.443;-99.465;-101.179
4753432.126;-151.955;-137.351;-164.397;-147.112;-132.248;-47.125;-102.371;-98.273
4753432.134;-149.757;-137.761;-162.944;-146.851;-128.150;-50.180;-104.830;-97.007
4753432.142;-151.880;-140.443;-166.893;-150.874;-133.887;-51.521;-106.059;-97.975
4753432.150;-145.026;-131.391;-159.144;-142.716;-125.840;-40.866;-93.989;-90.636
4753432.158;-141.449;-127.144;-156.425;-141.226;-123.233;-36.731;-90.078;-86.017
4753432.166;-144.355;-127.219;-158.548;-145.286;-126.362;-30.398;-86.725;-80.802
4753432.174;-148.118;-131.391;-161.454;-150.353;-128.299;-26.375;-83.968;-78.157
4753432.182;-144.988;-127.666;-159.778;-148.006;-126.623;-19.334;-75.474;-73.798
4753432.179;-145.026;-127.554;-159.256;-149.533;-125.654;-17.248;-71.749;-74.469
4753432.187;-154.711;-139.028;-167.415;-160.746;-131.167;-20.452;-74.320;-77.672
4753432.195;-156.164;-139.959;-168.495;-165.105;-132.509;-27.455;-83.596;-83.372
4753432.203;-158.362;-142.716;-170.507;-168.085;-133.067;-26.934;-84.676;-83.148
4753432.211;-159.591;-144.504;-171.810;-172.295;-134.148;-16.354;-72.420;-73.686
4753432.219;-160.597;-143.871;-172.146;-172.146;-136.383;-10.431;-64.597;-67.502
4753432.227;-130.683;-115.335;-144.094;-142.418;-115.745;-2.384;-57.295;-59.828
4753432.235;-112.727;-97.565;-130.087;-127.293;-111.088;-2.943;-54.762;-64.112
4753432.243;-100.322;-85.682;-121.519;-115.111;-110.194;-5.886;-56.587;-66.273
4753432.251;-78.939;-64.820;-103.824;-93.505;-100.061;0.186;-49.546;-59.940
4753432.259;-60.722;-47.125;-88.587;-74.841;-92.052;7.711;-43.474;-49.695
4753432.267;-58.152;-47.944;-88.923;-75.921;-95.367;-3.576;-55.246;-56.922
4753432.275;-55.879;-44.852;-88.662;-74.022;-97.938;3.427;-46.045;-51.633
4753432.283;-67.391;-59.158;-97.193;-88.811;-104.196;-9.052;-57.183;-63.404
4753432.291;-72.233;-63.479;-101.738;-92.164;-106.134;-9.276;-55.768;-62.250
4753432.299;-78.529;-69.663;-108.145;-97.603;-109.561;-9.499;-59.679;-60.871
4753432.307;-87.395;-79.311;-118.092;-106.208;-116.527;-17.583;-67.800;-65.565
4753432.315;-89.481;-80.988;-119.209;-110.939;-115.111;-18.887;-70.073;-67.502
4753432.323;-96.709;-90.227;-126.213;-120.476;-118.054;-22.314;-74.804;-73.090
4753432.331;-101.551;-96.038;-131.540;-124.574;-122.003;-23.879;-75.586;-73.873
4753432.339;-99.465;-93.393;-128.821;-123.121;-119.172;-22.314;-72.978;-74.096
4753432.347;-105.239;-100.397;-134.185;-129.752;-120.699;-27.567;-79.907;-80.392
4753432.355;-107.512;-102.222;-137.165;-132.099;-125.282;-24.177;-80.913;-77.374
4753432.363;-105.537;-102.259;-134.930;-129.566;-122.674;-19.819;-78.231;-71.153
4753432.328;-104.941;-101.589;-131.950;-129.752;-118.427;-17.919;-74.469;-68.843
4753432.336;-111.163;-109.598;-136.197;-139.251;-122.115;-22.314;-75.065;-76.480
4753432.344;-107.363;-106.171;-133.589;-134.371;-117.309;-20.899;-75.474;-73.649
4753432.352;-100.061;-97.156;-126.138;-126.660;-110.827;-19.297;-74.245;-68.061
4753432.360;-99.540;-100.620;-125.691;-128.634;-109.598;-29.653;-82.850;-75.474
4753432.368;-99.428;-101.924;-127.777;-131.205;-110.641;-36.992;-85.048;-87.768
4753432.376;-97.193;-100.397;-124.611;-131.503;-107.512;-34.571;-83.037;-84.825
4753432.384;-97.044;-102.781;-123.158;-132.583;-107.065;-36.620;-85.197;-85.309
4753432.392;-94.064;-99.912;-118.315;-131.689;-101.253;-35.465;-81.882;-82.143
4753432.400;-98.571;-105.761;-124.872;-134.856;-107.810;-39.525;-86.501;-86.501
4753432.408;-100.918;-105.053;-126.511;-134.110;-109.300;-40.941;-89.295;-87.544
4753432.416;-102.706;-103.898;-125.207;-134.036;-110.045;-36.210;-84.341;-85.793
4753432.424;-98.869;-100.918;-120.513;-131.577;-103.563;-31.143;-76.853;-79.647
4753432.432;-96.373;-96.783;-116.080;-131.018;-100.471;-26.785;-66.608;-79.945
4753432.440;-100.471;-102.259;-118.501;-135.601;-104.122;-34.124;-75.437;-87.172
4753432.448;-100.844;-101.775;-119.023;-135.191;-105.575;-31.441;-73.388;-86.389
4753432.456;-105.090;-104.383;-121.295;-138.395;-107.363;-32.149;-71.712;-87.693
4753432.464;-105.314;-105.649;-120.401;-140.220;-108.257;-36.620;-76.145;-88.997
4753432.472;-105.910;-104.681;-120.848;-143.535;-110.455;-34.571;-74.878;-87.172
4753432.480;-102.744;-102.706;-116.937;-141.002;-105.463;-30.473;-70.073;-85.644
4753432.488;-100.918;-100.099;-113.510;-139.251;-101.626;-24.885;-63.926;-77.859
4753432.496;-99.987;-97.491;-111.461;-136.942;-100.397;-21.346;-59.381;-76.070
4753432.504;-104.755;-102.930;-116.266;-139.140;-104.383;-28.759;-65.304;-87.768
4753432.512;-103.898;-100.397;-112.318;-138.059;-101.104;-24.512;-63.665;-84.974
4753432.507;-112.355;-111.759;-119.880;-149.645;-109.188;-31.404;-70.706;-88.364
4753432.515;-117.011;-116.043;-123.940;-155.196;-112.690;-38.370;-76.517;-91.046
4753432.523;-120.886;-119.843;-127.330;-160.187;-114.553;-42.096;-79.907;-94.436
4753432.531;-121.705;-121.929;-128.634;-161.566;-112.653;-42.431;-80.764;-92.834
4753432.539;-119.396;-116.676;-125.244;-158.325;-112.914;-35.390;-70.930;-87.097
4753432.547;-118.650;-118.650;-123.121;-158.437;-110.418;-38.184;-72.494;-90.934
4753432.555;-118.874;-118.427;-122.264;-158.697;-109.039;-39.153;-81.100;-92.424
4753432.563;-117.756;-115.819;-120.513;-155.382;-107.735;-34.384;-74.804;-87.731
4753432.571;-122.376;-122.264;-125.617;-159.927;-110.716;-40.047;-77.076;-91.493
4753432.579;-122.227;-120.923;-125.654;-160.560;-110.306;-41.537;-77.039;-94.064
4753432.587;-123.158;-124.648;-125.431;-163.466;-109.784;-42.506;-79.907;-95.144
4753432.595;-121.556;-126.027;-123.940;-165.179;-105.835;-37.141;-77.449;-91.270
4753432.603;-125.244;-128.709;-128.113;-164.732;-110.120;-27.493;-67.726;-82.105
4753432.611;-110.045;-110.716;-117.645;-139.140;-103.600;-30.175;-68.285;-79.423
4753432.619;-94.026;-93.989;-107.735;-122.078;-101.328;-34.794;-67.949;-86.389
4753432.627;-75.847;-76.704;-93.952;-98.832;-94.175;-32.261;-60.238;-82.031
4753432.635;-67.055;-67.800;-92.350;-87.097;-100.695;-32.671;-59.567;-82.441
4753432.643;-61.989;-61.877;-90.301;-81.025;-103.228;-36.992;-67.316;-85.980
4753432.651;-61.020;-63.144;-91.307;-80.131;-100.769;-42.245;-72.755;-87.135
4753432.659;-63.628;-64.820;-94.026;-83.148;-102.781;-39.041;-70.930;-82.441
4753432.667;-72.010;-75.549;-100.322;-92.052;-103.898;-45.337;-76.294;-87.097
4753432.675;-71.898;-75.698;-101.589;-91.903;-101.402;-36.694;-70.222;-78.343
4753432.683;-66.273;-69.179;-95.926;-85.421;-95.069;-27.195;-59.009;-72.755
4753432.691;-68.918;-74.394;-97.901;-89.481;-96.597;-33.826;-64.969;-78.417
4753432.659;-68.583;-73.761;-95.814;-88.513;-94.213;-32.708;-66.422;-75.772
4753432.667;-66.087;-74.580;-90.823;-88.364;-86.874;-32.410;-66.571;-72.047
4753432.675;-67.912;-76.406;-94.548;-90.115;-90.674;-35.390;-70.035;-75.474
4753432.683;-69.588;-77.188;-97.156;-89.146;-93.617;-33.937;-66.645;-74.916
4753432.691;-73.202;-82.515;-102.669;-91.530;-95.032;-37.365;-70.892;-75.623
4753432.699;-74.208;-82.180;-101.142;-92.722;-92.871;-32.000;-64.112;-69.775
4753432.707;-74.096;-83.111;-99.912;-91.605;-92.089;-26.934;-56.215;-62.026
4753432.715;-70.818;-80.578;-96.448;-88.997;-85.384;-24.512;-50.440;-61.691
4753432.723;-69.439;-81.211;-95.256;-89.556;-82.888;-26.040;-46.007;-68.694
4753432.731;-73.202;-88.476;-100.434;-94.473;-89.817;-34.571;-62.473;-74.506
4753432.739;-61.505;-74.804;-89.966;-81.472;-79.311;-24.959;-53.868;-65.826
4753432.747;-63.442;-76.108;-93.244;-78.976;-81.584;-31.218;-55.395;-72.196
4753432.755;-60.983;-74.096;-90.003;-77.710;-76.443;-29.206;-54.315;-68.843
4753432.763;-57.556;-70.818;-85.160;-77.188;-71.861;-24.661;-47.423;-62.361
4753432.771;-56.438;-70.892;-85.160;-75.810;-74.469;-23.097;-48.578;-57.034
4753432.779;-63.963;-75.474;-92.722;-82.627;-81.211;-29.765;-56.922;-65.826
4753432.787;-71.228;-83.707;-98.720;-91.754;-84.750;-36.582;-63.628;-75.437
4753432.795;-59.083;-71.488;-87.991;-80.653;-75.065;-22.948;-50.738;-61.840
4753432.803;-61.058;-73.649;-88.923;-83.186;-73.239;-18.366;-50.291;-56.811
4753432.811;-65.491;-80.131;-93.654;-86.352;-76.219;-20.862;-49.993;-59.977
4753432.819;-66.794;-79.684;-95.218;-89.072;-75.698;-22.277;-49.621;-63.367
4753432.827;-72.345;-85.756;-99.875;-95.591;-78.194;-28.275;-58.562;-67.577
4753432.835;-65.900;-79.647;-94.101;-90.152;-74.133;-19.595;-49.621;-59.567
4753432.843;-65.789;-79.200;-94.436;-89.779;-75.176;-17.472;-43.884;-58.636
4753432.875;-76.629;-89.630;-105.575;-97.491;-86.576;-22.128;-46.268;-59.456
4753432.883;-82.813;-92.387;-110.529;-101.887;-91.158;-19.968;-45.598;-60.759
4753432.891;-79.274;-90.450;-106.618;-98.124;-85.570;-19.558;-40.531;-63.851
4753432.899;-74.245;-84.676;-102.669;-92.313;-81.584;-19.968;-36.396;-67.726
4753432.907;-66.273;-76.741;-94.399;-84.341;-71.973;-16.280;-40.494;-61.914
4753432.915;-65.193;-78.343;-93.281;-83.894;-69.328;-23.842;-48.988;-67.465
4753432.923;-66.981;-77.337;-94.697;-84.490;-73.761;-23.469;-47.795;-67.092
4753432.931;-67.204;-78.790;-94.809;-82.813;-71.190;-23.954;-47.497;-63.702
4753432.939;-68.583;-78.753;-96.671;-82.999;-71.339;-19.595;-42.282;-61.095
4753432.947;-72.494;-82.329;-100.732;-86.017;-76.443;-21.681;-43.660;-68.285
4753432.955;-71.637;-84.043;-100.248;-84.043;-75.586;-23.432;-46.678;-65.453
4753432.963;-60.387;-71.228;-89.481;-70.855;-63.851;-9.649;-33.528;-50.478
4753432.971;-64.522;-77.449;-93.617;-75.586;-67.577;-17.136;-37.365;-62.659
4753432.979;-68.396;-81.919;-98.608;-80.839;-69.998;-20.117;-45.896;-66.720
4753432.987;-68.508;-81.882;-99.316;-80.615;-69.179;-12.703;-42.915;-60.871
4753432.995;-61.281;-75.959;-94.697;-71.861;-63.330;-1.006;-27.940;-48.280
4753433.003;-64.187;-75.176;-98.720;-73.873;-68.545;13.821;-10.468;-37.178
4753433.011;-64.000;-83.186;-92.350;-81.770;-53.458;6.370;-20.154;-43.213
4753433.019;-57.369;-77.859;-83.186;-78.902;-37.588;-0.447;-27.567;-44.778
4753433.027;-55.619;-77.598;-79.572;-84.229;-28.312;5.290;-21.234;-34.496
4753433.035;-59.903;-87.284;-82.888;-94.883;-27.195;-5.737;-30.585;-47.050
4753433.043;-65.379;-91.121;-88.364;-101.961;-28.238;-11.437;-35.577;-57.109
4753433.051;-70.073;-98.385;-94.995;-108.853;-32.373;-13.225;-37.700;-53.272
4753433.059;-62.734;-90.674;-90.972;-102.110;-29.355;-2.943;-25.518;-40.978
4753433.047;-62.697;-89.481;-91.381;-102.147;-31.255;-4.731;-27.753;-43.139
4753433.055;-69.141;-98.683;-97.640;-111.163;-33.230;-15.795;-40.345;-48.764
4753433.063;-63.442;-91.605;-90.972;-105.165;-28.163;-10.096;-35.912;-40.978
4753433.071;-54.985;-83.670;-84.341;-94.622;-22.538;-2.682;-27.157;-34.235
4753433.079;-58.040;-85.905;-88.513;-97.193;-26.003;-3.986;-33.453;-38.072
4753433.087;-55.768;-85.570;-85.346;-98.124;-24.214;0.261;-29.765;-35.055
4753433.095;-60.014;-92.238;-90.413;-103.116;-29.989;-2.123;-32.112;-37.886
4753433.103;-59.158;-88.550;-87.656;-102.222;-27.940;6.370;-27.008;-31.218
4753433.111;-57.667;-88.029;-86.278;-100.620;-28.610;6.184;-29.877;-28.238
4753433.119;-50.589;-80.429;-82.403;-95.218;-27.753;7.525;-29.020;-28.573
4753433.127;-50.031;-78.045;-80.205;-94.995;-27.269;8.941;-26.077;-29.020
4753433.135;-48.541;-79.386;-78.492;-93.505;-23.842;7.302;-27.381;-28.200
4753433.143;-41.090;-70.184;-71.824;-85.160;-18.887;16.131;-20.117;-21.160
4753433.151;-39.600;-70.594;-70.445;-83.596;-18.105;8.494;-28.163;-26.040
4753433.159;-33.453;-64.746;-65.081;-79.721;-12.219;9.798;-22.613;-24.624
4753433.167;-27.604;-57.966;-58.785;-74.059;-6.147;11.511;-17.807;-23.767
4753433.175;-32.559;-64.075;-63.889;-76.965;-11.250;4.768;-21.718;-31.628
4753433.183;-29.244;-57.407;-59.903;-73.127;-7.190;10.319;-17.844;-28.685
4753433.191;-34.347;-64.597;-64.932;-79.535;-11.846;1.974;-28.796;-33.304
4753433.199;-38.408;-67.316;-69.216;-83.521;-16.391;4.433;-21.942;-29.653
4753433.207;-36.508;-66.012;-63.628;-84.713;-10.245;7.637;-21.458;-27.828
4753433.215;-39.935;-73.537;-68.396;-89.258;-15.423;-1.863;-31.628;-36.992
4753433.223;-39.861;-70.147;-67.465;-87.954;-17.434;3.986;-23.879;-33.565
4753433.231;-47.013;-77.635;-72.457;-93.542;-20.228;1.453;-24.661;-33.900
4753433.182;-46.007;-76.517;-71.265;-91.307;-18.030;3.576;-27.418;-29.430
4753433.190;-42.245;-71.526;-65.081;-87.880;-14.044;8.717;-24.922;-26.375
4753433.198;-43.064;-74.096;-66.347;-88.066;-16.987;5.737;-27.418;-26.859
4753433.206;-47.199;-75.065;-67.987;-91.158;-18.664;9.909;-20.899;-25.369
4753433.214;-45.896;-76.406;-66.310;-90.748;-16.503;9.425;-19.930;-21.905
4753433.222;-46.231;-75.921;-67.428;-89.109;-18.589;10.878;-17.919;-21.383
4753433.230;-42.729;-70.184;-62.063;-82.552;-11.399;17.323;-5.513;-14.491
4753433.238;-50.329;-79.982;-71.675;-90.674;-22.650;-1.900;-31.218;-28.126
4753433.246;-53.383;-80.094;-74.990;-93.691;-28.685;-6.147;-36.880;-39.563
4753433.254;-45.225;-75.512;-65.938;-87.172;-18.626;-2.570;-31.628;-33.639
4753433.262;-44.256;-73.761;-63.069;-86.613;-15.944;1.080;-29.989;-26.934
4753433.270;-42.692;-72.680;-60.312;-88.066;-12.778;1.714;-27.418;-29.616
4753433.278;-44.405;-76.406;-63.926;-88.476;-17.285;-4.433;-35.428;-31.218
4753433.286;-40.419;-68.881;-60.089;-83.484;-15.199;5.402;-23.358;-22.985
4753433.294;-42.431;-72.233;-62.250;-84.564;-13.337;3.576;-19.521;-28.573
4753433.302;-45.076;-74.357;-66.347;-87.172;-17.770;3.539;-21.569;-27.269
4753433.310;-46.678;-75.437;-67.651;-89.668;-21.048;5.476;-23.320;-24.550
4753433.318;-37.700;-69.328;-60.461;-81.584;-15.199;9.127;-15.572;-17.062
4753433.326;-38.408;-67.949;-58.524;-83.074;-11.958;8.643;-15.758;-22.762
4753433.334;-43.325;-75.847;-63.479;-89.779;-18.068;1.714;-24.550;-25.779
4753433.342;-43.511;-76.592;-66.087;-89.221;-24.363;2.906;-20.303;-25.742
4753433.350;-43.325;-77.188;-64.597;-90.897;-22.948;6.817;-20.005;-23.060
4753433.358;-46.603;-82.813;-69.477;-95.777;-29.691;7.786;-17.881;-20.079
4753433.366;-30.287;-64.671;-50.403;-79.833;-13.262;14.938;-7.786;-16.391
4753433.391;-3.576;-41.462;-27.120;-53.458;2.272;11.623;-8.233;-17.062
4753433.399;10.431;-24.624;-19.595;-35.092;3.651;10.543;-9.164;-16.429
4753433.407;18.999;-16.689;-10.282;-27.791;8.792;8.009;-11.735;-22.314
4753433.415;25.816;-13.523;-4.619;-23.656;11.511;7.413;-12.480;-20.079
4753433.423;21.122;-15.497;-8.903;-29.914;8.270;9.574;-12.256;-22.314
4753433.431;17.136;-22.575;-11.101;-36.284;9.686;5.253;-18.626;-21.532
4753433.439;15.572;-23.358;-11.288;-38.780;11.884;8.792;-12.405;-15.646
4753433.447;8.605;-29.579;-19.558;-46.268;4.545;8.829;-13.001;-17.919
4753433.455;6.668;-38.072;-28.387;-54.389;5.402;2.794;-31.777;-24.401
4753433.463;2.906;-40.270;-32.634;-60.983;5.811;11.213;-25.146;-23.320
4753433.471;-5.811;-48.354;-37.700;-66.869;2.868;7.488;-31.404;-32.932
4753433.479;-2.906;-44.294;-31.702;-63.963;4.210;14.305;-25.928;-24.736
4753433.487;-5.029;-45.449;-25.108;-66.571;6.519;20.601;-20.675;-21.160
4753433.495;-16.056;-57.891;-34.235;-80.317;-3.912;14.640;-32.485;-26.822
4753433.503;-14.976;-52.340;-32.932;-78.008;-5.700;16.205;-35.614;-26.189
4753433.511;-15.758;-54.501;-31.665;-77.412;-1.676;20.973;-24.810;-23.544
4753433.519;-23.842;-62.175;-39.451;-88.178;-8.270;19.073;-26.450;-26.673
4753433.527;-31.218;-69.067;-44.927;-98.795;-12.778;9.686;-36.210;-34.422
4753433.535;-37.104;-76.890;-50.440;-105.426;-17.695;-5.886;-53.272;-43.772
4753433.543;-43.660;-79.945;-55.432;-111.833;-24.103;-10.356;-51.670;-50.887
4753433.551;-42.804;-80.727;-54.352;-110.790;-20.415;-10.729;-44.070;-46.790
4753433.559;-43.139;-79.945;-53.793;-108.592;-18.738;-8.270;-39.153;-44.405
4753433.567;-41.164;-75.363;-51.148;-104.159;-15.795;-10.990;-42.170;-44.629
4753433.575;-43.251;-78.827;-54.389;-104.867;-18.552;-22.240;-44.592;-54.091
4753433.587;-38.147;-70.482;-49.807;-100.099;-15.423;-15.162;-37.253;-47.982
4753433.595;-43.213;-78.045;-55.581;-106.655;-19.148;-15.050;-46.343;-40.792
4753433.603;-47.944;-82.925;-61.728;-109.971;-27.381;-13.150;-40.010;-41.388
4753433.611;-15.348;-54.091;-28.200;-83.335;-4.582;-9.723;-32.485;-40.345
4753433.619;25.593;-20.266;9.201;-52.527;20.564;-8.866;-31.739;-35.800
4753433.627;61.356;11.697;43.437;-28.238;43.847;5.178;-19.409;-24.550
4753433.635;92.573;37.365;73.165;-2.906;63.255;5.513;-21.942;-25.555
4753433.643;119.954;61.058;95.591;17.211;76.815;10.766;-16.764;-23.991
4753433.651;142.939;84.192;116.937;38.110;91.568;15.348;-14.938;-16.093
4753433.659;140.741;77.114;113.137;33.528;90.860;0.931;-24.959;-27.046
4753433.667;137.798;76.182;112.653;30.100;92.909;11.846;-12.182;-20.079
4753433.675;128.821;65.863;103.414;22.128;82.105;12.666;-15.125;-17.509
4753433.683;124.983;62.883;101.067;17.099;82.329;22.352;-14.566;-8.531
4753433.691;132.136;72.159;109.151;25.183;88.848;43.884;2.980;12.629
4753433.699;122.227;60.834;98.832;18.291;81.770;20.862;-17.211;-11.884
4753433.707;129.044;69.886;105.053;26.152;87.917;23.469;-13.895;-14.678
4753433.715;125.766;66.198;100.918;27.567;83.670;31.292;-9.015;-6.035
4753433.723;119.060;59.642;92.387;21.644;74.580;36.657;-5.029;-1.416
4753433.731;113.510;54.464;88.625;14.752;71.675;40.680;2.906;-0.782
4753433.739;107.773;47.125;83.111;10.058;69.439;36.694;-3.353;0.149
4753433.747;104.979;45.598;82.254;6.407;67.204;39.786;-6.333;-0.037
4753433.755;110.380;49.174;88.438;13.299;74.133;42.655;-3.763;2.235
4753433.763;114.180;53.868;91.419;16.354;76.778;46.194;3.614;2.235
4753433.771;120.029;60.499;98.757;23.320;86.203;55.581;15.460;8.419
4753433.783;117.160;56.624;94.660;23.916;82.478;53.532;8.941;6.296
4753433.791;115.857;57.146;94.809;22.724;81.845;63.702;16.578;9.984
4753433.799;115.931;54.613;97.267;24.475;88.960;60.610;12.480;13.933
4753433.807;116.825;56.103;95.889;28.685;85.793;60.014;15.683;11.176
4753433.815;124.425;64.112;103.936;35.949;91.605;66.683;24.810;14.789
4753433.823;121.444;59.381;103.638;32.783;93.058;57.891;4.806;13.821
4753433.831;121.333;62.175;105.649;34.757;93.132;61.020;8.941;12.703
4753433.839;115.931;54.240;99.726;29.169;85.719;47.572;-2.645;-1.043
4753433.847;110.343;50.068;92.089;26.040;73.984;48.168;-0.782;-0.112
4753433.855;106.134;46.119;90.972;21.085;72.680;53.681;2.906;7.339
4753433.863;144.020;79.013;130.273;53.793;105.910;48.317;-2.347;6.445
4753433.871;173.412;108.220;155.531;77.449;114.180;58.301;9.239;7.451
4753433.879;202.954;131.615;183.694;99.614;132.062;60.089;13.039;9.276
4753433.887;235.699;161.044;214.316;124.946;152.960;68.173;19.670;17.174
4753433.895;259.429;183.433;235.550;142.753;163.987;70.594;17.695;18.068
4753433.903;280.924;200.309;252.798;157.952;174.157;69.551;16.317;22.314
4753433.911;298.880;218.824;269.078;171.326;186.078;79.386;28.722;29.020
4753433.919;298.060;216.328;266.284;169.463;182.167;65.230;18.105;13.150
4753433.927;288.896;207.089;255.480;159.107;175.685;65.230;15.050;14.491
4753433.935;277.199;197.478;245.310;149.421;170.730;69.998;16.391;17.472
4753433.943;263.862;182.576;232.942;136.644;165.328;59.679;5.700;5.737
4753433.951;263.825;183.806;233.911;134.781;167.526;66.236;14.603;9.947
4753433.959;257.120;175.424;229.590;128.932;169.836;61.393;10.096;7.302
4753433.967;250.526;169.687;224.374;122.599;165.813;61.914;6.147;10.915
4753433.962;251.904;172.071;226.870;123.978;169.277;71.153;12.480;18.775
4753433.970;245.795;163.503;218.153;117.384;162.199;71.935;12.405;21.458
4753433.978;235.401;155.196;209.361;106.990;155.754;79.535;17.844;23.730
4753433.986;234.023;151.917;208.952;104.904;151.247;79.013;19.260;20.266
4753433.994;237.934;155.643;211.932;107.996;153.817;87.395;30.957;25.555
4753434.002;239.201;157.617;216.290;108.555;158.958;89.705;37.216;28.014
4753434.010;230.893;148.118;207.014;100.397;150.800;77.188;29.914;22.501
4753434.018;220.463;139.363;198.185;89.407;141.039;74.692;26.673;19.819
4753434.026;217.780;134.408;198.595;85.682;145.249;70.110;21.793;18.626
4753434.034;213.720;132.732;192.076;84.341;142.045;70.743;24.848;17.956
4753434.042;197.478;117.943;176.132;70.594;128.932;62.287;12.852;4.172
4753434.050;197.664;117.049;175.647;72.531;130.683;60.871;9.350;8.121
4753434.058;209.212;131.838;186.004;85.533;134.148;80.690;33.006;25.071
4753434.066;203.140;125.431;182.278;82.441;134.744;70.669;24.475;15.348
4753434.074;204.332;126.958;185.333;83.931;138.544;73.686;22.724;17.285
4753434.082;195.354;118.874;179.261;75.735;131.950;73.612;22.687;13.076
4753434.090;183.359;106.953;166.111;67.465;118.650;64.187;14.976;9.425
4753434.098;182.167;110.567;165.924;72.122;118.650;73.239;26.599;19.707
4753434.106;182.800;111.237;166.446;76.108;117.086;67.130;21.197;13.076
4753434.114;184.216;112.541;168.532;78.678;118.688;69.067;23.879;13.039
4753434.122;185.706;115.670;171.401;82.329;122.339;72.345;32.447;13.001
4753434.130;187.606;118.539;171.810;87.321;121.258;67.241;26.859;13.299
4753434.138;182.092;116.937;167.303;83.968;116.974;66.869;18.924;11.735
4753434.146;186.041;118.352;172.667;87.097;122.413;68.173;23.097;14.678
4753434.113;187.755;120.290;175.834;88.997;129.640;77.337;35.278;25.593
4753434.121;177.026;110.902;167.601;79.013;120.103;72.308;34.198;15.162
4753434.129;173.599;104.792;162.981;74.841;116.676;58.375;20.005;7.525
4753434.137;187.643;120.066;176.206;87.880;129.193;78.417;33.267;30.510
4753434.145;188.388;120.662;179.335;90.748;133.179;79.870;39.525;34.235
4753434.153;166.371;96.634;157.356;63.255;112.355;52.676;-0.224;0.820
4753434.161;156.388;88.476;146.627;55.172;101.887;55.507;9.760;3.166
4753434.169;167.452;105.314;152.439;80.839;105.388;55.656;20.266;7.749
4753434.177;162.609;105.724;141.859;83.074;94.622;63.889;18.701;14.901
4753434.185;151.545;99.055;125.617;84.676;78.045;55.917;10.431;4.508
4753434.193;163.689;117.719;133.738;109.859;82.627;73.686;42.245;19.409
4753434.201;168.197;127.591;136.308;123.307;81.845;87.991;55.209;31.106
4753434.209;148.974;109.896;113.137;109.412;59.307;63.255;6.407;6.557
4753434.217;151.657;119.507;112.802;121.482;58.152;74.096;18.328;14.417
4753434.225;162.832;133.142;121.370;142.008;65.155;75.921;31.702;16.429
4753434.233;155.419;131.316;111.386;147.000;57.258;75.102;36.098;12.256
4753434.241;166.371;145.733;120.513;165.366;66.645;94.585;58.375;30.622
4753434.249;167.079;148.900;117.421;172.108;65.640;93.654;47.125;38.594
4753434.257;164.509;150.874;114.813;172.481;65.044;101.291;43.325;50.813
4753434.265;136.644;125.282;85.272;150.464;36.620;62.920;13.262;1.900
4753434.273;135.675;123.382;81.733;149.012;39.227;62.324;16.801;1.937
4753434.281;134.520;121.631;81.584;144.877;45.374;75.772;23.507;23.358
4753434.289;119.768;106.581;65.565;128.523;35.502;75.884;24.512;26.077
4753434.297;106.134;93.058;53.085;111.349;23.656;75.623;26.487;21.607
4753434.261;92.573;75.959;38.520;96.746;-3.502;67.949;18.030;19.595
4753434.269;88.401;69.700;33.043;89.109;-18.030;66.645;18.738;20.042
4753434.277;84.192;65.081;29.430;82.962;-20.005;64.671;16.876;14.268
4753434.285;86.501;63.218;31.218;78.641;-13.672;67.391;19.856;20.713
4753434.293;80.802;58.189;25.705;68.881;-16.503;69.886;14.976;20.191
4753434.301;69.402;44.368;15.423;53.607;-26.524;56.177;0.410;7.041
4753434.309;75.586;49.956;22.314;55.283;-15.870;62.101;8.233;19.185
4753434.317;77.412;52.825;22.165;56.960;-21.681;67.465;17.025;24.922
4753434.325;85.309;58.860;27.940;62.138;-54.911;75.921;30.138;33.341
4753434.333;79.535;53.272;22.314;53.272;-89.258;71.488;14.193;19.521
4753434.341;77.225;49.435;22.426;49.956;-92.462;66.757;8.494;17.770
4753434.349;79.498;50.329;24.736;49.137;-91.232;70.557;13.374;21.830
4753434.357;85.160;58.450;28.871;55.432;-90.450;75.400;21.942;22.054
4753434.365;93.207;66.347;38.631;62.920;-78.827;75.027;16.242;34.980
4753434.373;87.433;61.281;34.571;57.034;-85.346;65.565;9.537;19.409
4753434.381;84.862;58.115;31.106;55.209;-94.287;59.083;10.580;9.015
4753434.389;91.791;65.677;37.737;59.567;-85.682;65.118;9.052;17.323
4753434.397;90.413;64.038;39.488;57.630;-78.157;74.022;21.867;22.985
4753434.405;89.146;64.559;37.961;59.716;-84.490;78.119;35.390;32.857
4753434.413;84.937;60.983;36.620;53.309;-96.969;68.024;13.374;21.830
4753434.421;83.186;56.997;35.129;48.503;-100.695;55.544;-1.788;11.474
4753434.429;96.112;69.663;44.070;59.158;-92.424;62.771;14.864;19.334
4753434.437;100.993;74.916;46.976;64.000;-90.003;66.869;24.512;21.532
4753434.445;99.614;73.202;45.933;63.889;-87.135;64.783;16.615;23.767
4753434.429;97.305;72.196;44.703;58.860;-86.688;72.829;23.544;31.702
4753434.437;83.856;59.605;32.671;46.268;-96.932;61.020;12.331;15.274
4753434.445;79.274;55.991;29.132;41.723;-96.783;61.207;3.837;18.403
4753434.453;77.523;54.576;30.287;35.390;-93.430;66.422;7.041;28.051
4753434.461;63.404;43.958;16.391;23.916;-108.294;52.005;-1.155;15.385
4753434.469;71.749;52.974;25.555;27.902;-95.628;56.513;0.969;22.203
4753434.477;82.403;60.387;34.608;34.571;-84.676;55.954;14.752;16.168
4753434.485;81.807;60.648;32.745;33.379;-88.401;54.203;11.437;10.021
4753434.493;82.664;61.244;35.092;31.479;-82.329;58.338;11.288;14.082
4753434.501;79.535;56.326;30.920;26.971;-84.713;51.297;1.527;10.170
4753434.509;83.037;61.654;37.365;31.628;-76.890;59.083;10.878;18.850
4753434.517;79.758;57.034;35.204;27.344;-74.357;51.782;2.049;12.405
4753434.525;78.753;57.928;32.894;27.083;-80.280;53.421;10.133;14.119
4753434.533;82.068;62.399;36.582;31.330;-78.939;60.946;14.566;26.859
4753434.541;78.492;56.326;32.298;26.450;-81.100;51.595;7.190;19.409
4753434.549;82.925;56.736;35.055;24.028;-76.368;52.787;9.872;11.027
4753434.557;84.266;55.805;34.794;24.512;-74.916;51.744;11.697;11.735
4753434.565;87.172;56.811;35.204;24.214;-74.618;47.497;1.267;10.282
4753434.573;97.975;65.975;44.480;33.267;-60.908;58.748;17.844;21.011
4753434.581;103.191;69.514;47.460;38.520;-56.401;64.149;23.842;34.235
4753434.589;96.336;62.622;41.462;30.249;-61.952;62.287;21.569;25.146
4753434.597;90.338;56.773;34.831;25.369;-66.906;53.197;14.380;15.274
4753434.605;91.903;59.232;35.390;26.338;-64.671;55.991;20.936;20.713
4753434.613;93.505;59.828;37.886;23.805;-61.095;60.350;16.280;28.349
4753434.669;88.923;51.968;33.006;16.578;-62.026;50.217;6.147;20.415
4753434.677;90.040;53.011;34.869;15.758;-57.854;53.979;15.423;23.246
4753434.685;93.877;56.028;36.433;17.360;-60.089;53.830;17.695;20.117
4753434.693;99.204;60.350;43.362;20.228;-50.254;60.536;25.183;28.051
4753434.701;92.238;55.172;38.669;15.162;-53.011;55.172;15.274;21.718
4753434.709;90.636;52.750;35.390;13.635;-57.109;54.426;13.821;28.089
4753434.717;91.903;52.787;38.259;11.139;-53.383;59.083;19.334;30.734
4753434.725;86.874;45.523;33.192;4.992;-57.407;53.272;13.188;24.885
4753434.733;88.774;47.646;35.614;6.668;-52.154;57.891;19.073;28.685
4753434.741;81.547;40.755;30.547;-2.012;-56.922;52.564;15.199;21.420
4753434.749;83.074;41.164;31.851;-2.235;-54.948;52.936;16.764;24.848
4753434.757;83.111;40.047;33.714;-5.476;-46.380;53.421;16.913;24.438
4753434.765;84.639;40.792;33.416;-4.768;-47.982;56.773;23.358;29.393
4753434.773;83.856;40.941;33.006;-3.874;-46.231;62.808;30.994;30.920
4753434.781;89.929;46.454;40.494;0.782;-36.880;63.330;26.301;29.616
4753434.789;90.860;46.901;41.053;-0.484;-35.875;49.956;14.864;26.971
4753434.797;84.937;41.686;36.955;-6.817;-39.004;39.451;8.084;14.044
4753434.805;84.676;41.686;37.141;-6.557;-39.376;39.376;10.021;15.572
4753434.813;94.064;52.154;47.013;0.447;-28.089;48.392;17.621;25.742
4753434.821;103.489;60.685;59.307;6.631;-14.491;54.017;26.785;24.997
4753434.829;107.884;61.989;64.075;8.121;-9.649;50.217;23.469;23.916
4753434.837;104.606;58.301;59.903;2.682;-16.950;45.896;16.801;15.311
4753434.845;110.008;64.000;67.726;7.115;-4.917;48.541;22.352;21.160
4753434.853;115.521;71.041;75.139;13.746;2.794;64.224;39.749;36.731
4753434.866;111.870;67.130;73.910;9.388;1.602;65.342;34.831;36.098
4753434.874;110.418;64.932;73.835;6.407;2.310;59.344;28.536;28.312
4753434.882;113.919;64.857;79.796;4.321;12.554;61.616;34.347;29.206
4753434.890;105.649;55.358;70.557;-1.155;8.643;53.085;23.730;27.046
4753434.898;113.659;66.794;76.666;17.434;12.256;56.885;23.842;32.969
4753434.906;113.659;66.124;75.959;21.160;11.362;64.448;38.333;38.221
4753434.914;124.760;76.368;83.894;37.327;17.136;68.322;42.692;46.566
4753434.922;122.041;78.268;75.847;43.586;7.451;68.508;43.437;46.939
4753434.930;121.593;78.902;71.786;49.435;5.253;65.900;44.666;47.535
4753434.938;124.462;82.292;70.781;57.444;3.576;72.643;56.140;54.054
4753434.946;122.599;80.504;67.838;56.066;3.092;67.763;45.113;49.509
4753434.954;116.378;77.225;58.413;55.917;-7.749;61.654;37.812;44.629
4753434.962;120.848;84.229;61.244;65.193;-3.502;70.781;51.744;51.185
4753434.970;113.212;75.996;52.862;63.181;-7.190;57.481;35.651;37.141
4753434.978;106.655;70.632;43.139;63.442;-18.291;54.464;32.671;38.296
4753434.986;111.051;75.139;47.199;68.657;-12.927;55.656;37.700;39.749
4753434.994;106.283;70.818;40.457;67.651;-18.775;47.870;27.865;32.187
4753435.002;99.018;64.485;33.975;61.132;-26.412;51.521;27.083;35.167
4753435.010;98.683;61.616;37.067;57.481;-22.985;51.633;28.834;40.047
4753435.018;99.353;60.648;39.078;56.438;-19.744;54.576;33.751;41.761
4753435.026;90.078;51.595;31.218;47.386;-27.753;52.862;36.173;31.441
4753435.034;92.536;54.501;35.129;48.019;-22.389;57.630;41.202;36.992
4753435.042;95.516;59.158;39.339;50.329;-18.030;57.817;40.606;38.221
4753435.050;88.774;49.658;33.639;41.090;-23.916;42.841;24.736;26.673
4753435.061;90.934;49.584;35.875;40.308;-21.085;44.033;26.375;31.851
4753435.069;88.252;45.188;36.545;34.869;-18.291;38.296;17.285;26.710
4753435.077;92.611;46.529;41.686;36.582;-13.001;36.396;16.503;24.065
4753435.085;95.628;49.658;45.970;38.892;-7.302;42.170;24.065;28.126
4753435.093;98.050;51.260;48.801;42.133;-5.960;37.737;19.372;24.475
4753435.101;100.285;51.260;52.936;39.786;-0.484;44.443;26.450;30.175
4753435.109;97.305;48.168;52.303;34.124;1.043;45.709;27.306;29.355
4753435.117;93.095;42.468;48.913;27.902;-4.247;41.351;20.303;31.032
4753435.125;83.297;29.877;41.723;13.448;-11.101;38.370;21.830;22.277
4753435.133;76.592;25.555;34.571;12.107;-15.609;32.000;14.380;17.472
4753435.141;80.951;35.018;35.614;25.444;-15.274;35.726;19.334;24.103
4753435.149;73.537;29.765;24.624;22.650;-27.753;37.812;21.644;26.375
4753435.157;71.488;27.716;20.564;23.767;-30.585;34.235;19.781;22.613
4753435.165;68.732;26.934;14.342;25.891;-39.078;31.814;16.876;18.328
4753435.173;73.873;34.347;15.050;37.961;-42.133;35.129;24.661;20.415
4753435.181;75.437;37.365;15.311;44.368;-40.270;28.796;17.285;13.672
4753435.189;77.896;41.835;16.429;50.962;-41.053;29.579;13.784;19.297
4753435.197;75.176;40.680;10.170;54.911;-51.111;24.214;13.374;16.764
4753435.205;62.026;29.206;-5.849;46.380;-67.726;16.466;6.519;3.204
4753435.213;60.908;28.349;-6.594;47.982;-67.391;14.268;3.614;3.278
4753435.221;65.155;34.310;-3.502;55.358;-64.895;22.016;10.282;14.678
4753435.229;55.060;28.051;-16.987;52.787;-81.360;17.062;4.247;10.133
4753435.237;41.723;12.256;-28.238;37.663;-90.972;-0.373;-8.419;-10.878
4753435.245;49.435;18.440;-18.217;41.835;-81.398;6.594;3.017;-5.551
4753435.284;50.999;19.260;-13.746;43.251;-74.059;8.941;4.731;1.900
4753435.292;50.329;20.415;-11.586;43.884;-71.414;15.162;10.170;11.325
4753435.300;41.910;13.299;-19.632;36.433;-80.988;3.576;-7.376;-0.261
4753435.308;36.880;6.519;-22.724;28.498;-81.584;-8.382;-20.117;-10.468
4753435.316;41.313;10.803;-15.683;29.914;-72.531;0.410;-8.196;-2.570
4753435.324;42.580;14.193;-16.131;34.310;-73.463;4.023;-1.378;2.645
4753435.332;40.531;14.454;-18.962;33.416;-77.374;3.092;0.969;-0.373
4753435.340;37.067;11.139;-17.881;27.120;-72.755;5.215;1.118;0.373
4753435.348;30.175;3.688;-22.799;17.695;-77.896;2.608;-8.307;2.012
4753435.356;27.716;1.043;-22.389;13.672;-76.666;5.811;-7.674;5.960
4753435.364;18.887;-7.786;-30.659;5.551;-83.782;1.788;-4.210;2.347
4753435.372;13.001;-12.629;-34.347;1.267;-86.278;-5.923;-10.207;-3.688
4753435.380;19.819;-6.892;-25.220;6.072;-80.131;-1.527;-8.121;2.123
4753435.388;26.040;-1.825;-17.136;10.170;-68.061;8.643;7.153;10.729
4753435.396;19.372;-8.233;-21.532;3.092;-71.041;3.837;5.513;1.006
4753435.404;17.807;-10.803;-21.383;0.596;-72.755;-0.186;-4.284;-1.267
4753435.412;26.785;-2.310;-9.462;7.749;-58.226;8.605;5.774;8.084
4753435.420;20.675;-9.686;-12.070;-0.373;-58.822;1.676;-4.619;2.943
4753435.428;18.254;-10.952;-13.970;-0.745;-61.803;4.619;1.453;5.439
4753435.436;23.134;-4.284;-9.052;7.376;-58.562;13.560;20.415;11.362
4753435.444;30.808;1.974;0.186;14.454;-49.062;19.297;17.099;20.824
4753435.452;23.507;-6.557;-5.998;5.849;-55.842;6.221;-4.731;3.651
4753435.460;24.326;-5.066;-4.396;8.009;-51.819;9.909;2.272;4.247
4753435.468;26.748;-2.310;-0.410;10.766;-44.964;19.409;16.801;17.509
4753435.462;24.959;-3.539;-1.043;7.637;-44.070;22.613;21.011;21.160
4753435.470;17.621;-11.474;-7.562;-1.639;-48.727;12.405;1.714;15.944
4753435.478;19.222;-9.686;-5.253;-1.639;-44.443;19.036;10.915;29.095
4753435.486;11.250;-16.205;-12.964;-8.680;-52.117;15.572;17.099;19.819
4753435.494;6.370;-20.564;-16.913;-15.311;-55.507;14.901;4.359;26.226
4753435.502;7.488;-18.589;-13.970;-16.689;-49.099;25.034;11.511;36.620
4753435.510;11.548;-14.529;-10.580;-12.293;-42.506;27.269;24.885;35.875
4753435.518;6.706;-18.328;-15.870;-16.131;-49.472;17.434;11.995;23.134
4753435.526;6.296;-17.025;-14.603;-16.242;-48.392;12.591;9.015;20.266
4753435.534;8.866;-15.832;-10.617;-16.205;-41.090;15.572;20.005;30.100
4753435.542;3.912;-20.899;-13.262;-22.314;-39.637;16.987;17.807;34.831
4753435.550;7.562;-12.554;-13.635;-8.866;-40.196;11.399;12.778;29.691
4753435.558;19.260;-1.416;-5.886;2.719;-35.837;17.844;20.117;34.682
4753435.566;36.210;16.280;7.451;22.836;-30.026;25.667;26.934;41.351
4753435.574;39.339;20.564;7.823;29.877;-31.814;20.340;20.191;32.261
4753435.582;43.847;25.332;9.984;35.129;-31.665;24.773;28.089;34.347
4753435.590;58.524;40.010;21.830;52.154;-23.060;33.341;39.563;45.337
4753435.598;70.110;53.570;30.957;66.459;-19.521;39.302;45.709;53.346
4753435.606;70.184;55.581;28.908;69.626;-22.724;34.422;44.256;47.535
4753435.614;61.803;45.486;21.271;59.940;-30.734;18.440;24.401;28.275
4753435.622;59.344;43.102;19.707;57.854;-32.075;19.930;31.814;29.281
4753435.630;60.722;44.629;22.352;60.126;-24.289;23.767;39.339;34.459
4753435.638;61.095;45.635;21.979;60.089;-23.991;28.163;37.998;40.308
4753435.646;64.149;49.099;27.306;64.559;-14.044;34.869;43.996;45.076
4753435.627;44.294;29.244;7.972;46.194;-34.645;18.440;27.940;28.536
4753435.635;42.431;28.387;6.631;43.958;-33.975;18.403;31.106;29.579
4753435.643;42.208;27.344;8.270;40.457;-29.989;20.377;30.436;36.284
4753435.651;38.594;24.773;6.706;37.290;-30.957;21.867;31.665;39.339
4753435.659;28.573;14.640;-4.768;28.349;-35.651;11.921;20.675;28.647
4753435.667;28.685;12.740;-12.964;27.642;-35.763;10.394;15.572;29.728
4753435.675;34.645;18.701;-5.960;33.155;-29.653;22.985;23.618;39.786
4753435.683;25.183;10.394;-6.855;27.306;-35.986;22.314;24.736;37.141
4753435.691;18.626;3.204;-8.941;20.415;-38.370;20.452;22.426;36.918
4753435.699;20.117;4.284;-6.184;21.569;-37.588;19.707;22.762;37.849
4753435.707;24.252;7.190;-0.447;23.954;-30.026;18.217;22.314;39.041
4753435.715;28.089;9.984;4.694;24.661;-25.705;19.819;23.842;41.611
4753435.723;21.793;3.353;-1.341;18.068;-34.608;12.219;13.448;38.631
4753435.731;20.340;2.235;-2.757;14.976;-35.278;6.407;10.692;29.653
4753435.739;26.710;8.717;6.519;19.968;-23.991;14.491;22.575;36.657
4753435.747;23.916;5.066;4.880;14.603;-25.444;8.717;17.211;32.149
4753435.755;23.544;4.657;5.998;12.107;-24.661;7.711;20.154;30.361
4753435.763;15.013;-4.508;0.000;2.645;-28.796;4.284;18.626;31.590
4753435.771;11.250;-4.545;-5.849;4.806;-35.241;-2.384;11.362;27.604
4753435.779;18.626;5.253;0.186;18.664;-32.037;-0.484;14.529;25.816
4753435.787;28.796;14.976;7.972;32.336;-31.553;-2.235;14.044;24.028
4753435.795;32.037;19.595;8.680;38.259;-35.875;-2.198;10.133;24.065
4753435.803;39.227;26.338;15.087;45.486;-30.324;-4.917;9.090;22.091
4753435.811;48.503;37.327;19.744;57.854;-31.441;-1.602;17.323;24.959
4753435.854;53.458;44.443;22.314;66.608;-32.298;-3.353;18.291;20.079
4753435.862;54.501;46.715;22.240;71.563;-36.545;-1.527;19.148;23.544
4753435.870;54.017;48.801;19.930;74.916;-42.915;2.161;20.601;29.430
4753435.878;56.922;53.197;22.575;81.062;-36.396;9.649;29.169;41.388
4753435.886;59.009;52.862;27.530;78.678;-26.859;15.162;34.980;46.231
4753435.894;41.537;34.571;13.411;58.413;-42.394;-1.229;19.856;24.959
4753435.902;35.278;28.722;8.084;51.931;-49.397;-12.629;7.227;15.423
4753435.910;42.170;35.726;18.440;57.183;-35.465;-9.350;13.970;20.713
4753435.918;46.231;39.823;23.432;61.318;-30.622;-7.786;16.913;23.618
4753435.926;41.723;36.210;19.819;56.736;-34.608;-5.700;18.738;23.842
4753435.934;44.145;39.488;25.555;57.407;-21.681;-2.384;19.297;25.965
4753435.942;47.497;42.506;30.696;59.605;-19.968;0.075;18.291;30.063
4753435.950;44.554;39.376;31.441;55.097;-15.162;4.582;21.756;30.957
4753435.958;38.631;32.634;27.828;48.168;-17.397;5.811;25.034;30.994
4753435.966;33.043;24.959;24.326;39.749;-19.819;4.172;23.022;31.441
4753435.974;23.358;13.225;15.870;26.785;-25.965;-6.817;11.958;24.252
4753435.982;23.022;11.660;18.589;24.885;-20.005;-7.711;12.591;24.699
4753435.990;26.822;16.056;26.785;25.928;-8.531;0.857;20.042;36.135
4753435.998;28.312;16.466;26.934;25.705;-9.388;2.310;19.819;42.245
4753436.006;24.028;10.431;22.314;19.856;-14.864;-3.427;12.740;32.112
4753436.014;15.832;1.974;14.380;10.654;-22.501;-10.133;8.717;16.727
4753436.022;20.340;5.364;21.942;13.635;-11.288;-5.886;12.815;22.203
4753436.030;17.583;2.682;21.569;8.978;-10.915;-1.565;17.546;27.865
4753436.038;13.560;-1.341;19.558;4.172;-9.425;-3.055;14.603;28.014
4753435.987;14.789;0.075;24.252;4.247;-3.800;2.198;18.179;37.365
4753435.995;13.597;-1.825;25.295;1.788;-0.969;1.714;14.454;36.992
4753436.003;6.594;-8.754;20.079;-4.806;-4.731;-6.147;9.947;23.544
4753436.011;9.388;-7.972;23.246;-4.396;-1.937;6.706;26.636;35.800
4753436.019;2.496;-11.511;15.050;-4.433;-8.456;6.817;27.977;38.072
4753436.027;9.388;1.006;21.160;13.746;-8.084;-1.080;16.205;28.275
4753436.035;26.338;18.030;33.826;32.969;-5.215;4.806;23.581;37.998
4753436.043;34.235;27.567;35.800;46.939;-8.382;7.935;30.287;40.978
4753436.051;39.712;35.986;37.141;57.593;-13.523;0.820;21.830;27.791
4753436.059;44.927;44.219;35.912;67.838;-23.581;0.224;18.664;28.312
4753436.067;54.985;57.854;41.910;84.192;-22.650;4.694;27.418;31.814
4753436.075;73.947;76.927;58.562;105.761;-11.735;16.913;43.660;45.076
4753436.083;81.733;84.862;63.293;117.943;-12.293;19.036;47.721;48.801
4753436.091;76.182;80.764;55.544;116.192;-21.905;8.903;36.135;37.514
4753436.099;70.445;78.045;49.472;115.186;-27.865;7.935;34.496;39.190
4753436.107;65.006;75.325;45.784;113.212;-28.461;9.425;36.061;41.537
4753436.115;69.998;78.529;54.352;114.664;-16.950;13.039;42.357;45.709
4753436.123;70.967;77.859;57.667;112.802;-10.729;14.864;41.388;48.019
4753436.131;62.883;70.557;51.633;104.457;-13.337;16.466;41.537;47.795
4753436.139;50.254;59.828;41.164;94.511;-22.426;6.221;33.081;35.316
4753436.147;43.325;53.309;36.694;87.358;-24.438;5.998;30.436;34.422
4753436.155;46.939;55.879;42.170;88.103;-14.566;13.895;38.818;45.113
4753436.163;41.500;51.074;38.408;82.105;-15.385;14.752;42.170;46.417
4753436.171;35.875;46.603;34.124;75.884;-17.360;14.044;45.039;44.480
4753436.108;32.634;43.549;33.639;70.781;-14.938;6.221;35.129;40.829
4753436.116;28.014;38.855;31.851;63.330;-13.374;4.880;35.949;40.196
4753436.124;28.536;40.047;35.167;61.169;-8.568;11.697;45.598;47.013
4753436.132;24.699;34.273;33.192;53.123;-8.643;1.900;30.734;42.319
4753436.140;28.498;37.700;39.302;53.309;0.708;3.539;35.651;42.021
4753436.148;22.128;32.373;33.900;45.896;-1.825;2.831;30.324;40.159
4753436.156;14.901;25.220;29.020;34.496;-2.570;-1.267;24.103;39.823
4753436.164;9.909;19.558;25.854;25.257;-2.682;-1.229;23.991;41.723
4753436.172;11.921;22.203;28.610;25.555;2.719;2.496;30.510;42.915
4753436.180;18.328;29.132;35.204;28.983;13.933;15.236;44.219;50.999
4753436.188;2.198;10.692;21.420;6.780;5.737;13.486;36.322;49.993
4753436.196;-2.980;8.158;16.503;6.519;1.676;10.766;37.327;47.609
4753436.204;20.638;32.596;34.571;34.086;10.170;12.666;43.362;45.747
4753436.212;39.078;49.025;45.486;52.825;13.188;12.107;41.872;42.878
4753436.220;58.301;66.310;59.009;69.961;19.185;15.087;44.145;47.795
4753436.228;73.910;80.317;72.010;83.409;27.865;11.437;45.635;44.629
4753436.236;70.184;76.853;68.583;78.045;26.897;11.325;45.188;42.729
4753436.244;64.112;69.961;63.851;69.700;25.630;6.743;36.731;39.861
4753436.252;61.728;66.347;62.138;65.975;26.263;2.310;34.012;34.682
4753436.260;65.081;67.800;68.732;64.559;38.370;12.703;46.715;49.509
4753436.268;57.928;58.636;63.330;54.836;36.731;8.866;42.394;45.784
4753436.276;41.127;41.835;48.392;37.253;22.501;-8.084;25.444;24.810
4753436.284;41.574;42.841;51.558;36.731;25.593;-4.210;28.647;28.424
4753436.292;48.354;47.684;62.138;40.755;40.643;-0.335;31.814;35.614
4753436.258;48.168;45.002;65.379;36.433;47.870;3.390;33.528;40.978
4753436.266;40.345;35.465;59.530;27.344;43.139;-5.402;26.375;28.387
4753436.274;34.831;29.653;54.725;21.569;37.551;-7.823;19.968;25.854
4753436.282;35.316;28.983;58.301;18.999;44.033;-5.513;18.440;26.338
4753436.290;36.433;29.653;62.212;17.732;50.776;-1.900;24.922;30.734
4753436.298;27.157;21.160;55.283;7.562;44.852;-9.276;17.807;25.854
4753436.306;26.822;21.271;57.705;8.047;47.423;-8.047;19.744;27.604
4753436.314;28.238;24.214;60.648;9.313;49.882;-8.643;20.452;22.687
4753436.322;28.908;24.214;63.777;7.488;57.109;-7.860;21.085;25.220
4753436.330;22.687;17.770;59.679;0.894;57.295;-11.995;15.534;23.283
4753436.338;24.997;19.744;63.963;1.714;63.442;-4.284;26.822;27.455
4753436.346;18.664;11.250;59.158;-5.998;62.212;4.545;31.143;34.161
4753436.354;26.301;23.395;64.000;12.852;62.436;3.688;27.828;32.187
4753436.362;53.085;48.764;82.441;39.861;70.035;4.470;30.734;33.565
4753436.370;69.030;65.938;90.897;61.579;69.626;1.974;31.292;30.659
4753436.378;91.195;89.668;107.102;88.513;75.139;8.941;36.396;36.433
4753436.386;105.575;102.930;115.335;104.085;74.729;8.382;35.837;33.677
4753436.394;114.925;115.074;118.874;116.751;73.723;11.437;43.139;36.880
