Timestamp,AFz,AF3,AF4,AF7,AF8,Pz,P3,P4,2024-04-10 13:22:51.648,fs=125
2340487.874;4.321;-1.527;1.825;2.608;2.496;9.686;10.245;7.115
2340487.882;8.158;3.204;6.072;7.413;7.451;13.746;15.274;10.915
2340487.890;9.164;5.998;6.109;8.158;4.843;12.480;16.205;9.760
2340487.898;13.746;11.027;10.841;12.033;8.382;17.881;21.681;13.150
2340487.906;14.305;11.809;10.692;13.709;8.233;21.122;23.916;15.423
2340487.914;11.958;8.382;8.978;9.127;6.445;19.185;21.607;14.678
2340487.922;6.557;3.725;2.757;6.072;-0.410;18.105;21.160;11.995
2340487.930;2.235;-1.565;-1.267;1.825;-4.284;18.328;21.718;10.505
2340487.938;4.210;-0.261;1.378;3.614;-1.565;19.595;22.911;13.039
2340487.946;3.502;-1.490;1.639;-0.075;-0.633;18.328;20.787;13.858
2340487.954;7.004;1.043;5.104;1.974;2.831;19.968;21.793;15.721
2340487.962;13.076;7.600;10.915;8.494;8.680;22.575;24.922;18.030
2340487.970;12.070;9.015;10.915;9.872;7.078;17.919;22.203;15.199
2340487.978;7.004;4.172;6.817;6.966;3.688;11.958;15.907;11.958
2340487.986;2.943;0.112;2.496;0.484;0.969;4.619;8.531;5.588
2340487.994;2.496;-0.782;1.490;-0.373;-0.149;2.943;5.625;4.284
2340488.002;-0.745;-3.837;-1.155;0.969;-1.900;3.316;4.545;5.811
2340488.010;-6.519;-9.052;-6.966;-4.955;-6.482;-0.149;0.335;4.657
2340488.018;-6.594;-9.537;-6.780;-5.998;-5.439;2.235;2.794;6.482
2340488.026;-3.763;-6.407;-4.768;-1.490;-3.166;2.868;4.619;5.066
2340488.034;-1.378;-3.912;-2.645;-1.043;-1.974;3.427;5.960;4.396
2340488.042;0.112;-1.378;-0.559;0.037;-1.416;6.817;7.600;4.917
2340488.050;1.453;0.596;-0.596;1.192;-3.055;10.766;11.250;7.264
2340488.058;4.657;4.210;2.161;2.645;-0.820;19.409;18.850;15.646
2340488.027;-3.427;-2.906;-5.141;-1.453;-7.227;19.260;17.807;18.291
2340488.035;-17.807;-17.360;-19.185;-18.068;-20.824;21.234;19.334;19.632
2340488.043;-8.307;-10.133;-7.786;-11.995;-9.537;24.699;21.756;21.607
2340488.051;3.688;2.235;4.433;-2.198;3.465;23.134;20.228;19.707
2340488.059;6.072;2.719;10.431;-5.551;12.629;16.280;15.348;14.752
2340488.067;5.364;1.788;13.262;-10.245;19.222;11.958;11.846;11.548
2340488.075;5.476;0.931;17.136;-16.429;26.189;9.388;9.164;8.866
2340488.083;7.413;1.639;21.085;-19.893;32.149;9.127;9.239;7.674
2340488.091;3.204;-2.049;15.683;-23.022;28.461;8.643;10.133;7.190
2340488.099;3.651;-1.341;15.162;-22.464;27.493;6.296;7.711;4.359
2340488.107;4.061;-0.633;16.950;-21.197;27.679;5.700;6.668;3.800
2340488.115;1.602;-2.868;14.678;-24.363;27.195;2.459;3.502;0.820
2340488.123;1.490;-1.602;12.554;-19.446;25.146;2.831;4.247;1.602
2340488.131;7.078;4.843;17.099;-11.995;27.269;8.009;10.058;5.625
2340488.139;7.972;5.811;17.546;-12.703;27.716;11.399;12.405;8.233
2340488.147;-0.894;-1.937;7.749;-19.930;19.073;9.537;9.164;8.084
2340488.155;-10.133;-10.394;-1.080;-29.281;11.325;4.545;2.608;6.296
2340488.163;-7.525;-8.866;1.863;-30.659;14.342;7.451;5.178;9.499
2340488.171;-7.898;-9.015;1.006;-29.281;14.007;8.084;7.339;7.972
2340488.179;-8.531;-10.133;1.453;-29.691;13.933;7.190;8.978;5.588
2340488.187;-7.749;-11.101;3.017;-33.788;15.944;9.574;12.480;7.413
2340488.195;-6.631;-9.649;2.570;-31.553;14.603;4.768;7.302;3.204
2340488.203;-5.588;-7.637;1.751;-29.393;13.709;1.788;4.135;1.974
2340488.211;-7.115;-8.605;1.192;-30.696;11.958;1.378;3.353;2.608
2340488.236;-10.878;-11.548;-1.565;-33.751;9.499;0.484;0.484;1.527
2340488.244;-8.196;-8.680;0.447;-30.585;12.033;1.676;0.037;2.794
2340488.252;-7.264;-6.407;1.006;-29.430;13.076;1.676;-0.037;3.427
2340488.260;-9.239;-7.041;-1.639;-30.436;11.399;3.278;1.602;5.849
2340488.268;-12.331;-9.798;-4.508;-29.281;9.201;2.943;1.304;5.886
2340488.276;-10.617;-8.307;-2.533;-31.665;11.846;5.625;4.172;7.153
2340488.284;-12.256;-10.431;-3.800;-35.129;10.207;6.258;4.619;7.637
2340488.292;-13.858;-12.033;-4.806;-34.384;7.972;5.178;3.874;7.525
2340488.300;-12.703;-11.101;-4.545;-33.490;6.706;6.109;6.482;9.276
2340488.308;-14.007;-11.921;-5.625;-34.980;3.912;7.339;7.823;10.058
2340488.316;-12.144;-10.207;-3.055;-33.267;7.227;10.841;9.425;12.256
2340488.324;-8.941;-6.594;-0.149;-28.200;10.654;11.884;8.941;12.740
2340488.332;-8.456;-5.700;0.596;-25.965;11.772;11.846;8.047;13.597
2340488.340;-13.039;-10.021;-2.757;-30.920;9.686;6.631;2.608;10.766
2340488.348;-17.434;-14.268;-5.774;-35.167;7.972;0.596;-2.421;6.333
2340488.356;-14.827;-11.623;-4.023;-34.347;9.127;1.639;0.410;5.066
2340488.364;-11.027;-8.009;-2.943;-30.324;9.276;2.906;4.023;4.880
2340488.372;-9.649;-6.370;-1.565;-28.163;9.462;6.631;6.780;7.115
2340488.380;-10.841;-9.127;-3.055;-30.100;8.345;8.345;7.339;8.047
2340488.388;-12.480;-12.852;-3.874;-32.932;8.382;7.451;6.445;8.084
2340488.396;-9.462;-11.027;-0.447;-29.020;11.809;9.313;8.121;10.990
2340488.404;-4.210;-6.557;6.333;-24.103;18.403;13.560;12.517;15.870
2340488.412;-4.061;-6.109;7.935;-25.071;19.073;12.778;11.474;15.497
2340488.420;-7.823;-11.139;3.874;-29.244;14.640;8.717;5.849;11.437
2340488.462;-9.052;-13.784;4.433;-30.324;16.503;5.439;1.378;9.574
2340488.470;-10.468;-17.136;3.614;-34.422;15.832;3.241;-0.484;9.090
2340488.478;-8.382;-15.683;6.333;-31.590;16.652;3.092;0.447;8.307
2340488.486;-5.402;-12.666;10.021;-27.940;18.142;3.874;1.118;7.115
2340488.494;-2.831;-9.388;11.846;-23.060;18.477;5.215;3.204;5.029
2340488.502;-4.061;-10.245;10.505;-22.203;15.311;2.645;1.900;0.261
2340488.510;-2.310;-7.041;13.784;-18.887;16.354;5.178;4.098;1.565
2340488.518;2.719;-1.304;19.558;-13.523;21.830;10.021;8.531;6.594
2340488.526;8.047;4.619;24.922;-7.376;26.971;12.890;10.319;11.064
2340488.534;7.823;4.917;23.656;-7.674;25.295;9.462;6.557;9.798
2340488.542;5.998;3.688;21.048;-8.680;23.656;3.278;0.000;6.482
2340488.550;4.545;2.086;19.595;-9.574;22.352;0.186;-3.166;3.204
2340488.558;3.874;-0.112;18.626;-11.176;21.383;-0.298;-2.719;1.714
2340488.566;0.224;-3.763;13.709;-14.901;17.472;-2.906;-4.917;-1.341
2340488.574;-6.147;-8.382;6.743;-19.185;10.878;-4.694;-7.600;-4.135
2340488.582;-11.101;-12.405;0.298;-21.942;4.470;-6.668;-8.792;-8.047
2340488.590;-7.339;-7.227;3.204;-15.199;7.451;-3.316;-4.098;-7.339
2340488.598;-2.906;-3.055;8.270;-9.611;14.380;1.490;0.075;-2.496
2340488.606;2.049;2.645;14.156;-4.135;19.222;4.023;2.123;1.192
2340488.614;7.488;7.413;20.750;-0.149;24.997;2.831;0.745;1.453
2340488.622;17.174;16.056;32.745;8.903;35.167;4.098;1.080;4.359
2340488.630;28.275;30.100;44.182;23.507;45.300;5.737;1.900;8.158
2340488.638;43.698;49.919;58.748;46.231;52.899;3.576;-0.931;7.339
2340488.646;57.779;63.553;73.090;60.163;57.407;0.671;-4.061;4.135
2340488.611;74.953;81.994;89.556;82.478;66.347;3.725;1.863;4.619
2340488.619;93.654;103.712;107.326;108.629;76.965;9.350;8.829;7.600
2340488.627;112.616;123.866;123.940;130.907;84.378;13.337;12.591;9.760
2340488.635;120.960;133.775;130.460;143.908;84.601;15.832;16.280;10.692
2340488.643;125.691;140.332;135.228;152.476;84.825;14.678;16.764;8.903
2340488.651;121.333;136.048;129.789;149.943;77.002;8.121;11.772;1.900
2340488.659;115.596;128.560;123.754;140.183;70.855;1.825;6.594;-4.582
2340488.667;109.263;121.482;116.006;132.397;66.310;3.502;7.339;-2.645
2340488.675;95.628;106.320;101.402;118.166;56.662;7.637;9.276;0.447
2340488.683;87.693;98.199;91.679;107.624;51.223;8.345;9.798;0.857
2340488.691;78.529;88.364;81.807;97.044;46.305;7.786;6.706;-0.186
2340488.699;70.408;78.306;72.829;87.321;38.967;8.307;3.651;0.969
2340488.707;60.052;67.353;60.834;75.884;30.100;9.872;3.576;3.837
2340488.715;53.793;60.126;53.607;66.161;25.667;15.236;9.649;9.798
2340488.723;48.727;54.464;48.093;62.436;21.979;20.489;16.876;13.933
2340488.731;43.027;48.429;42.170;55.544;17.248;21.458;18.254;12.815
2340488.739;36.620;42.804;34.980;51.185;11.101;17.248;14.827;8.456
2340488.747;34.310;40.829;32.969;47.609;11.101;12.405;10.803;6.668
2340488.755;29.840;35.092;30.026;41.462;9.686;5.551;4.433;2.645
2340488.763;25.444;29.057;25.779;35.092;4.806;0.782;-0.522;-1.453
2340488.771;23.767;25.481;22.091;31.106;1.974;4.657;2.161;0.112
2340488.779;20.266;21.644;17.919;28.312;-0.633;9.723;5.998;4.135
2340488.787;17.174;19.446;15.385;26.487;-2.831;12.405;7.674;7.413
2340488.795;10.878;13.262;10.505;19.930;-5.476;12.256;6.557;8.866
2340488.790;4.210;7.674;4.135;14.268;-9.686;11.660;7.190;7.749
2340488.798;1.267;5.811;0.894;14.193;-13.411;10.841;7.264;5.253
2340488.806;-0.559;3.800;-0.484;11.995;-13.597;10.431;8.158;3.465
2340488.814;2.682;4.992;2.496;12.293;-9.313;11.362;10.431;4.396
2340488.822;2.161;2.012;2.235;8.419;-10.803;10.058;9.611;4.023
2340488.830;-4.806;-3.614;-5.066;2.608;-17.546;3.502;4.135;-0.186
2340488.838;-6.668;-4.843;-7.041;3.427;-18.999;3.390;5.774;0.931
2340488.846;-2.496;-1.863;-4.508;8.680;-15.162;7.488;9.835;6.482
2340488.854;-2.161;-3.316;-4.508;3.912;-15.013;8.978;8.270;9.090
2340488.862;-8.196;-10.356;-9.984;-3.874;-20.936;5.215;2.645;4.657
2340488.870;-13.560;-13.225;-15.348;-2.943;-25.518;2.868;0.112;2.123
2340488.878;-14.380;-14.417;-16.838;-4.061;-26.152;-0.484;-2.645;-0.969
2340488.886;-14.603;-15.721;-16.093;-4.172;-25.779;-3.837;-4.731;-3.763
2340488.894;-11.958;-13.523;-13.523;-1.490;-24.773;-2.570;-2.794;-2.310
2340488.902;-10.990;-12.778;-13.299;-2.198;-25.705;-2.086;-2.459;-1.192
2340488.910;-10.431;-12.480;-14.305;-2.943;-27.642;-3.949;-5.364;-4.247
2340488.918;-11.474;-11.139;-15.721;-2.980;-29.914;-2.384;-2.570;-5.029
2340488.926;-8.978;-10.170;-13.076;0.596;-27.083;1.341;2.906;-2.384
2340488.934;-8.754;-11.362;-12.107;-1.267;-24.326;3.800;4.470;0.261
2340488.942;-11.660;-15.460;-13.225;-3.874;-23.842;1.565;1.043;-1.304
2340488.950;-8.680;-13.597;-10.021;-2.459;-20.936;2.496;1.341;0.857
2340488.958;-7.190;-11.697;-8.345;0.112;-20.266;4.247;4.023;2.235
2340488.966;-5.029;-9.872;-6.892;4.508;-19.260;8.531;9.835;5.700
2340488.974;-6.333;-11.548;-8.047;2.496;-21.942;8.456;9.201;5.774
2340488.926;-14.119;-19.521;-14.156;-6.221;-27.344;1.416;1.565;2.980
2340488.934;-18.738;-25.928;-17.956;-14.268;-30.100;-6.706;-6.780;-3.092
2340488.942;-11.362;-19.968;-10.729;-8.680;-23.358;-7.302;-5.588;-4.098
2340488.950;-3.874;-12.517;-3.614;-0.671;-16.913;-4.396;-2.384;-2.570
2340488.958;-2.831;-9.872;-3.204;3.092;-16.727;-2.384;-2.608;-2.384
2340488.966;-5.513;-10.952;-6.929;2.757;-20.526;-6.557;-6.519;-7.004
2340488.974;-9.649;-16.093;-11.176;-3.204;-24.289;-8.456;-7.674;-7.711
2340488.982;-12.107;-19.185;-12.666;-6.519;-25.928;-10.058;-7.898;-8.047
2340488.990;1.453;-8.568;1.378;4.172;-13.076;-12.331;-8.941;-8.792
2340488.998;5.476;-5.029;5.029;6.706;-8.196;-8.792;-5.364;-5.402
2340489.006;4.843;-5.327;4.172;8.270;-9.388;-0.037;3.725;2.384
2340489.014;-2.012;-11.772;-3.614;4.694;-16.205;2.906;6.333;4.172
2340489.022;-8.568;-16.727;-9.760;-0.857;-23.320;4.731;7.413;5.364
2340489.030;-7.786;-16.205;-8.717;-1.602;-22.501;8.754;11.176;8.382
2340489.038;-6.221;-14.268;-7.264;0.857;-21.867;11.288;13.448;9.239
2340489.046;-10.245;-18.291;-9.723;-2.682;-25.406;7.302;9.015;5.290
2340489.054;-10.543;-19.595;-9.276;-3.017;-24.326;5.923;8.792;5.178
2340489.062;-5.402;-14.901;-4.135;1.676;-18.068;8.866;11.697;9.127
2340489.070;-4.396;-13.597;-4.843;4.396;-19.558;5.625;6.929;6.706
2340489.078;-6.780;-15.572;-7.302;3.204;-23.060;3.688;3.986;5.141
2340489.086;-7.711;-17.360;-6.668;0.820;-21.942;3.539;5.215;3.874
2340489.094;-9.462;-21.607;-7.674;-3.390;-21.607;1.825;6.109;0.261
2340489.102;-16.354;-29.691;-14.827;-11.176;-28.573;0.559;5.364;-3.166
2340489.110;-25.071;-38.370;-23.581;-18.775;-37.104;-1.378;2.570;-4.880
2340489.181;-23.134;-37.700;-21.197;-15.721;-33.602;-2.608;1.527;-3.316
2340489.189;-20.415;-37.774;-18.552;-14.268;-31.032;-4.880;-1.565;-4.284
2340489.197;-18.179;-38.072;-16.652;-14.342;-29.057;-2.235;-1.714;-1.825
2340489.205;-17.807;-38.631;-15.162;-15.274;-25.928;0.037;0.000;1.676
2340489.213;-20.564;-42.468;-16.429;-18.552;-26.785;-1.602;-1.639;1.453
2340489.221;-19.893;-43.996;-16.131;-17.956;-25.444;-1.676;-3.688;1.863
2340489.229;-19.297;-44.256;-16.205;-16.987;-24.475;-5.476;-7.004;-2.310
2340489.237;-20.266;-46.678;-17.136;-19.372;-24.848;-8.680;-9.090;-6.594
2340489.245;-17.583;-45.858;-14.119;-17.919;-22.314;-4.359;-4.768;-3.614
2340489.253;-18.626;-46.380;-16.317;-18.775;-24.624;-0.820;-0.857;-1.602
2340489.261;-21.309;-47.944;-19.334;-20.601;-28.536;3.949;3.390;1.676
2340489.269;-22.501;-47.944;-22.016;-17.397;-31.851;4.992;4.470;3.278
2340489.277;-17.844;-43.660;-18.068;-9.462;-28.759;6.631;5.811;4.917
2340489.285;-18.105;-44.182;-17.583;-10.319;-27.381;8.941;8.158;4.880
2340489.293;-18.701;-44.629;-18.813;-10.021;-26.822;8.866;9.350;3.651
2340489.301;-19.744;-43.884;-20.638;-11.064;-29.355;5.439;6.817;0.969
2340489.309;-18.217;-41.649;-19.222;-7.525;-28.536;7.078;9.350;1.974
2340489.317;-18.626;-41.015;-20.601;-8.121;-30.324;3.837;6.221;-1.378
2340489.325;-15.721;-38.408;-18.962;-5.923;-28.200;3.390;4.917;-4.396
2340489.333;-14.678;-38.184;-17.323;-4.619;-27.083;5.178;7.078;-3.912
2340489.341;-13.113;-38.370;-15.758;-3.837;-24.326;5.998;8.531;-2.049
2340489.349;-15.683;-41.202;-17.695;-5.104;-25.332;5.364;5.923;-1.900
2340489.357;-19.781;-46.194;-21.867;-10.058;-28.312;2.831;1.155;-2.980
2340489.365;-14.789;-43.176;-15.944;-7.637;-21.756;7.823;4.955;2.421
2340489.420;-15.013;-43.660;-15.981;-8.531;-20.862;6.035;3.763;2.049
2340489.428;-14.566;-42.953;-14.976;-7.078;-20.936;3.166;2.123;-1.229
2340489.436;-11.176;-40.308;-12.033;-4.657;-18.924;7.972;6.817;1.825
2340489.444;-9.686;-38.631;-11.176;-1.825;-17.583;10.021;8.494;4.061
2340489.452;-10.543;-39.227;-12.293;-1.788;-18.850;9.611;7.749;2.235
2340489.460;-10.468;-38.818;-11.995;-2.570;-20.042;9.127;6.184;0.484
2340489.468;-10.431;-38.110;-11.697;-2.608;-19.781;8.456;5.439;-0.112
2340489.476;-12.740;-40.308;-13.858;-4.359;-20.824;4.508;2.868;-1.453
2340489.484;-16.838;-44.107;-17.285;-7.041;-23.097;1.490;0.261;-2.570
2340489.492;-19.372;-47.386;-18.999;-11.027;-24.401;2.980;2.496;-0.410
2340489.500;-15.944;-46.007;-15.162;-9.313;-20.228;7.004;7.562;1.974
2340489.508;-11.995;-41.351;-11.846;-3.204;-16.950;8.345;8.531;0.522
2340489.516;-10.803;-37.849;-12.368;2.533;-17.844;7.190;8.792;-1.304
2340489.524;-12.070;-37.514;-13.672;3.576;-20.266;5.066;6.706;-2.906
2340489.532;-12.405;-39.265;-13.225;1.714;-20.862;6.370;6.445;-2.310
2340489.540;-11.064;-39.823;-11.884;0.969;-19.483;8.680;7.525;1.043
2340489.548;-11.399;-39.898;-13.448;0.671;-20.191;9.127;6.706;4.061
2340489.556;-14.380;-41.537;-16.280;-1.155;-22.314;6.445;5.513;1.788
2340489.564;-13.970;-40.829;-15.125;0.112;-22.054;7.302;7.786;1.825
2340489.572;-16.876;-45.337;-16.913;-2.980;-23.320;8.754;9.052;3.614
2340489.580;-20.750;-48.205;-20.340;-8.158;-25.854;7.749;7.562;3.278
2340489.588;-14.268;-41.984;-13.821;-2.235;-19.670;11.884;10.133;8.419
2340489.596;-14.082;-42.133;-11.995;0.075;-17.248;10.952;9.052;8.531
2340489.604;-16.466;-44.405;-13.225;-2.868;-18.626;5.327;3.725;3.166
2340489.630;-14.640;-41.686;-12.629;-0.112;-19.819;6.333;3.912;1.937
2340489.638;-12.517;-38.072;-11.846;5.402;-18.962;5.364;3.986;0.596
2340489.646;-9.276;-33.677;-9.947;11.325;-17.434;10.133;10.207;3.129
2340489.654;-10.803;-35.577;-11.399;8.903;-18.664;12.778;13.709;4.657
2340489.662;-12.666;-37.104;-13.411;5.849;-20.750;13.784;14.454;5.327
2340489.670;-8.643;-32.075;-10.207;9.947;-18.291;16.168;16.168;7.562
2340489.678;-7.190;-29.802;-9.537;11.474;-17.807;13.597;13.635;7.264
2340489.686;-4.992;-28.349;-7.525;12.182;-15.721;12.405;11.586;7.488
2340489.694;-8.047;-32.298;-8.978;9.462;-17.248;5.849;4.396;3.912
2340489.702;-14.044;-40.382;-14.044;2.347;-22.389;-1.229;-2.347;-1.490
2340489.710;-17.323;-44.294;-17.546;-3.278;-25.220;-1.304;-2.459;-3.166
2340489.718;-14.305;-41.872;-14.342;-1.751;-23.991;0.857;0.559;-2.459
2340489.726;-12.852;-40.308;-11.101;0.857;-20.266;3.092;2.645;0.186
2340489.734;-12.815;-40.270;-9.984;1.192;-17.732;7.264;5.662;4.061
2340489.742;-13.709;-41.239;-11.362;0.671;-19.483;13.001;10.282;7.637
2340489.750;-15.981;-43.027;-13.448;-1.788;-21.718;18.030;15.274;10.841
2340489.758;-16.727;-43.139;-13.001;-3.614;-21.532;17.025;14.938;9.127
2340489.766;-17.174;-43.400;-14.007;-3.390;-23.134;12.368;10.952;6.221
2340489.774;-16.317;-42.208;-13.784;-2.235;-22.724;6.109;4.321;3.241
2340489.782;-19.819;-45.411;-17.621;-6.743;-25.965;-4.992;-7.227;-3.353
2340489.790;-22.613;-48.280;-19.670;-10.766;-27.604;-12.182;-15.385;-8.307
2340489.798;-17.919;-43.623;-14.640;-6.780;-23.283;-8.196;-11.399;-5.625
2340489.806;-14.268;-39.823;-11.735;-3.800;-20.079;-5.849;-7.860;-6.631
2340489.814;-15.758;-41.984;-14.454;-5.104;-21.718;-3.725;-5.215;-5.439
2340489.810;-19.632;-46.827;-18.515;-12.815;-25.220;-0.931;-3.129;-1.863
2340489.818;-19.148;-44.443;-18.179;-8.158;-25.108;4.768;2.049;5.104
2340489.826;-20.787;-45.486;-20.862;-6.892;-27.940;3.316;0.298;4.545
2340489.834;-21.979;-46.939;-21.756;-9.388;-27.604;1.937;-1.527;3.166
2340489.842;-22.575;-48.317;-23.134;-11.511;-28.871;-1.490;-3.614;-0.969
2340489.850;-19.372;-45.151;-19.558;-8.158;-26.040;-3.502;-5.327;-1.676
2340489.858;-17.621;-44.182;-17.583;-5.625;-24.065;-3.800;-6.706;-1.080
2340489.866;-17.881;-45.002;-17.732;-6.370;-24.326;-5.811;-8.605;-2.757
2340489.874;-15.683;-43.474;-14.603;-7.227;-21.234;-8.829;-12.517;-5.960
2340489.882;-10.692;-39.674;-9.201;-5.141;-15.609;-7.227;-11.846;-3.353
2340489.890;-12.293;-40.419;-9.947;-4.843;-17.211;-5.998;-10.505;-4.172
2340489.898;-11.325;-40.382;-8.866;-4.396;-18.664;-0.522;-3.353;-0.149
2340489.906;-12.964;-41.425;-11.511;-2.906;-23.544;-4.247;-4.768;-3.800
2340489.914;-10.952;-38.221;-11.176;0.447;-23.693;-6.258;-4.396;-6.407
2340489.922;-8.047;-34.645;-8.568;2.459;-20.564;-5.253;-2.533;-5.625
2340489.930;-11.027;-36.061;-12.182;0.075;-24.028;-4.098;-0.447;-4.731
2340489.938;-15.758;-38.221;-17.099;-2.757;-28.275;-1.676;0.298;-1.378
2340489.946;-14.342;-35.651;-17.099;1.192;-28.461;1.304;1.490;0.969
2340489.954;-11.586;-33.304;-14.007;3.763;-24.475;5.141;5.327;2.868
2340489.962;-15.162;-39.190;-16.131;-2.161;-25.816;4.284;4.284;0.931
2340489.970;-15.460;-39.749;-15.944;-4.619;-25.406;-0.112;0.261;-3.614
2340489.978;-12.666;-35.875;-14.156;-0.224;-23.916;-1.229;0.261;-4.023
2340489.986;-15.572;-38.557;-18.328;-2.496;-28.461;-6.296;-4.843;-7.786
2340489.994;-14.640;-36.359;-17.583;-1.304;-28.200;-6.557;-6.482;-7.339
2340489.932;-15.385;-36.024;-17.434;0.112;-29.467;-3.949;-4.210;-3.651
2340489.940;-17.621;-38.818;-18.403;-3.800;-31.628;-2.831;-2.645;-2.086
2340489.948;-18.217;-39.414;-18.589;-6.706;-31.479;-3.874;-2.421;-5.960
2340489.956;-16.056;-37.849;-16.280;-6.892;-29.020;-5.029;-1.192;-8.382
2340489.964;-11.511;-33.341;-12.442;-1.974;-25.332;-0.075;1.788;-3.614
2340489.972;-8.456;-30.957;-9.164;-0.075;-22.128;5.215;4.806;4.135
2340489.980;-10.282;-32.708;-11.846;-2.906;-24.773;2.533;0.596;3.986
2340489.988;-14.417;-38.370;-16.019;-8.754;-27.567;-0.335;-3.017;2.682
2340489.996;-18.701;-44.294;-19.707;-13.672;-31.032;-4.023;-6.668;1.080
2340490.004;-21.607;-47.274;-22.650;-15.907;-33.081;-7.823;-9.052;-1.080
2340490.012;-16.019;-39.525;-17.509;-7.860;-27.977;-10.245;-8.531;-4.098
2340490.020;-10.803;-32.559;-13.299;-0.708;-25.257;-9.947;-6.817;-7.227
2340490.028;-10.319;-32.224;-12.927;-0.559;-24.289;-3.614;-3.502;-3.465
2340490.036;-18.030;-40.717;-21.160;-9.909;-30.920;-1.863;-3.502;-1.714
2340490.044;-23.507;-46.380;-27.381;-13.188;-36.918;-3.129;-3.763;-2.906
2340490.052;-20.452;-43.288;-25.369;-9.127;-33.975;-1.974;-0.931;-2.645
2340490.060;-19.111;-43.102;-24.140;-8.196;-32.522;-3.390;-1.416;-3.465
2340490.068;-19.819;-45.113;-23.954;-10.617;-31.888;-3.949;-4.508;-2.086
2340490.076;-20.675;-47.199;-24.103;-12.815;-32.522;-0.112;-4.619;2.235
2340490.084;-18.850;-46.305;-21.644;-13.225;-31.292;3.837;-3.166;4.843
2340490.092;-19.148;-46.343;-22.203;-12.666;-31.777;4.768;-2.794;3.837
2340490.100;-19.036;-46.007;-21.309;-8.494;-30.585;2.794;-3.092;-0.447
2340490.108;-18.850;-44.554;-19.930;-6.519;-29.840;1.527;-0.931;-3.241
2340490.116;-22.613;-46.827;-23.358;-10.058;-32.112;-2.049;-1.639;-5.960
2340490.110;-22.240;-46.380;-22.389;-11.399;-30.398;-4.061;-2.384;-8.158
2340490.118;-17.770;-42.990;-17.360;-8.084;-25.257;-2.198;-0.410;-7.376
2340490.126;-16.540;-41.425;-16.242;-3.949;-25.146;-2.161;-2.235;-8.270
2340490.134;-14.417;-38.743;-15.125;-2.459;-24.177;0.335;-1.378;-7.600
2340490.142;-14.082;-39.227;-14.901;-5.029;-23.320;2.645;-1.267;-5.439
2340490.150;-18.664;-42.766;-19.372;-6.594;-27.046;1.378;-3.129;-4.396
2340490.158;-24.475;-47.982;-23.656;-10.803;-30.063;3.316;-1.378;0.037
2340490.166;-31.590;-55.991;-29.057;-19.073;-34.161;-0.596;-5.551;-0.261
2340490.174;-35.949;-61.393;-32.745;-23.246;-37.439;-2.868;-7.562;-0.782
2340490.182;-36.284;-62.697;-32.075;-24.959;-36.620;-3.688;-8.494;-1.527
2340490.190;-35.949;-63.553;-31.628;-28.461;-35.800;-6.892;-11.139;-3.912
2340490.198;-33.937;-62.995;-29.653;-29.542;-33.826;-9.276;-12.852;-4.508
2340490.206;-33.788;-63.330;-28.796;-30.063;-31.851;-12.331;-14.901;-5.290
2340490.214;-32.522;-59.977;-26.375;-26.524;-30.845;-15.423;-16.242;-7.935
2340490.222;-30.510;-55.768;-25.481;-21.458;-31.702;-18.068;-17.136;-12.256
2340490.230;-27.418;-51.260;-24.140;-17.583;-29.393;-14.082;-13.448;-12.331
2340490.238;-26.971;-50.403;-24.252;-18.217;-29.095;-12.182;-12.293;-12.368
2340490.246;-27.679;-52.080;-24.326;-18.254;-28.498;-11.995;-13.225;-10.990
2340490.254;-25.928;-50.031;-22.314;-16.876;-26.152;-7.562;-11.027;-5.513
2340490.262;-25.034;-49.770;-20.713;-16.764;-24.438;-6.780;-9.649;-5.774
2340490.270;-21.756;-45.672;-19.036;-13.262;-22.799;-7.525;-10.021;-6.221
2340490.278;-17.136;-39.898;-15.460;-6.780;-21.122;-5.923;-8.382;-6.184
2340490.286;-14.268;-36.396;-13.262;-3.576;-21.495;-7.525;-9.313;-7.488
2340490.294;-13.374;-36.284;-12.293;-6.184;-21.420;-10.915;-13.225;-8.829
2340490.289;-14.603;-37.551;-13.225;-7.674;-19.968;-14.119;-17.770;-9.388
2340490.297;-13.523;-36.769;-12.480;-7.935;-17.658;-12.368;-15.832;-7.637
2340490.305;-12.405;-35.614;-11.474;-7.749;-19.036;-9.537;-11.548;-6.855
2340490.313;-15.013;-38.110;-14.380;-8.792;-22.911;-9.499;-11.362;-7.562
2340490.321;-14.417;-37.327;-13.076;-6.184;-19.819;-7.078;-8.568;-4.470
2340490.329;-14.827;-38.706;-13.858;-7.376;-19.409;-8.494;-9.127;-2.980
2340490.337;-15.609;-38.296;-14.640;-8.158;-19.372;-9.760;-10.952;-3.837
2340490.345;-13.262;-33.453;-11.921;-2.906;-17.025;-8.196;-8.382;-3.129
2340490.353;-16.056;-35.167;-15.013;-3.986;-18.813;-10.543;-8.717;-6.966
2340490.361;-21.122;-38.967;-19.483;-7.302;-22.799;-10.394;-8.605;-9.499
2340490.369;-22.911;-41.537;-19.893;-12.331;-24.363;-8.941;-7.823;-6.743
2340490.377;-23.693;-43.660;-20.675;-14.044;-24.959;-11.288;-11.176;-6.035
2340490.385;-22.538;-43.213;-18.552;-12.182;-22.203;-14.193;-15.311;-6.892
2340490.393;-21.011;-40.643;-17.844;-11.064;-20.713;-10.319;-11.027;-4.135
2340490.401;-16.354;-34.347;-13.299;-5.104;-17.211;-2.868;-1.602;1.751
2340490.409;-15.981;-33.267;-13.299;-3.986;-17.360;-3.278;-3.166;2.570
2340490.417;-18.440;-34.608;-16.168;-6.668;-20.228;-11.027;-13.560;-3.427
2340490.425;-14.417;-31.330;-12.703;-4.992;-17.285;-10.766;-15.199;-3.353
2340490.433;-15.385;-33.751;-12.331;-8.941;-17.099;-11.660;-16.019;-5.923
2340490.441;-15.721;-34.198;-12.033;-10.282;-15.534;-11.288;-14.044;-8.233
2340490.449;-11.548;-28.349;-9.425;-4.135;-14.342;-7.935;-7.898;-8.345
2340490.457;-11.809;-26.785;-11.101;-2.645;-17.174;-5.998;-4.433;-9.425
2340490.465;-10.021;-24.401;-9.760;-0.149;-17.025;-4.917;-1.341;-7.972
2340490.473;-10.654;-24.326;-9.127;-1.341;-15.497;-6.929;-3.614;-9.276
2340490.485;-12.740;-27.381;-8.978;-5.178;-12.815;-5.737;-5.215;-5.290
2340490.493;-12.442;-28.275;-8.643;-8.084;-12.070;-1.192;-2.421;0.075
2340490.501;-13.039;-29.504;-8.605;-10.952;-11.586;2.012;-1.080;4.508
2340490.509;-23.283;-38.445;-17.323;-21.346;-18.701;-1.453;-7.637;3.763
2340490.517;-30.845;-44.182;-24.550;-25.108;-26.897;-6.109;-13.188;0.373
2340490.525;-33.081;-46.343;-27.455;-26.114;-30.771;-8.307;-14.193;-0.931
2340490.533;-30.473;-42.915;-24.699;-23.209;-28.014;-5.327;-9.760;0.969
2340490.541;-29.430;-42.170;-25.518;-22.054;-28.647;-2.235;-5.327;2.012
2340490.549;-26.487;-38.967;-22.948;-18.924;-25.854;0.522;-1.676;1.863
2340490.557;-24.475;-36.284;-20.191;-17.881;-24.065;0.633;-0.298;-0.447
2340490.565;-22.985;-34.310;-18.775;-14.976;-23.097;-0.410;-0.075;-4.470
2340490.573;-17.956;-27.567;-15.162;-8.531;-20.713;0.410;2.086;-7.786
2340490.581;-15.944;-24.773;-12.927;-4.321;-18.738;0.000;1.565;-7.711
2340490.589;-14.342;-22.240;-10.505;-3.129;-17.099;2.161;4.396;-2.496
2340490.597;-14.827;-23.320;-11.399;-6.184;-16.727;1.900;1.453;1.714
2340490.605;-14.752;-22.016;-11.697;-5.476;-17.136;1.639;-0.633;4.694
2340490.613;-17.509;-25.593;-14.938;-11.548;-22.203;-3.688;-5.737;0.261
2340490.621;-17.621;-25.108;-16.093;-10.580;-24.736;-4.359;-5.104;-3.427
2340490.629;-14.901;-21.681;-14.044;-6.109;-21.607;0.447;0.522;-0.112
2340490.637;-17.956;-24.661;-17.360;-9.909;-24.661;1.602;2.533;-0.484
2340490.645;-20.228;-27.120;-19.595;-11.511;-27.008;2.831;5.588;0.112
2340490.653;-18.030;-25.183;-17.360;-10.021;-24.885;4.321;6.668;2.421
2340490.661;-16.689;-23.432;-15.721;-10.282;-22.687;4.135;5.327;2.757
2340490.669;-17.621;-23.209;-15.423;-11.623;-21.942;3.502;5.141;1.378
2340490.695;-12.033;-16.801;-10.841;-3.427;-17.695;4.321;6.258;2.980
2340490.703;-10.543;-13.784;-11.027;1.043;-18.366;0.447;4.210;0.000
2340490.711;-11.660;-13.933;-11.846;0.447;-19.446;-2.310;3.092;-3.017
2340490.719;-10.505;-10.952;-10.580;3.651;-18.738;-0.931;4.806;-1.267
2340490.727;-9.462;-9.723;-9.611;2.980;-17.509;0.484;6.221;0.484
2340490.735;-12.144;-12.442;-10.058;-2.161;-18.440;-1.080;3.912;-1.490
2340490.743;-12.703;-13.486;-9.686;-5.141;-17.472;0.186;3.874;-0.522
2340490.751;-19.856;-20.675;-16.056;-12.852;-21.979;-7.004;-4.210;-5.886
2340490.759;-20.787;-21.048;-15.944;-11.995;-22.240;-8.382;-7.488;-5.737
2340490.767;-17.174;-16.950;-12.182;-7.898;-19.930;-4.061;-4.359;-1.937
2340490.775;-13.784;-14.044;-10.133;-7.935;-18.366;-2.086;-2.272;0.149
2340490.783;-11.362;-12.033;-7.600;-7.153;-13.635;-1.378;-0.596;-0.112
2340490.791;-10.692;-11.511;-7.488;-6.482;-12.778;-2.198;0.373;-1.565
2340490.799;-11.772;-12.629;-9.090;-8.382;-14.044;-1.192;1.751;-1.602
2340490.807;-11.809;-12.554;-7.227;-8.866;-12.442;1.378;3.092;1.825
2340490.815;-12.591;-13.299;-6.370;-10.394;-12.256;2.757;3.204;4.172
2340490.823;-15.609;-16.578;-8.605;-13.895;-14.491;5.215;4.955;8.903
2340490.831;-23.134;-23.805;-15.236;-22.352;-21.979;-2.384;-1.565;3.204
2340490.839;-23.544;-24.214;-15.385;-22.165;-21.346;-6.594;-5.327;-0.894
2340490.847;-19.073;-19.930;-11.995;-16.429;-17.509;-2.794;-1.006;1.341
2340490.855;-21.122;-22.985;-15.944;-19.260;-21.160;-1.863;-0.186;2.235
2340490.863;-20.862;-23.060;-17.062;-20.601;-22.203;2.980;3.949;6.072
2340490.871;-18.589;-20.340;-14.342;-18.366;-20.042;3.688;5.141;5.588
2340490.879;-15.348;-17.844;-10.394;-16.317;-15.981;-0.931;0.671;1.155
2340490.906;-9.872;-13.299;-5.998;-9.947;-12.815;-5.998;-5.551;-4.731
2340490.914;-5.364;-9.723;-1.751;-5.327;-8.717;-6.706;-9.574;-6.743
2340490.922;-2.459;-6.780;1.043;-1.490;-5.513;-2.906;-6.445;-4.098
2340490.930;-2.831;-6.296;-1.118;2.123;-7.115;3.427;0.857;0.894
2340490.938;-3.949;-7.860;-3.129;1.565;-9.835;8.531;7.376;3.949
2340490.946;-5.439;-9.276;-4.098;0.708;-10.803;7.451;8.754;2.272
2340490.954;-3.800;-8.009;-1.974;2.570;-7.637;5.774;10.021;1.490
2340490.962;-1.453;-7.749;1.304;2.943;-5.476;4.582;10.692;1.341
2340490.970;-3.576;-9.872;0.037;-2.496;-6.631;0.224;4.880;-2.086
2340490.978;-11.027;-16.093;-6.147;-9.052;-12.405;-8.978;-6.631;-8.121
2340490.986;-19.446;-23.656;-14.827;-15.274;-19.297;-13.709;-14.901;-11.958
2340490.994;-21.346;-25.146;-17.881;-15.162;-20.899;-12.256;-14.566;-12.144
2340491.002;-18.962;-23.134;-15.199;-11.958;-19.073;-8.941;-10.319;-9.835
2340491.010;-21.681;-25.332;-16.354;-15.087;-20.750;-8.047;-9.276;-9.239
2340491.018;-21.271;-24.550;-15.497;-14.342;-19.409;-2.794;-5.737;-4.694
2340491.026;-26.152;-28.834;-20.862;-19.185;-25.146;4.061;-0.410;1.900
2340491.034;-23.432;-25.444;-15.944;-17.397;-21.011;2.868;-2.049;1.043
2340491.042;-13.486;-15.572;-6.147;-6.817;-13.933;0.261;-3.614;-1.490
2340491.050;-8.158;-9.649;-0.447;-0.224;-8.829;-0.373;-3.353;-3.129
2340491.058;-7.711;-9.239;0.037;-0.261;-8.009;-3.502;-5.811;-5.402
2340491.066;-12.368;-13.746;-4.917;-5.215;-11.735;-3.055;-5.513;-5.737
2340491.074;-14.193;-17.062;-6.892;-8.568;-12.666;-2.459;-4.210;-4.768
2340491.082;-15.125;-19.670;-7.302;-12.890;-10.915;-4.508;-6.743;-7.600
2340491.090;-16.540;-21.644;-7.525;-16.801;-10.878;-8.605;-10.058;-10.356
2340491.115;-17.807;-21.756;-8.382;-17.285;-13.039;-13.858;-16.801;-12.927
2340491.123;-17.211;-20.228;-9.611;-12.182;-15.125;-14.864;-19.483;-12.107
2340491.131;-16.131;-18.440;-9.947;-13.411;-16.615;-13.523;-18.179;-11.697
2340491.139;-14.044;-15.981;-7.562;-15.125;-14.156;-6.445;-10.282;-8.196
2340491.147;-13.933;-16.689;-8.009;-15.721;-13.784;-0.633;-3.241;-4.545
2340491.155;-15.870;-17.881;-10.505;-14.976;-15.981;1.937;0.671;-2.049
2340491.163;-12.890;-11.995;-8.494;-8.754;-14.827;5.662;8.158;1.974
2340491.171;-9.574;-8.158;-7.525;-4.545;-12.815;7.153;12.219;4.694
2340491.179;-6.780;-5.290;-5.253;-1.080;-9.276;9.835;14.752;5.774
2340491.187;-7.674;-3.874;-5.737;1.229;-11.362;10.170;16.913;3.390
2340491.195;-6.370;-2.794;-4.396;1.974;-10.282;13.188;20.862;5.960
2340491.203;-4.694;-2.645;-0.894;2.459;-6.109;13.597;19.297;6.966
2340491.211;-8.978;-9.462;-5.141;-4.619;-9.798;3.651;6.035;-1.900
2340491.219;-10.878;-11.586;-6.482;-7.488;-10.952;-3.353;-3.539;-7.451
2340491.227;-12.331;-12.442;-6.333;-9.388;-9.388;-5.700;-7.786;-7.376
2340491.235;-13.225;-14.640;-5.923;-11.213;-9.164;-10.394;-14.640;-8.829
2340491.243;-14.789;-15.944;-7.451;-13.858;-10.505;-12.517;-17.472;-10.096
2340491.251;-15.236;-16.354;-8.978;-14.789;-12.629;-9.052;-15.795;-7.600
2340491.259;-17.546;-19.222;-11.474;-16.391;-16.764;-6.370;-14.976;-5.215
2340491.267;-21.271;-24.661;-14.603;-20.899;-18.664;-4.247;-12.442;-3.614
2340491.275;-18.142;-20.415;-11.288;-20.526;-15.348;-4.284;-10.729;-5.066
2340491.283;-8.754;-8.568;-1.788;-7.711;-8.158;-1.378;-4.172;-3.241
2340491.291;-12.219;-9.276;-7.451;-1.974;-13.299;-2.943;-1.825;-6.184
2340491.299;-13.709;-9.052;-10.617;-1.006;-15.758;0.000;3.874;-3.539
2340491.339;-18.664;-12.591;-16.727;-4.619;-22.948;0.931;6.296;-4.098
2340491.347;-20.489;-13.933;-18.366;-6.817;-24.885;3.837;9.462;-2.459
2340491.355;-23.991;-17.211;-21.160;-12.964;-26.971;1.118;6.929;-4.619
2340491.363;-23.209;-18.068;-18.366;-12.293;-22.985;2.608;6.855;-2.198
2340491.371;-18.440;-12.890;-13.672;-8.456;-18.105;5.476;8.196;-0.149
2340491.379;-13.635;-8.829;-9.313;-5.625;-12.964;5.327;6.780;1.378
2340491.387;-17.807;-13.039;-13.933;-11.139;-19.483;0.298;0.745;-1.676
2340491.395;-20.042;-16.205;-15.534;-15.050;-21.420;-0.745;-1.527;-3.651
2340491.403;-18.664;-15.572;-13.225;-14.417;-18.477;-2.757;-2.719;-6.594
2340491.411;-20.042;-18.850;-14.231;-17.546;-19.409;-9.052;-10.058;-12.033
2340491.419;-22.426;-21.532;-15.683;-19.930;-21.271;-13.411;-15.572;-14.082
2340491.427;-22.016;-21.048;-14.417;-21.569;-19.148;-13.374;-16.019;-12.927
2340491.435;-20.638;-19.111;-13.784;-21.569;-18.030;-15.907;-18.552;-14.938
2340491.443;-21.867;-19.632;-16.056;-20.675;-20.489;-18.887;-19.483;-16.540
2340491.451;-17.993;-14.417;-12.144;-15.125;-15.832;-15.125;-13.337;-12.070
2340491.459;-13.076;-7.413;-7.898;-8.643;-10.096;-8.866;-5.364;-5.141
2340491.467;-12.964;-5.849;-8.121;-6.855;-10.505;-5.886;-1.304;-2.198
2340491.475;-13.039;-5.588;-8.680;-7.674;-11.474;-2.235;1.639;0.335
2340491.483;-10.468;-3.986;-5.588;-9.686;-8.047;-0.112;2.459;2.235
2340491.491;-6.072;0.894;-2.235;-6.258;-4.545;0.149;1.416;2.384
2340491.499;-9.909;-2.384;-5.588;-7.749;-10.058;-2.980;-4.508;-0.224
2340491.507;-17.621;-10.319;-12.070;-16.689;-16.652;-9.537;-14.082;-7.376
2340491.515;-16.689;-9.239;-11.586;-15.907;-15.795;-7.935;-13.970;-7.860
2340491.523;-14.827;-6.892;-10.654;-13.933;-15.646;-5.923;-12.182;-8.531
2340491.594;-17.956;-9.499;-15.497;-17.434;-22.352;-4.247;-10.170;-8.382
2340491.602;-25.369;-16.205;-25.406;-24.512;-30.994;-4.992;-10.021;-6.892
2340491.610;-25.108;-15.497;-24.103;-25.928;-26.934;-4.806;-9.052;-4.247
2340491.618;-21.607;-10.319;-18.887;-18.962;-20.899;-9.499;-11.735;-8.829
2340491.626;-7.637;2.831;-4.135;-4.582;-8.307;-6.333;-5.476;-5.960
2340491.634;-0.931;9.276;2.757;-0.782;-1.639;-1.714;0.708;-4.135
2340491.642;-4.955;3.986;-2.347;-6.333;-6.333;-1.825;0.373;-5.886
2340491.650;-8.605;0.633;-6.855;-10.207;-11.660;-2.421;-0.559;-4.582
2340491.658;-6.221;2.421;-5.215;-7.749;-9.723;-1.006;-1.267;-0.410
2340491.666;-2.719;6.631;-2.831;-4.955;-7.674;-2.868;-6.184;1.378
2340491.674;-2.123;6.929;-1.937;-6.966;-6.706;-5.215;-10.803;1.639
2340491.682;1.751;9.499;2.384;-4.582;-3.204;-4.135;-10.133;2.533
2340491.690;9.090;17.211;9.984;3.055;1.676;-1.565;-7.339;4.172
2340491.698;15.013;24.103;13.858;8.196;4.470;-0.857;-6.072;1.825
2340491.706;14.864;25.779;12.778;10.468;4.470;0.820;-4.321;1.453
2340491.714;11.958;22.464;10.021;4.955;2.906;3.316;-2.943;1.155
2340491.722;-1.378;8.568;-0.969;-9.052;-6.184;2.682;-5.402;-2.645
2340491.730;-4.210;6.296;-1.974;-8.494;-6.780;5.327;-3.874;-0.149
2340491.738;-4.247;6.184;-2.831;-7.078;-6.445;3.614;-4.210;-1.416
2340491.746;-5.290;5.737;-2.980;-7.674;-7.749;-2.682;-7.935;-6.594
2340491.754;-5.178;4.657;-3.278;-9.537;-6.109;-5.327;-9.872;-8.978
2340491.762;-7.413;2.049;-6.258;-11.809;-8.456;-5.588;-8.792;-9.723
2340491.770;-15.795;-6.519;-15.087;-23.060;-15.758;-11.064;-14.231;-13.001
2340491.778;-22.165;-11.213;-23.022;-28.946;-23.730;-15.050;-17.919;-13.299
2340491.731;-27.083;-14.193;-30.436;-31.106;-31.516;-17.360;-19.409;-13.597
2340491.739;-24.140;-12.033;-27.455;-31.330;-30.398;-16.503;-18.105;-11.995
2340491.747;-16.801;-7.786;-18.924;-26.003;-22.501;-14.938;-16.056;-10.207
2340491.755;-16.131;-9.686;-17.956;-27.046;-22.128;-17.211;-20.750;-12.740
2340491.763;-10.692;-5.625;-11.027;-24.103;-15.646;-16.913;-20.973;-13.337
2340491.771;-5.141;-0.782;-3.986;-21.048;-8.978;-18.440;-21.420;-15.572
2340491.779;3.763;8.978;3.912;-12.405;-0.969;-17.956;-20.266;-15.274
2340491.787;12.331;18.254;11.772;0.261;6.184;-16.652;-17.732;-14.491
2340491.795;17.434;23.991;16.354;5.737;10.096;-7.674;-10.021;-8.456
2340491.803;20.862;27.157;18.589;11.101;13.001;5.327;0.037;0.112
2340491.811;26.971;33.490;24.885;19.334;20.415;20.005;13.486;10.952
2340491.819;26.003;32.037;25.891;17.360;22.464;22.911;16.503;13.523
2340491.827;20.415;26.897;22.426;11.623;21.495;19.632;12.442;11.176
2340491.835;15.199;21.420;17.695;5.513;17.211;12.740;5.625;8.866
2340491.843;7.711;14.268;10.729;0.075;10.617;6.258;-1.676;5.178
2340491.851;2.980;9.239;5.290;-5.215;4.880;-1.006;-9.052;-1.229
2340491.859;-0.075;6.631;1.825;-7.190;0.224;-3.614;-11.250;-4.172
2340491.867;-2.980;6.147;-0.671;-6.296;-2.757;-7.637;-14.156;-8.158
2340491.875;-8.196;3.688;-3.166;-6.519;-5.513;-13.299;-17.472;-12.852
2340491.883;-10.133;2.347;-6.147;-8.270;-11.474;-15.348;-17.807;-14.715
2340491.891;-7.749;4.433;-4.135;-6.184;-12.666;-16.987;-18.924;-16.615
2340491.899;3.800;16.838;7.637;6.706;-5.178;-10.729;-11.921;-13.560
2340491.907;22.687;35.353;25.518;23.879;9.499;-6.296;-7.674;-10.990
2340491.915;42.431;57.071;45.300;44.480;28.349;1.080;-1.267;-4.098
2340492.031;49.807;67.987;53.495;58.003;34.869;4.359;3.614;-3.278
2340492.039;66.049;86.874;71.228;79.945;47.795;9.127;9.760;-0.149
2340492.047;78.566;100.695;85.682;94.064;58.636;11.958;11.399;4.657
2340492.055;88.662;110.008;96.895;104.196;67.055;14.715;13.411;9.760
2340492.063;98.161;119.135;110.641;112.914;77.747;14.491;12.219;10.580
2340492.071;99.726;119.284;114.590;111.014;79.162;8.829;4.359;9.052
2340492.079;110.306;128.001;125.468;121.146;87.842;8.792;2.421;12.591
2340492.087;110.865;127.777;125.431;121.519;85.793;8.605;0.484;11.586
2340492.095;107.661;124.872;122.413;119.172;83.521;8.903;1.304;10.952
2340492.103;103.563;120.960;116.006;116.043;79.423;6.370;0.969;8.307
2340492.111;94.324;109.933;106.543;104.383;72.122;3.353;0.447;3.204
2340492.119;83.894;98.757;95.107;89.854;64.336;3.614;2.272;1.229
2340492.127;79.460;94.026;88.289;83.894;58.636;4.582;4.508;0.112
2340492.135;74.543;88.736;81.323;78.343;54.389;2.198;3.912;-2.570
2340492.143;68.918;82.031;74.133;70.632;49.733;0.484;0.820;-5.066
2340492.151;62.846;74.394;67.763;62.659;45.300;2.272;0.671;-4.582
2340492.159;56.177;66.757;59.158;53.681;39.637;-1.267;-3.837;-6.370
2340492.167;48.168;59.120;49.658;47.833;30.324;-1.937;-6.929;-4.694
2340492.175;40.494;51.744;41.239;40.233;23.283;-5.327;-12.852;-7.376
2340492.183;39.563;50.627;40.382;38.110;25.295;-2.831;-13.672;-0.969
2340492.191;40.419;53.942;39.525;43.809;25.332;2.645;-9.909;7.600
2340492.199;37.812;52.303;34.869;42.953;20.899;3.837;-6.743;11.362
2340492.207;32.075;46.976;29.579;36.620;17.956;4.210;-3.129;11.697
2340492.215;24.177;39.339;21.793;29.691;11.250;1.714;-3.241;8.158
2340492.257;18.179;32.932;16.689;22.314;8.009;-1.974;-4.843;5.327
2340492.265;15.460;28.610;14.044;17.472;6.743;-5.886;-7.972;0.708
2340492.273;21.569;32.298;20.228;18.328;12.405;-7.004;-10.319;-1.974
2340492.281;29.877;40.531;29.504;25.481;20.489;-3.986;-12.554;1.229
2340492.289;30.287;39.004;29.281;22.389;18.030;-4.731;-16.987;0.075
2340492.297;29.169;36.061;28.424;17.583;17.807;-3.986;-16.131;-0.633
2340492.305;27.865;34.794;27.642;15.274;19.297;-3.390;-12.890;-0.484
2340492.313;23.805;31.479;23.693;10.096;15.758;-6.706;-11.660;-2.943
2340492.321;18.924;29.318;19.483;10.692;12.182;-2.868;-6.706;-0.559
2340492.329;16.205;26.897;17.807;10.543;12.368;3.800;0.633;4.061
2340492.337;11.399;22.054;12.070;5.066;8.792;5.700;4.768;3.539
2340492.345;6.929;18.738;6.929;3.241;4.657;5.849;7.264;2.906
2340492.353;-0.112;13.225;-1.304;-1.602;-2.645;4.619;7.004;2.086
2340492.361;-2.533;11.437;-4.768;-8.158;-6.706;4.098;6.035;2.235
2340492.369;-5.625;5.253;-9.611;-13.411;-10.990;1.006;2.645;0.373
2340492.377;-7.264;0.335;-12.927;-18.924;-11.325;-3.576;-1.229;-2.049
2340492.385;-7.190;-2.682;-11.288;-23.209;-8.233;-6.892;-5.886;-3.427
2340492.393;-1.751;0.894;-4.917;-23.842;-2.645;-0.857;-3.576;3.576
2340492.401;4.470;4.843;0.671;-21.532;2.459;8.643;1.378;11.586
2340492.409;10.990;11.027;6.296;-13.746;6.668;19.409;9.388;19.521
2340492.417;13.150;13.709;8.456;-9.686;6.929;23.805;14.678;21.532
2340492.425;10.729;12.927;4.545;-8.717;2.533;22.277;15.162;18.701
2340492.433;10.170;15.423;1.639;-4.955;-1.192;20.154;15.870;15.385
2340492.441;11.176;20.266;0.633;0.820;-2.533;17.360;15.311;11.101
2340492.524;8.941;17.919;-1.639;0.820;-3.129;15.609;13.076;8.009
2340492.532;2.384;11.660;-6.929;-4.098;-7.525;13.374;10.766;7.525
2340492.540;-4.806;3.129;-11.586;-12.480;-12.331;8.345;6.706;6.817
2340492.548;-4.992;3.166;-11.437;-14.119;-13.672;7.749;6.817;7.339
2340492.556;-5.402;3.576;-11.846;-16.838;-14.864;9.499;8.978;9.015
2340492.564;-12.852;-4.061;-18.254;-24.736;-20.340;5.029;6.109;5.625
2340492.572;-13.225;-4.135;-18.105;-25.555;-20.303;5.551;7.525;5.215
2340492.580;-12.740;-4.098;-18.366;-24.736;-19.893;6.519;7.935;5.625
2340492.588;-13.933;-3.129;-21.048;-20.191;-22.389;6.631;7.749;5.253
2340492.596;-13.486;-0.298;-21.905;-17.136;-23.581;7.935;8.345;6.482
2340492.604;-12.703;-0.112;-22.613;-16.950;-23.469;12.331;10.729;9.649
2340492.612;-15.758;-5.066;-24.140;-20.713;-24.289;13.672;11.027;9.947
2340492.620;-16.242;-6.966;-23.395;-24.885;-24.028;14.193;11.735;9.090
2340492.628;-13.560;-5.402;-21.011;-24.512;-21.942;10.915;10.058;6.817
2340492.636;-8.494;2.198;-16.652;-12.890;-16.615;1.527;3.316;-1.378
2340492.644;-0.149;13.597;-9.015;2.459;-8.531;-1.267;3.353;-5.439
2340492.652;1.304;16.280;-9.127;4.843;-9.611;-4.396;0.522;-9.164
2340492.660;1.788;17.360;-9.835;6.892;-11.586;-4.433;-1.676;-9.313
2340492.668;3.576;19.558;-6.780;7.339;-8.158;-4.508;-2.310;-8.456
2340492.676;7.711;23.656;-1.304;8.382;-1.639;-2.980;-1.527;-5.215
2340492.684;7.190;21.458;-1.788;1.788;-0.522;-4.396;-1.490;-5.662
2340492.692;3.576;15.832;-6.333;-5.476;-4.508;-6.892;-3.092;-7.451
2340492.700;3.837;15.497;-4.396;-1.490;-1.825;-4.210;-1.676;-3.465
2340492.708;0.000;12.144;-7.786;-5.290;-4.023;-6.855;-5.923;-5.290
2340492.705;-1.527;11.884;-9.127;-6.557;-5.551;-7.376;-7.637;-5.141
2340492.713;-2.533;10.878;-10.803;-9.798;-7.004;-7.711;-8.158;-3.092
2340492.721;-3.502;10.096;-12.964;-10.654;-9.872;-7.264;-7.600;-2.868
2340492.729;-3.688;11.288;-12.405;-10.133;-9.537;-4.694;-6.370;-1.304
2340492.737;-5.662;9.201;-13.411;-12.368;-9.611;-2.831;-3.576;-2.049
2340492.745;-1.118;13.858;-9.798;-3.912;-6.296;0.894;4.284;-0.708
2340492.753;3.949;17.695;-3.837;0.075;-0.559;4.098;10.058;0.969
2340492.761;2.868;16.578;-3.055;-0.484;1.341;-0.224;6.407;-1.006
2340492.769;6.370;20.489;0.559;2.608;6.072;2.235;7.711;2.049
2340492.777;5.290;18.477;-1.080;2.198;4.210;0.894;6.296;2.235
2340492.785;-2.831;9.052;-9.686;-5.849;-1.900;-4.806;0.522;-0.894
2340492.793;-4.061;6.333;-11.623;-7.339;-3.204;-7.227;-0.596;-3.092
2340492.801;1.453;10.729;-5.364;-1.453;3.651;-6.557;-0.522;-2.235
2340492.809;3.874;12.927;-3.278;0.782;5.253;-9.909;-3.949;-4.172
2340492.817;-1.416;7.823;-9.872;-3.986;-2.310;-14.529;-9.239;-7.637
2340492.825;-3.241;7.860;-11.548;-2.310;-3.763;-12.368;-8.829;-4.582
2340492.833;-3.278;8.903;-11.176;-0.708;-3.241;-9.350;-5.737;-2.235
2340492.841;0.149;11.399;-7.898;0.969;-3.800;-6.147;-2.123;-1.676
2340492.849;4.247;15.348;-4.135;5.849;-3.166;-1.043;1.751;1.229
2340492.857;2.049;12.554;-4.433;3.465;-2.980;2.049;4.619;3.688
2340492.865;2.570;12.591;-2.757;2.570;0.000;5.886;7.153;5.811
2340492.873;11.474;19.185;5.066;8.792;9.015;9.947;9.574;9.201
2340492.881;12.033;18.291;5.364;7.972;8.978;5.737;5.551;4.582
2340492.889;7.190;13.746;1.602;3.837;5.066;-1.006;-0.224;-1.490
2340492.856;7.935;16.056;3.017;4.619;8.121;1.267;1.527;1.080
2340492.864;9.052;18.217;2.608;11.064;7.786;1.341;2.310;0.969
2340492.872;9.425;18.515;2.347;12.405;8.270;-0.037;3.539;0.484
2340492.880;11.586;21.197;4.955;11.548;10.245;0.335;4.210;-0.149
2340492.888;8.754;17.397;1.527;6.817;8.047;-2.235;0.671;-2.086
2340492.896;6.147;16.168;-0.857;7.302;5.327;-1.788;0.745;-1.341
2340492.904;4.135;14.380;-2.272;6.780;4.955;-2.906;0.373;-1.490
2340492.912;3.725;13.150;-3.390;4.135;5.774;-3.688;0.447;-1.192
2340492.920;4.582;15.013;-2.496;5.849;7.786;-2.123;1.751;0.186
2340492.928;12.629;22.911;4.619;17.732;13.486;4.135;7.413;3.725
2340492.936;14.342;24.401;5.662;17.062;13.746;7.562;10.282;6.482
2340492.944;12.107;23.916;4.284;15.236;12.629;8.196;10.282;7.562
2340492.952;12.033;23.171;3.614;15.981;12.554;9.239;12.517;8.717
2340492.960;6.780;17.881;-1.751;9.462;9.276;10.729;13.560;9.090
2340492.968;4.545;14.193;-2.645;6.706;8.158;14.789;16.689;13.076
2340492.976;0.298;9.388;-7.562;-0.559;2.049;9.090;11.511;8.345
2340492.984;-0.820;7.525;-9.201;-4.061;0.522;5.960;8.009;5.141
2340492.992;0.671;8.754;-8.829;-3.017;0.447;6.631;8.084;5.141
2340493.000;4.955;14.082;-5.364;5.700;3.129;8.456;8.829;7.153
2340493.008;9.835;20.601;0.633;13.076;9.052;7.674;8.643;7.562
2340493.016;8.345;17.919;0.596;9.276;9.276;4.806;6.147;5.625
2340493.024;5.960;15.087;-1.155;5.774;8.531;3.651;4.694;3.539
2340493.032;2.347;11.958;-4.470;3.465;4.433;1.863;2.943;2.533
2340493.040;1.043;10.133;-5.104;0.782;2.012;1.937;2.757;2.980
2340493.065;6.855;14.119;1.863;3.725;7.562;2.831;3.986;1.639
2340493.073;7.674;16.503;2.459;8.158;8.047;0.298;1.118;-0.857
2340493.081;9.649;20.005;2.719;13.597;6.519;-1.080;0.298;0.000
2340493.089;9.164;20.452;1.751;13.448;5.551;1.416;3.874;2.235
2340493.097;7.488;19.595;0.112;11.735;4.545;6.966;8.829;6.035
2340493.105;6.780;19.483;0.559;9.872;5.923;5.960;9.388;3.800
2340493.113;7.413;20.154;1.118;11.399;6.370;3.651;8.829;-0.037
2340493.121;9.723;23.469;4.321;15.385;9.947;5.625;9.127;2.086
2340493.129;8.009;22.873;2.496;13.486;7.190;7.935;10.394;3.651
2340493.137;6.631;21.234;1.527;10.952;5.327;9.649;12.591;5.029
2340493.145;4.508;21.011;-0.335;11.660;4.135;9.947;11.809;5.476
2340493.153;0.000;15.907;-5.402;7.600;0.335;6.594;8.158;3.725
2340493.161;6.594;21.756;0.522;12.033;6.519;11.101;12.517;8.605
2340493.169;10.170;24.438;4.284;14.938;10.617;13.150;13.374;11.586
2340493.177;7.674;21.309;2.347;11.362;8.531;11.101;11.846;8.009
2340493.185;10.692;24.028;4.433;14.491;8.978;13.933;14.529;8.084
2340493.193;13.001;26.301;5.364;14.678;9.723;13.933;14.938;7.860
2340493.201;13.486;26.636;4.731;14.193;8.084;9.984;12.591;5.327
2340493.209;12.331;25.444;2.682;13.448;6.333;12.033;14.566;6.668
2340493.217;9.909;22.091;1.714;8.531;6.557;14.156;14.044;9.313
2340493.225;10.580;21.979;3.986;8.084;9.947;14.380;11.995;13.374
2340493.233;10.990;21.607;4.731;7.600;11.399;11.437;8.382;11.548
2340493.241;15.385;26.785;8.605;10.468;15.683;10.915;7.786;10.505
2340493.249;19.372;30.585;10.766;13.895;17.546;11.399;12.182;9.388
2340493.216;20.824;32.373;10.394;14.119;15.162;9.574;13.784;4.955
2340493.224;22.724;34.049;11.437;18.105;15.944;12.256;16.317;5.774
2340493.232;19.185;30.659;7.115;18.738;11.958;9.425;11.288;3.017
2340493.240;15.646;27.604;3.316;14.827;7.637;5.998;6.184;0.782
2340493.248;8.494;23.432;-1.974;8.047;2.719;1.267;1.974;-3.278
2340493.256;6.184;22.128;-4.955;6.780;0.894;-2.831;-1.118;-6.035
2340493.264;9.201;23.991;-2.794;9.723;3.576;-0.186;1.602;-2.757
2340493.272;13.597;28.610;2.794;12.405;9.686;6.184;7.413;2.757
2340493.280;7.376;21.793;-1.714;4.433;6.109;4.359;4.172;2.459
2340493.288;-1.714;12.554;-10.021;-3.651;-1.527;3.055;1.267;2.161
2340493.296;-6.333;7.786;-13.523;-9.201;-5.402;1.416;-2.235;0.969
2340493.304;-0.298;14.529;-7.227;-3.166;0.745;2.459;-1.527;2.012
2340493.312;2.608;18.403;-3.241;1.155;4.433;-0.410;-3.614;-0.894
2340493.320;4.545;18.775;-1.118;-0.335;7.227;-2.272;-4.843;-1.863
2340493.328;5.476;19.297;-0.708;1.341;9.164;0.633;-1.229;0.596
2340493.336;2.570;16.838;-3.278;0.447;7.488;-0.112;-3.837;0.373
2340493.344;4.768;18.813;-0.112;2.645;10.356;3.129;-2.161;3.502
2340493.352;3.166;16.838;-2.161;0.447;10.282;2.347;-2.123;1.863
2340493.360;5.886;19.558;0.037;2.608;10.654;3.800;0.596;2.347
2340493.368;1.118;16.242;-5.290;-0.186;3.353;-1.788;-3.204;-2.421
2340493.376;-2.794;12.256;-8.941;-5.811;-1.118;-3.166;-4.321;-3.912
2340493.384;-2.049;13.560;-7.898;-6.743;0.410;-2.533;-2.533;-5.476
2340493.392;4.806;22.911;-2.533;4.582;5.215;-0.149;2.161;-5.327
2340493.400;8.456;27.381;0.969;7.674;6.780;0.857;2.608;-3.800
2340493.351;5.141;23.134;-1.788;4.098;3.651;-3.614;-4.470;-5.551
2340493.359;2.421;21.420;-3.278;2.421;3.166;-4.172;-5.327;-3.837
2340493.367;6.035;26.152;-0.037;8.270;6.519;-0.037;0.931;0.186
2340493.375;8.866;30.957;2.235;14.827;8.717;-0.149;3.688;-0.224
2340493.383;13.746;36.247;8.196;20.005;13.784;0.633;4.768;0.559
2340493.391;16.391;37.998;13.188;22.314;18.030;1.676;4.359;0.596
2340493.399;21.085;43.064;19.073;25.854;22.016;1.453;1.714;0.633
2340493.407;34.086;55.395;33.602;37.812;32.820;3.651;3.688;4.843
2340493.415;42.468;65.155;43.772;46.454;41.798;2.235;2.943;4.731
2340493.423;49.584;75.065;50.478;58.524;43.996;-0.782;0.782;1.378
2340493.431;66.385;91.270;68.806;77.412;56.699;-3.763;-1.676;-2.682
2340493.439;83.447;110.194;86.874;97.081;69.588;-1.565;0.745;-0.857
2340493.447;101.514;130.124;105.575;118.166;83.223;1.788;5.029;3.017
2340493.455;115.521;144.914;119.321;135.042;91.754;2.384;4.731;2.757
2340493.463;117.980;146.851;122.860;137.314;92.983;1.639;2.645;0.745
2340493.471;121.370;147.931;127.777;137.947;97.789;4.359;4.694;4.061
2340493.479;132.956;157.915;139.959;149.980;108.778;8.307;8.158;9.947
2340493.487;129.640;152.253;137.687;144.131;105.910;7.972;4.955;9.388
2340493.495;123.307;147.671;131.205;140.369;99.316;5.886;2.012;6.706
2340493.503;121.370;145.510;129.528;138.618;98.906;7.264;2.719;7.078
2340493.511;121.221;145.063;127.815;139.624;97.901;12.256;8.307;10.058
2340493.519;113.286;135.377;120.029;129.789;92.424;13.299;9.499;11.250
2340493.527;101.440;120.997;109.449;112.616;85.644;12.368;7.562;11.474
2340493.535;90.674;109.002;97.714;97.975;78.455;10.394;6.333;8.903
2340493.529;87.172;104.085;92.946;93.393;76.033;10.058;6.966;7.972
2340493.537;78.268;94.213;83.558;82.962;71.414;10.468;5.625;8.754
2340493.545;70.818;84.341;76.033;70.035;65.826;6.668;0.820;5.253
2340493.553;63.889;76.853;67.651;62.287;58.524;4.359;-1.043;3.241
2340493.561;55.358;68.322;57.034;56.215;50.105;6.035;1.416;4.992
2340493.569;46.156;59.232;47.535;46.715;43.698;4.657;2.012;1.453
2340493.577;39.712;52.676;40.419;41.313;38.445;2.682;1.229;-0.112
2340493.585;32.336;45.933;32.037;35.092;31.106;-1.229;-1.080;-2.831
2340493.593;25.705;39.265;24.326;28.275;23.134;-1.788;-1.341;-4.433
2340493.601;20.303;33.230;18.142;23.395;18.477;-1.229;-2.459;-3.166
2340493.609;18.850;31.702;17.248;20.750;19.521;0.969;-1.974;-0.186
2340493.617;16.987;29.132;15.870;17.360;18.813;2.421;-1.490;2.533
2340493.625;11.623;23.618;10.245;9.574;14.193;4.284;-1.229;3.725
2340493.633;7.041;19.260;6.407;5.402;11.474;4.880;-1.900;5.476
2340493.641;8.456;21.085;7.302;6.929;12.293;6.557;0.484;6.482
2340493.649;5.662;18.366;2.868;4.917;7.786;3.800;-0.410;1.676
2340493.657;6.370;20.042;3.017;4.806;8.307;4.396;1.267;1.304
2340493.665;6.743;19.856;3.688;3.576;8.792;4.582;2.384;0.522
2340493.673;3.353;15.907;1.416;-0.186;7.525;5.662;4.098;0.075
2340493.681;1.453;15.311;0.820;0.745;7.972;7.376;5.215;1.825
2340493.689;-0.484;12.852;-1.080;-1.900;6.184;1.825;0.410;-1.490
2340493.697;1.341;14.268;0.857;0.000;7.264;-0.037;0.224;-4.210
2340493.705;2.086;13.858;1.565;0.335;7.935;3.055;3.912;-1.639
2340493.713;2.384;14.156;1.416;1.155;7.711;7.413;7.264;1.937
2340493.683;0.224;12.703;-0.857;-0.112;4.843;3.651;3.055;0.596
2340493.691;-1.341;10.543;-2.086;-1.714;3.241;0.298;-0.596;-1.304
2340493.699;-3.763;9.201;-4.806;-3.055;0.447;-0.708;-1.676;-2.123
2340493.707;-4.470;8.196;-6.706;-4.657;-0.745;-0.931;-2.570;-2.868
2340493.715;-7.413;5.327;-9.798;-8.047;-4.098;-3.874;-5.513;-4.582
2340493.723;-14.305;0.559;-16.093;-11.846;-10.468;-10.766;-11.474;-11.958
2340493.731;-9.388;6.482;-10.990;-4.508;-6.631;-7.488;-8.121;-9.015
2340493.739;-10.841;2.794;-11.362;-9.462;-5.290;-9.537;-10.356;-10.692
2340493.747;-14.119;-0.671;-14.380;-13.150;-7.264;-8.754;-10.207;-10.878
2340493.755;-16.838;-3.576;-16.354;-15.087;-9.164;-8.196;-9.798;-10.468
2340493.763;-16.578;-3.427;-17.211;-16.168;-9.984;-8.531;-10.952;-10.245
2340493.771;-11.213;2.868;-12.033;-10.729;-5.364;-5.253;-9.239;-6.557
2340493.779;-15.087;-1.043;-15.050;-13.299;-8.307;-8.568;-13.225;-8.196
2340493.787;-14.268;-1.341;-13.597;-15.274;-6.333;-8.419;-13.486;-7.376
2340493.795;-5.662;8.382;-4.470;-4.321;0.820;-1.490;-7.413;-1.565
2340493.803;-6.147;10.319;-5.662;-1.825;-0.708;-3.427;-8.270;-3.725
2340493.811;-7.562;9.201;-6.929;-4.843;-0.820;-4.247;-8.382;-4.843
2340493.819;-5.364;9.947;-4.433;-3.055;3.092;-1.863;-3.986;-2.533
2340493.827;-4.284;10.021;-2.906;-2.347;5.439;-0.596;-1.863;-0.782
2340493.835;-3.912;9.574;-1.490;-3.129;6.035;1.080;0.857;0.149
2340493.843;-10.841;3.874;-8.792;-9.127;-0.857;-4.619;-5.178;-6.221
2340493.851;-13.784;0.782;-12.890;-13.001;-3.688;-7.749;-8.121;-10.096
2340493.859;-11.511;2.794;-9.649;-11.288;-1.043;-6.743;-7.786;-9.686
2340493.867;-13.113;1.639;-10.617;-11.325;-3.837;-8.047;-10.766;-10.170
2340493.829;-15.609;-0.633;-13.299;-12.331;-4.992;-7.302;-10.990;-7.302
2340493.837;-15.572;-1.453;-12.890;-13.746;-3.204;-6.482;-10.096;-6.072
2340493.845;-13.821;0.410;-11.176;-15.274;-0.857;-8.009;-12.815;-7.115
2340493.853;-11.139;2.459;-9.760;-13.597;1.304;-7.935;-12.740;-7.562
2340493.861;-7.786;6.147;-6.333;-10.356;3.763;-6.258;-11.176;-5.327
2340493.869;-13.039;2.421;-11.623;-15.683;-2.608;-8.307;-13.635;-6.370
2340493.877;-16.429;0.112;-15.646;-17.174;-5.774;-8.866;-15.423;-6.184
2340493.885;-17.136;-0.037;-17.099;-16.280;-6.668;-8.382;-14.938;-5.476
2340493.893;-14.640;2.906;-15.609;-11.213;-4.694;-6.147;-11.362;-4.433
2340493.901;-10.803;7.227;-13.225;-6.892;-2.384;-4.247;-7.041;-4.172
2340493.909;-7.488;10.729;-9.462;-6.147;1.304;-4.806;-5.029;-5.215
2340493.917;-8.158;9.686;-9.350;-6.184;0.522;-11.511;-9.649;-11.995
2340493.925;-6.109;11.325;-8.307;-4.061;2.570;-11.995;-9.239;-12.554
2340493.933;-6.221;10.356;-7.898;-5.066;2.682;-13.076;-10.766;-12.927
2340493.941;-3.539;12.852;-4.843;-2.570;4.470;-13.597;-11.437;-12.703
2340493.949;2.161;18.552;-0.149;0.522;8.941;-7.860;-5.290;-6.668
2340493.957;2.310;17.583;-0.224;-0.671;8.009;-7.004;-4.619;-5.066
2340493.965;-0.894;14.715;-1.937;-1.080;5.513;-8.903;-8.307;-5.811
2340493.973;-2.868;14.007;-4.545;-4.731;4.731;-9.239;-9.164;-5.700
2340493.981;-1.974;15.832;-4.098;-2.198;6.035;-8.792;-7.749;-5.551
2340493.989;-2.272;14.305;-3.055;-4.172;5.886;-6.482;-5.178;-4.396
2340493.997;-6.072;8.754;-7.078;-9.760;2.161;-8.047;-7.115;-7.078
2340494.005;-9.872;4.359;-10.841;-13.188;-1.118;-8.158;-8.121;-7.413
2340494.013;-8.866;7.115;-9.462;-11.064;0.000;-5.439;-4.917;-4.135
2340494.040;-5.178;11.027;-4.210;-7.302;5.886;0.894;1.080;0.186
2340494.048;-3.614;13.933;-3.017;-3.017;5.551;2.719;3.502;1.825
2340494.056;-6.445;11.995;-6.743;-1.751;0.522;-0.075;0.931;-2.682
2340494.064;-5.402;12.144;-5.886;-3.949;2.198;-0.224;0.708;-3.241
2340494.072;-1.825;14.454;-2.235;-1.043;5.886;3.614;4.321;0.335
2340494.080;-0.298;16.168;0.410;1.118;8.345;4.992;5.700;0.224
2340494.088;1.304;16.764;1.304;-0.447;10.282;5.402;4.843;0.112
2340494.096;0.857;14.827;-0.522;-1.825;9.462;4.098;3.688;0.633
2340494.104;8.456;24.848;5.141;7.972;13.970;7.041;7.600;4.023
2340494.112;13.337;29.951;9.462;12.778;16.540;7.562;7.153;5.141
2340494.120;8.643;25.071;4.768;6.184;11.623;4.135;2.421;3.763
2340494.128;2.906;18.626;-1.267;2.198;7.227;2.347;1.639;2.012
2340494.136;6.780;22.799;3.800;6.780;10.729;8.009;7.749;5.923
2340494.144;6.482;21.756;3.800;5.104;9.872;12.591;11.101;9.835
2340494.152;2.384;15.981;1.118;-1.974;7.637;14.193;11.213;11.288
2340494.160;4.433;16.838;3.204;0.410;11.474;17.360;14.454;13.933
2340494.168;5.774;17.770;4.508;1.900;12.219;18.515;16.652;14.342
2340494.176;1.267;14.193;0.373;-1.714;7.115;13.337;12.033;9.686
2340494.184;1.378;14.454;-0.112;-1.378;7.190;12.964;12.703;8.605
2340494.192;-0.410;12.182;-2.012;-3.129;7.115;9.723;9.015;2.645
2340494.200;1.863;14.342;1.155;-1.118;10.580;11.250;10.692;3.912
2340494.208;5.104;17.695;4.992;5.364;14.640;16.317;16.168;9.127
2340494.216;6.780;20.415;6.966;10.058;15.944;20.079;18.515;13.076
2340494.224;9.984;24.512;10.021;14.342;16.727;25.146;19.893;17.732
2340494.205;11.660;25.705;13.411;16.429;17.174;26.077;19.073;18.440
2340494.213;21.495;35.949;25.257;25.630;27.195;25.965;19.297;19.744
2340494.221;27.791;42.506;31.516;32.447;32.447;24.289;17.770;19.260
2340494.229;31.292;45.411;35.129;35.614;31.851;17.993;12.070;13.411
2340494.237;40.345;55.134;45.337;45.821;38.706;16.987;11.809;11.846
2340494.245;52.750;67.204;59.158;58.599;49.546;16.093;12.740;10.468
2340494.253;68.583;84.639;77.710;75.996;64.410;17.136;15.758;11.176
2340494.261;82.962;100.806;92.946;94.585;75.065;19.409;17.211;12.740
2340494.269;89.109;109.076;99.316;103.749;76.480;14.454;12.256;9.350
2340494.277;98.869;121.333;111.237;112.541;84.005;12.107;9.686;10.431
2340494.285;104.569;128.224;120.066;118.427;89.966;8.903;5.029;8.531
2340494.293;107.288;132.211;124.648;122.972;93.021;7.078;2.123;7.227
2340494.301;116.415;140.294;135.042;130.571;100.918;9.723;4.508;8.419
2340494.309;118.688;141.598;137.798;130.236;102.557;8.382;2.906;6.929
2340494.317;128.001;153.296;147.149;141.263;110.045;12.666;7.562;11.511
2340494.325;133.887;157.692;154.413;145.063;116.639;13.150;10.319;11.660
2340494.333;129.864;153.519;150.576;142.343;112.504;10.096;8.903;7.860
2340494.341;134.557;157.841;155.754;145.733;115.782;13.560;13.337;10.096
2340494.349;132.173;153.445;154.488;141.449;115.335;11.995;12.293;9.649
2340494.357;129.528;149.682;151.880;136.308;113.808;10.245;7.600;9.462
2340494.365;124.350;145.994;145.845;131.354;107.773;6.221;1.155;6.743
2340494.373;120.364;142.530;141.747;127.852;104.159;-0.335;-6.035;2.757
2340494.381;118.986;142.194;140.034;129.603;103.600;-0.596;-5.104;3.465
2340494.389;118.203;139.736;138.134;128.113;102.557;1.341;-2.682;5.141
2340494.415;114.329;133.924;132.620;120.811;99.018;5.178;-0.037;7.637
2340494.423;103.526;121.407;120.662;104.643;91.232;2.198;-4.359;4.098
2340494.431;93.170;111.237;108.108;95.367;80.727;-2.719;-8.754;-0.410
2340494.439;85.197;102.930;99.689;87.954;73.574;-4.508;-9.760;-1.490
2340494.447;79.125;95.740;92.350;79.423;69.551;-6.519;-11.697;-3.986
2340494.455;69.290;85.533;81.211;67.912;61.691;-6.147;-12.219;-3.725
2340494.463;63.963;80.280;75.214;62.585;58.487;-3.725;-9.909;-2.310
2340494.471;57.742;72.643;68.843;55.172;54.501;-1.304;-6.221;-2.049
2340494.479;49.695;65.416;58.413;46.529;48.764;1.378;-3.017;-0.522
2340494.487;45.225;60.126;52.191;41.351;44.107;3.129;-0.894;1.788
2340494.495;39.227;52.899;44.554;34.608;38.147;3.204;-2.570;2.868
2340494.503;24.252;38.520;29.877;19.595;25.816;-4.396;-11.921;-2.161
2340494.511;18.328;32.932;23.283;13.225;21.569;-3.725;-12.591;-0.894
2340494.519;14.752;30.585;18.701;12.964;18.291;1.565;-8.494;2.198
2340494.527;10.654;26.561;13.821;12.517;14.529;3.502;-6.668;2.980
2340494.535;6.333;23.805;8.941;10.021;9.201;4.731;-4.768;3.316
2340494.543;2.235;20.228;2.719;6.780;4.135;4.321;-3.725;3.390
2340494.551;-0.969;18.068;-1.900;4.433;-0.708;2.049;-4.210;1.602
2340494.559;-3.465;15.832;-4.470;1.527;-3.837;3.576;-2.012;1.751
2340494.567;-0.522;17.695;-2.459;4.247;-0.335;5.923;1.378;4.247
2340494.575;-1.416;16.093;-3.465;2.570;-0.298;4.508;1.341;3.278
2340494.583;-5.141;14.044;-5.662;0.224;-1.378;3.055;1.229;2.645
2340494.591;-12.405;5.439;-12.368;-8.419;-7.041;-3.465;-4.768;-0.075
2340494.599;-16.503;1.453;-17.732;-11.772;-11.548;-2.347;-5.364;1.527
2340494.536;-16.466;0.969;-18.552;-10.543;-11.250;-2.049;-5.998;1.527
2340494.544;-19.968;-4.284;-22.538;-18.068;-15.087;-8.047;-11.772;-5.774
2340494.552;-23.171;-7.562;-25.332;-23.246;-17.285;-8.903;-11.623;-7.115
2340494.560;-26.338;-12.293;-26.412;-26.859;-16.317;-3.688;-8.866;-2.831
2340494.568;-32.224;-18.291;-30.026;-33.043;-19.930;0.857;-6.221;1.974
2340494.576;-31.143;-15.870;-30.100;-31.888;-18.775;5.215;-2.235;6.966
2340494.584;-32.410;-15.311;-32.783;-31.032;-20.899;3.427;-3.465;5.290
2340494.592;-34.943;-19.372;-36.061;-37.327;-24.699;-4.284;-9.388;-2.682
2340494.600;-32.187;-16.727;-32.596;-35.800;-21.309;-2.906;-7.339;-3.241
2340494.608;-30.287;-15.721;-29.504;-34.794;-16.540;-2.794;-7.041;-2.682
2340494.616;-29.914;-15.274;-29.206;-35.837;-14.380;-5.923;-10.096;-4.396
2340494.624;-25.779;-10.766;-26.077;-30.398;-10.841;-3.874;-7.264;-2.459
2340494.632;-26.934;-11.139;-27.306;-31.069;-13.113;-3.353;-6.258;-2.198
2340494.640;-27.306;-10.766;-28.200;-31.255;-16.019;-4.396;-6.855;-3.614
2340494.648;-26.152;-9.462;-26.599;-30.808;-14.864;-2.012;-6.892;-0.782
2340494.656;-18.403;-2.868;-18.924;-21.532;-6.780;1.304;-4.396;2.123
2340494.664;-17.732;-2.868;-19.856;-20.936;-8.717;-0.969;-6.184;0.857
2340494.672;-20.750;-6.743;-23.134;-24.848;-11.735;-2.347;-7.115;0.335
2340494.680;-24.214;-10.282;-25.928;-29.914;-14.864;-2.570;-6.855;-0.224
2340494.688;-22.724;-7.451;-25.146;-26.450;-14.715;-1.639;-3.763;0.112
2340494.696;-17.695;-1.229;-19.856;-19.558;-10.170;1.527;0.335;1.751
2340494.704;-16.876;-1.825;-18.626;-20.862;-9.276;2.682;0.633;2.123
2340494.712;-15.981;-1.155;-17.881;-22.724;-8.382;0.522;-1.155;1.788
2340494.720;-15.236;-0.857;-17.360;-24.848;-7.488;-0.633;-1.565;0.559
2340494.851;-12.554;1.676;-14.119;-20.675;-3.800;-0.596;-2.049;1.602
2340494.859;-12.554;1.192;-14.529;-19.595;-2.906;-5.849;-7.190;-3.316
2340494.867;-11.809;1.639;-13.225;-20.489;-1.192;-6.557;-7.674;-3.837
2340494.875;-11.809;3.092;-13.597;-20.005;-0.671;-5.923;-6.258;-3.539
2340494.883;-16.950;-1.155;-18.775;-23.991;-5.662;-7.749;-8.866;-5.998
2340494.891;-15.795;-0.633;-17.211;-24.848;-4.433;-9.201;-10.058;-6.109
2340494.899;-19.222;-2.608;-20.713;-27.977;-6.631;-14.007;-13.113;-8.680
2340494.907;-14.156;0.447;-14.640;-27.008;0.000;-8.531;-7.264;-2.757
2340494.915;-11.884;2.608;-12.666;-22.687;0.596;-6.109;-4.433;-1.565
2340494.923;-15.013;0.671;-15.236;-23.246;-2.198;-9.127;-5.923;-5.327
2340494.931;-14.789;0.000;-13.374;-24.810;0.931;-8.829;-5.364;-4.098
2340494.939;-17.062;-2.049;-15.646;-28.014;-1.192;-9.947;-6.221;-4.433
2340494.947;-22.240;-7.041;-20.005;-33.006;-6.519;-9.947;-7.488;-6.370
2340494.955;-21.793;-7.488;-18.775;-33.975;-5.364;-7.264;-4.806;-5.327
2340494.963;-20.377;-5.513;-19.372;-32.336;-5.737;-8.680;-6.072;-6.668
2340494.971;-19.073;-4.657;-20.042;-30.398;-6.780;-7.823;-6.594;-4.619
2340494.979;-18.589;-5.327;-20.787;-31.292;-8.158;-6.407;-4.582;-3.576
2340494.987;-16.540;-1.863;-19.781;-25.146;-9.201;-1.900;0.894;-1.863
2340494.995;-19.856;-4.508;-23.618;-26.859;-13.709;-3.949;-0.298;-5.178
2340495.003;-22.464;-7.302;-26.263;-29.765;-15.870;-5.290;-0.447;-6.668
2340495.011;-20.899;-6.147;-24.885;-27.679;-12.890;1.639;6.333;-0.075
2340495.019;-26.189;-10.543;-30.212;-29.020;-17.509;1.751;5.551;0.410
2340495.027;-22.836;-7.227;-27.716;-26.673;-14.640;4.433;6.743;2.645
2340495.035;-18.328;-4.619;-23.022;-22.613;-8.680;4.061;6.407;2.161
2340495.091;-16.540;-3.539;-18.440;-23.618;-3.204;2.570;5.104;2.012
2340495.099;-15.944;-2.086;-17.472;-21.271;-2.570;5.364;8.494;5.066
2340495.107;-19.036;-5.029;-19.930;-22.687;-7.711;6.072;8.531;5.700
2340495.115;-20.862;-6.370;-22.128;-22.948;-10.803;7.972;10.543;5.588
2340495.123;-21.011;-6.892;-22.426;-22.911;-11.399;9.350;11.474;4.247
2340495.131;-25.555;-12.666;-26.301;-28.610;-15.050;0.894;2.868;-3.502
2340495.139;-29.057;-16.540;-29.653;-32.745;-18.924;-5.439;-2.943;-7.860
2340495.147;-30.585;-18.775;-30.883;-36.173;-20.005;-7.339;-5.402;-7.600
2340495.155;-31.702;-18.626;-31.628;-33.192;-20.526;-5.811;-4.470;-5.551
2340495.163;-30.771;-18.254;-30.510;-33.341;-20.526;-1.565;-0.410;-2.794
2340495.171;-30.585;-18.440;-29.765;-34.980;-21.420;-3.129;-2.086;-3.837
2340495.179;-29.579;-16.466;-29.206;-32.410;-20.117;-3.576;-3.166;-5.662
2340495.187;-31.367;-17.025;-31.888;-32.522;-21.122;-4.135;-3.725;-8.270
2340495.195;-28.722;-14.380;-30.622;-29.691;-19.222;0.112;1.378;-6.035
2340495.203;-28.536;-14.678;-30.808;-29.616;-19.930;-1.304;0.633;-8.717
2340495.211;-26.338;-11.735;-28.089;-28.871;-16.354;-3.353;0.335;-9.835
2340495.219;-26.710;-11.176;-27.269;-23.507;-15.087;-3.986;0.931;-10.021
2340495.227;-25.965;-11.995;-25.071;-24.959;-11.697;-2.533;2.570;-7.525
2340495.235;-24.699;-11.772;-23.283;-25.928;-11.437;2.123;6.035;-2.570
2340495.243;-23.581;-12.256;-23.358;-27.455;-12.405;6.258;8.941;1.527
2340495.251;-23.805;-12.666;-22.650;-26.524;-12.033;6.519;8.419;2.310
2340495.259;-23.544;-11.921;-21.569;-25.779;-10.915;6.855;7.898;1.490
2340495.267;-19.670;-7.823;-18.217;-23.134;-8.456;8.345;9.462;2.496
2340495.275;-21.756;-10.394;-19.856;-26.934;-9.984;5.215;5.253;-0.559
2340495.301;-25.444;-14.156;-23.209;-29.244;-13.411;2.533;2.310;-2.198
2340495.309;-25.034;-11.548;-22.352;-22.985;-12.182;5.253;6.594;-0.261
2340495.317;-23.916;-9.052;-20.899;-21.160;-10.431;7.898;8.382;0.186
2340495.325;-23.544;-9.388;-21.197;-20.489;-11.027;7.600;8.568;-0.857
2340495.333;-17.062;-4.694;-16.168;-17.658;-4.992;11.399;13.113;3.837
2340495.341;-16.317;-4.508;-15.162;-17.174;-5.253;12.442;13.672;5.551
2340495.349;-19.297;-7.078;-16.801;-19.222;-8.084;9.388;10.729;3.353
2340495.357;-23.767;-9.686;-22.240;-22.650;-13.895;7.600;9.611;0.373
2340495.365;-23.469;-8.121;-23.060;-23.916;-15.460;8.121;10.096;1.006
2340495.373;-19.632;-3.465;-19.148;-19.558;-12.629;8.419;10.319;2.459
2340495.381;-21.830;-4.247;-20.005;-18.515;-13.188;6.668;9.052;2.161
2340495.389;-21.569;-7.339;-19.670;-22.352;-12.554;7.972;9.909;5.141
2340495.397;-21.383;-8.978;-21.122;-25.220;-13.672;8.494;10.803;6.296
2340495.405;-25.742;-12.964;-25.593;-29.467;-17.807;6.184;8.158;3.204
2340495.413;-28.461;-14.715;-27.567;-30.398;-18.701;5.476;6.296;2.682
2340495.421;-30.100;-16.168;-28.089;-31.590;-19.148;5.327;5.402;3.427
2340495.429;-31.926;-17.956;-29.653;-32.671;-22.091;0.894;0.782;0.633
2340495.437;-30.100;-17.062;-28.796;-31.777;-21.346;3.204;1.676;0.931
2340495.445;-27.902;-14.119;-26.599;-28.275;-18.366;6.594;5.588;2.682
2340495.453;-26.822;-14.044;-25.034;-29.132;-15.832;4.135;3.166;1.006
2340495.461;-24.848;-12.815;-22.911;-27.344;-12.703;1.080;-0.261;-1.043
2340495.469;-17.919;-5.588;-16.689;-21.458;-7.488;3.241;2.384;-0.112
2340495.477;-12.107;2.012;-10.394;-14.789;-2.123;7.972;7.786;4.023
2340495.485;-10.990;3.278;-8.680;-12.033;-1.565;7.637;8.270;3.837
2340495.480;-12.219;1.714;-9.574;-13.933;-3.166;2.459;4.172;-1.043
2340495.488;-12.740;2.123;-10.207;-13.113;-2.943;-0.931;0.931;-4.023
2340495.496;-16.168;-0.559;-13.039;-16.689;-5.886;-2.161;-0.969;-4.768
2340495.504;-11.846;4.433;-9.276;-11.064;-2.235;4.098;6.147;1.825
2340495.512;-11.288;4.545;-8.717;-11.064;-1.527;4.694;7.488;2.086
2340495.520;-16.242;-1.676;-11.548;-17.881;-4.284;1.341;3.278;-0.447
2340495.528;-20.191;-4.657;-15.646;-21.383;-8.419;-1.863;-0.075;-2.161
2340495.536;-21.644;-5.513;-19.073;-21.607;-10.058;-2.682;-0.596;-1.714
2340495.544;-22.203;-7.860;-19.744;-24.065;-10.952;-1.900;-0.522;-0.708
2340495.552;-19.409;-4.694;-16.801;-20.936;-9.686;0.112;2.272;0.559
2340495.560;-16.019;0.149;-13.784;-15.683;-7.860;2.459;4.657;3.278
2340495.568;-18.403;-1.155;-17.397;-17.136;-13.337;1.080;3.129;0.671
2340495.576;-14.640;3.278;-15.050;-10.319;-10.356;4.619;7.525;2.086
2340495.584;-7.264;12.331;-8.196;-1.453;-4.880;11.213;16.242;8.158
2340495.592;-2.533;16.913;-3.949;1.453;-2.310;7.302;12.964;5.625
2340495.600;11.101;30.883;10.170;16.131;8.941;6.258;12.517;5.811
2340495.608;21.309;43.325;21.644;30.771;17.993;5.364;12.182;3.874
2340495.616;25.593;50.552;26.189;39.823;19.819;7.562;13.262;5.811
2340495.624;37.365;64.559;39.339;55.991;28.051;8.158;11.623;6.184
2340495.632;49.286;76.480;53.085;67.167;39.451;7.004;9.388;4.470
2340495.640;55.693;85.831;59.158;76.257;44.107;2.533;5.439;3.017
2340495.648;61.542;92.871;64.522;82.850;45.821;-2.906;0.261;-0.186
2340495.656;71.898;103.265;75.959;94.250;52.750;-3.017;-0.037;-0.447
2340495.664;81.137;111.610;87.284;103.973;61.914;1.378;4.247;3.353
2340495.705;86.799;117.198;92.946;109.747;67.391;4.210;8.158;4.508
2340495.713;88.438;120.364;94.287;110.194;66.943;7.674;12.964;6.631
2340495.721;85.272;117.421;89.966;108.629;64.783;5.662;10.729;5.923
2340495.729;77.002;109.561;80.578;100.881;57.295;1.900;5.141;2.868
2340495.737;71.675;103.302;74.729;90.413;53.383;2.608;4.508;3.576
2340495.745;66.273;96.187;68.098;81.919;50.254;0.522;2.868;2.459
2340495.753;55.619;84.154;56.960;69.477;41.835;-2.831;-0.261;-0.373
2340495.761;45.560;72.531;46.305;57.518;35.502;-5.811;-2.533;-4.023
2340495.769;39.972;65.751;40.196;49.472;31.628;-8.456;-4.508;-6.706
2340495.777;31.143;54.352;32.634;35.837;27.157;-10.915;-7.898;-8.345
2340495.785;17.770;39.227;18.179;21.160;16.801;-11.362;-8.047;-8.568
2340495.793;15.646;37.253;15.125;19.036;14.305;-5.141;-0.447;-2.272
2340495.801;13.672;34.422;13.858;13.150;12.964;-3.763;1.080;-0.708
2340495.809;9.350;28.946;8.419;7.302;7.711;-9.835;-6.482;-4.694
2340495.817;11.027;31.441;7.898;9.723;9.798;-3.912;-2.384;-0.410
2340495.825;8.345;27.865;4.061;8.009;6.743;0.708;1.490;2.980
2340495.833;2.645;20.973;-2.347;1.155;1.825;2.645;4.135;3.465
2340495.841;1.602;18.552;-2.831;-1.043;3.204;6.855;9.127;6.482
2340495.849;-3.316;12.517;-7.786;-7.004;-0.037;9.127;9.798;7.935
2340495.857;-7.860;5.402;-12.778;-15.199;-3.576;4.843;5.923;3.576
2340495.865;-10.096;2.868;-13.299;-14.678;-4.135;2.421;3.874;1.937
2340495.873;-13.635;-0.522;-16.242;-16.429;-8.047;2.012;3.949;1.565
2340495.881;-16.764;-4.508;-19.930;-20.228;-10.878;2.608;5.141;2.310
2340495.889;-20.266;-6.817;-24.475;-23.916;-14.007;-0.969;1.453;0.112
2340495.960;-21.607;-7.264;-27.828;-24.177;-17.621;-8.158;-6.445;-6.519
2340495.968;-22.501;-8.494;-28.685;-23.395;-16.615;-12.219;-9.835;-9.350
2340495.976;-30.808;-16.540;-35.167;-34.422;-23.693;-15.050;-13.560;-11.995
2340495.984;-35.912;-21.793;-40.270;-37.216;-29.579;-12.852;-11.735;-12.293
2340495.992;-34.086;-20.452;-39.451;-31.628;-28.946;-12.256;-9.909;-11.325
2340496.000;-31.255;-16.578;-36.992;-28.312;-26.338;-10.841;-7.562;-11.362
2340496.008;-33.230;-20.675;-38.035;-33.118;-25.891;-14.491;-10.617;-16.689
2340496.016;-38.482;-27.716;-42.394;-41.127;-28.983;-15.274;-11.064;-18.999
2340496.024;-41.164;-29.095;-43.474;-41.500;-29.989;-14.305;-9.798;-15.758
2340496.032;-41.313;-28.498;-44.443;-40.159;-31.330;-12.778;-9.686;-12.964
2340496.040;-36.359;-23.209;-40.457;-33.379;-27.977;-10.207;-7.413;-9.388
2340496.048;-31.851;-20.042;-35.278;-31.553;-22.464;-10.766;-8.792;-9.239
2340496.056;-34.757;-22.352;-37.886;-34.161;-24.550;-15.609;-13.560;-14.454
2340496.064;-34.049;-21.197;-38.035;-31.777;-24.624;-12.778;-10.133;-13.895
2340496.072;-31.814;-19.036;-35.577;-31.479;-23.209;-9.052;-8.047;-11.064
2340496.080;-31.814;-19.409;-34.384;-32.112;-21.569;-5.290;-5.625;-7.898
2340496.088;-34.198;-21.607;-36.843;-34.198;-25.071;-2.831;-4.061;-4.880
2340496.096;-32.410;-20.564;-35.278;-33.751;-23.209;0.000;-1.006;-1.229
2340496.104;-28.796;-18.142;-31.851;-30.957;-20.899;2.570;3.204;0.000
2340496.112;-29.281;-19.930;-32.224;-32.447;-20.415;1.602;2.757;-1.714
2340496.120;-28.424;-17.695;-31.367;-29.281;-17.136;1.192;0.894;-0.335
2340496.128;-28.312;-16.727;-31.739;-27.195;-17.360;-1.341;-0.373;-1.118
2340496.136;-27.791;-14.827;-32.298;-24.922;-20.117;-0.671;1.416;-0.745
2340496.144;-28.126;-13.039;-34.049;-22.836;-22.985;-0.447;2.421;-0.969
2340496.142;-30.026;-15.646;-35.465;-25.705;-24.401;-3.166;-0.410;-4.731
2340496.150;-28.834;-16.950;-33.304;-27.455;-21.458;-3.465;-0.820;-5.551
2340496.158;-31.926;-21.942;-35.428;-30.920;-22.687;-3.912;-2.682;-6.035
2340496.166;-36.098;-24.848;-38.743;-35.614;-25.295;-5.104;-3.576;-6.817
2340496.174;-38.557;-25.146;-41.425;-37.216;-27.493;-5.700;-3.986;-7.264
2340496.182;-44.368;-30.361;-46.752;-39.712;-31.628;-7.041;-5.439;-7.898
2340496.190;-45.449;-33.975;-46.454;-44.778;-31.330;-6.445;-5.327;-6.333
2340496.198;-42.915;-32.857;-43.884;-45.188;-29.430;-6.631;-4.880;-5.551
2340496.206;-37.402;-26.971;-39.488;-39.153;-26.003;-4.172;-3.017;-3.502
2340496.214;-34.757;-26.040;-36.657;-37.514;-23.767;-4.880;-4.880;-3.539
2340496.222;-35.241;-27.008;-37.029;-39.302;-26.263;-10.617;-11.586;-8.009
2340496.230;-32.298;-24.028;-34.347;-37.849;-23.767;-11.586;-11.697;-8.717
2340496.238;-27.865;-19.409;-29.206;-33.006;-19.297;-8.568;-8.754;-6.296
2340496.246;-26.263;-16.987;-28.051;-28.759;-18.217;-5.253;-6.184;-5.029
2340496.254;-24.773;-15.721;-25.816;-27.232;-14.268;-0.075;-1.639;-0.745
2340496.262;-25.444;-16.913;-26.636;-29.355;-14.044;-1.714;-3.092;-3.017
2340496.270;-29.095;-20.526;-29.206;-33.453;-18.105;-4.731;-5.588;-7.153
2340496.278;-30.212;-22.165;-28.834;-35.129;-17.844;-7.562;-8.009;-9.164
2340496.286;-28.871;-22.091;-28.685;-35.241;-16.317;-7.227;-8.568;-6.706
2340496.294;-28.573;-22.277;-29.169;-34.384;-16.764;-6.594;-8.233;-4.172
2340496.302;-25.295;-16.578;-25.518;-30.547;-12.778;-3.092;-3.204;-0.708
2340496.310;-24.512;-16.727;-24.214;-31.218;-12.144;-3.166;-2.123;-0.186
2340496.318;-23.954;-16.391;-24.214;-29.057;-12.703;-2.906;-3.241;0.559
2340496.326;-22.911;-14.864;-22.799;-27.157;-10.729;-2.682;-3.427;0.969
2340496.274;-23.656;-14.491;-23.469;-27.493;-9.425;-2.347;-4.023;0.484
2340496.282;-21.383;-12.033;-22.091;-25.444;-8.084;-1.490;-2.310;0.000
2340496.290;-16.019;-6.072;-17.509;-17.211;-3.204;4.731;3.353;5.551
2340496.298;-17.099;-7.451;-18.850;-19.185;-6.780;3.204;2.310;4.061
2340496.306;-16.503;-4.843;-19.073;-17.881;-8.233;0.894;-0.075;3.353
2340496.314;-16.280;-4.731;-18.813;-16.838;-8.605;-1.714;-2.831;3.353
2340496.322;-18.328;-7.302;-19.670;-17.919;-9.574;-4.880;-5.476;1.155
2340496.330;-20.675;-10.133;-22.426;-20.899;-11.995;-7.786;-7.525;-1.416
2340496.338;-20.005;-10.394;-21.532;-24.214;-10.543;-6.370;-5.849;-0.224
2340496.346;-19.297;-10.394;-20.601;-24.475;-10.021;-4.694;-3.651;2.086
2340496.354;-16.205;-6.296;-16.429;-20.415;-6.966;-2.682;-1.639;2.868
2340496.362;-15.274;-3.949;-16.280;-17.025;-8.047;-6.445;-4.545;-1.602
2340496.370;-17.993;-5.327;-17.993;-18.924;-8.941;-10.356;-8.009;-3.874
2340496.378;-21.569;-9.239;-22.240;-22.501;-11.660;-10.952;-9.313;-3.986
2340496.386;-20.899;-9.239;-22.426;-23.022;-12.293;-11.213;-8.866;-4.359
2340496.394;-20.228;-8.047;-21.830;-20.266;-12.219;-10.915;-9.760;-3.912
2340496.402;-19.930;-7.674;-20.936;-21.458;-10.990;-14.491;-13.486;-6.184
2340496.410;-19.930;-7.525;-20.117;-22.165;-9.723;-13.113;-13.933;-4.470
2340496.418;-29.691;-16.987;-29.430;-30.622;-18.328;-17.323;-19.409;-9.052
2340496.426;-35.129;-22.165;-36.843;-35.353;-26.524;-18.440;-19.781;-9.835
2340496.434;-33.565;-19.819;-37.439;-33.304;-27.493;-14.417;-14.305;-7.078
2340496.442;-32.522;-17.770;-36.135;-34.794;-27.344;-12.480;-10.692;-7.115
2340496.450;-34.273;-19.521;-38.445;-33.304;-28.312;-7.078;-5.476;-3.055
2340496.458;-36.024;-23.060;-39.972;-34.906;-29.542;-7.115;-6.407;-2.570
2340496.396;-31.143;-20.117;-34.720;-34.049;-25.332;-7.935;-7.562;-2.719
2340496.404;-22.426;-10.915;-25.667;-27.753;-17.285;-7.227;-5.364;-1.378
2340496.412;-21.867;-9.760;-24.773;-27.008;-17.285;-8.605;-6.892;-3.427
2340496.420;-21.495;-10.207;-23.507;-26.114;-16.764;-8.494;-6.445;-3.837
2340496.428;-23.209;-12.666;-23.730;-28.647;-15.087;-8.345;-7.339;-2.123
2340496.436;-24.810;-16.019;-24.512;-32.969;-14.640;-9.015;-8.568;-0.484
2340496.444;-23.954;-15.460;-24.140;-34.310;-15.534;-8.717;-9.760;0.000
2340496.452;-15.460;-7.302;-16.540;-25.257;-8.941;-4.247;-5.886;4.210
2340496.460;-17.248;-9.276;-18.850;-26.934;-11.027;-6.296;-7.786;0.857
2340496.468;-16.838;-8.047;-19.707;-23.134;-12.033;-5.588;-5.327;-0.671
2340496.476;-12.405;-5.364;-14.566;-20.638;-6.743;-0.149;-0.112;2.719
2340496.484;-15.050;-7.711;-15.758;-23.283;-6.296;1.974;0.782;3.353
2340496.492;-19.968;-12.256;-20.042;-28.014;-10.133;0.484;-1.118;2.943
2340496.500;-24.140;-16.764;-24.438;-29.542;-14.082;-1.490;-2.123;2.570
2340496.508;-28.834;-20.266;-29.467;-33.453;-20.117;-2.645;-3.278;0.782
2340496.516;-28.834;-21.309;-28.573;-34.459;-18.589;-4.582;-4.508;0.037
2340496.524;-25.891;-21.011;-24.550;-33.602;-12.890;-5.178;-5.551;0.708
2340496.532;-28.983;-25.108;-27.269;-37.737;-16.689;-8.717;-10.319;-3.353
2340496.540;-24.550;-20.601;-23.134;-32.112;-13.933;-7.451;-8.978;-2.496
2340496.548;-20.973;-16.652;-18.403;-27.455;-9.164;-4.880;-5.066;-0.075
2340496.556;-19.185;-14.827;-16.019;-27.157;-6.743;-4.731;-4.955;-0.335
2340496.564;-13.746;-8.009;-12.852;-18.217;-4.023;-1.043;-1.565;1.378
2340496.572;-15.795;-9.239;-16.168;-19.111;-7.525;0.410;0.484;3.912
2340496.580;-19.483;-12.666;-18.515;-23.395;-9.984;2.198;0.931;6.109
2340496.620;-21.197;-14.417;-19.670;-23.693;-12.107;0.037;-2.272;3.651
2340496.628;-24.028;-15.758;-23.954;-23.283;-16.168;-7.451;-10.133;-3.651
2340496.636;-25.444;-17.509;-25.481;-24.550;-17.807;-11.474;-12.256;-7.115
2340496.644;-19.781;-11.772;-21.309;-18.589;-12.927;-9.499;-9.239;-4.992
2340496.652;-14.976;-6.519;-16.242;-14.156;-7.078;-8.568;-7.413;-4.545
2340496.660;-14.566;-4.098;-15.423;-10.617;-6.966;-10.505;-8.158;-7.488
2340496.668;-13.821;-3.874;-15.125;-8.307;-7.972;-9.686;-8.009;-8.456
2340496.676;-10.729;-1.639;-11.884;-7.749;-6.706;-3.204;-1.378;-3.241
2340496.684;-12.703;-2.012;-13.374;-9.425;-8.568;3.390;5.178;0.671
2340496.692;-10.207;-0.484;-9.798;-10.058;-3.055;13.001;13.486;9.201
2340496.700;-7.786;1.714;-7.823;-8.345;-0.112;16.540;16.205;13.970
2340496.708;-10.021;-0.820;-10.952;-8.903;-2.682;11.772;10.766;11.399
2340496.716;-13.337;-5.253;-14.715;-12.740;-6.184;6.109;5.253;6.184
2340496.724;-16.950;-11.027;-17.174;-21.122;-8.047;0.596;-1.378;1.043
2340496.732;-19.185;-14.193;-19.595;-23.432;-11.921;-4.172;-6.594;-3.092
2340496.740;-13.672;-8.345;-14.789;-16.838;-8.307;-3.837;-6.594;-1.118
2340496.748;-8.866;-1.714;-11.213;-12.815;-4.470;-1.118;-4.619;1.378
2340496.756;-12.703;-4.843;-16.466;-15.050;-9.164;0.820;-1.304;-0.708
2340496.764;-16.652;-9.425;-22.128;-18.142;-14.305;-0.969;-1.118;-3.278
2340496.772;-16.913;-9.015;-22.277;-16.801;-15.423;1.155;0.782;-1.565
2340496.780;-20.973;-13.858;-25.965;-20.526;-20.266;0.559;-0.522;-1.416
2340496.788;-21.160;-13.374;-25.481;-20.154;-19.856;0.708;-1.155;-0.410
2340496.796;-17.360;-9.052;-22.277;-13.560;-17.621;0.969;-0.782;1.341
2340496.804;-15.460;-7.004;-19.893;-11.623;-16.652;0.745;-1.788;2.980
2340496.831;-13.225;-4.321;-16.578;-11.474;-14.864;1.080;-2.645;4.508
2340496.839;-19.483;-10.096;-21.830;-18.775;-20.340;-3.427;-6.929;1.229
2340496.847;-21.011;-12.107;-22.128;-20.824;-21.532;-8.643;-12.107;-1.229
2340496.855;-16.205;-8.643;-17.025;-16.242;-16.876;-8.456;-11.548;-0.484
2340496.863;-13.039;-5.029;-13.709;-13.858;-12.331;-7.451;-10.729;-2.086
2340496.871;-10.692;-2.049;-11.325;-9.909;-11.884;-9.015;-11.325;-5.700
2340496.879;-5.625;3.763;-4.992;-3.427;-7.339;-6.594;-8.196;-3.166
2340496.887;3.055;12.591;3.614;3.316;-2.161;-2.682;-2.831;0.447
2340496.895;6.333;15.721;8.494;7.115;2.012;-4.657;-3.874;-1.676
2340496.903;12.666;21.309;15.870;13.746;8.009;-2.719;-1.527;0.335
2340496.911;22.389;32.037;26.040;23.469;17.360;3.055;5.402;5.215
2340496.919;39.116;50.813;45.970;45.598;35.949;0.224;2.608;1.863
2340496.927;55.879;67.689;64.783;62.101;49.472;1.304;3.278;2.161
2340496.935;72.308;84.303;82.441;77.933;61.952;4.359;8.233;4.843
2340496.943;89.370;101.142;103.228;95.628;78.715;1.490;6.743;4.023
2340496.951;103.526;116.974;120.625;112.802;91.121;2.347;7.562;6.072
2340496.959;114.329;127.032;134.930;122.450;101.887;2.682;6.482;6.631
2340496.967;125.729;137.947;148.825;131.167;113.249;2.086;3.427;6.557
2340496.975;127.889;138.767;151.247;131.279;114.068;-4.098;-2.719;1.192
2340496.983;138.953;149.868;162.572;141.673;120.215;-4.992;-3.576;0.000
2340496.991;147.484;157.319;171.848;149.235;127.405;0.298;0.373;3.800
2340496.999;150.613;161.305;177.957;155.605;132.658;-1.937;-0.820;1.639
2340497.007;145.584;156.015;175.275;148.676;130.907;-2.608;-1.602;0.298
2340497.015;143.722;154.376;173.338;147.298;131.205;-5.923;-4.172;-0.782
2340496.995;135.154;145.920;163.577;138.730;124.834;-10.729;-7.190;-2.831
2340497.003;133.663;143.349;162.460;136.383;123.754;-10.170;-6.594;-1.676
2340497.011;137.165;145.398;166.409;138.134;128.374;-5.551;-2.757;1.676
2340497.019;130.497;137.910;158.511;130.534;121.221;-1.527;-0.037;3.800
2340497.027;132.993;139.661;160.635;131.689;123.605;1.118;2.235;6.482
2340497.035;128.858;135.936;153.556;128.597;118.725;4.843;4.843;9.723
2340497.043;128.075;135.526;151.098;126.325;119.284;9.388;7.935;13.188
2340497.051;118.315;126.399;138.730;116.043;110.529;7.637;8.009;10.841
2340497.059;104.867;112.504;124.238;101.030;101.328;3.465;5.141;5.998
2340497.067;91.456;98.832;108.443;86.352;89.444;0.112;3.502;2.682
2340497.075;83.074;89.109;96.895;75.810;81.658;-0.484;3.353;1.863
2340497.083;71.898;78.604;82.590;65.789;72.271;1.192;4.694;3.837
2340497.091;48.690;55.209;56.624;42.431;52.862;-4.321;-1.602;-0.596
2340497.099;23.879;30.249;31.181;18.142;34.235;-13.970;-10.766;-7.935
2340497.107;3.725;10.133;10.170;1.416;18.738;-14.789;-10.319;-8.568
2340497.115;-9.015;-5.439;-3.725;-15.981;9.723;-17.136;-11.995;-10.803
2340497.123;-19.297;-16.578;-15.981;-28.387;1.788;-20.638;-16.578;-13.746
2340497.131;-26.636;-23.916;-23.507;-34.720;-2.310;-18.999;-14.976;-11.362
2340497.139;-35.465;-32.298;-32.037;-41.947;-9.462;-20.936;-16.205;-12.927
2340497.147;-45.113;-41.202;-43.213;-49.993;-18.813;-28.908;-23.134;-21.756
2340497.155;-38.967;-35.726;-37.216;-44.033;-10.617;-20.266;-14.603;-14.193
2340497.163;-39.339;-35.577;-37.178;-42.357;-8.419;-14.380;-9.723;-9.239
2340497.171;-50.142;-45.970;-48.801;-52.340;-20.042;-19.260;-16.391;-15.236
2340497.179;-61.132;-57.593;-59.307;-65.342;-30.547;-25.518;-24.140;-20.154
2340497.129;-59.344;-55.917;-58.450;-62.585;-28.871;-23.134;-22.277;-19.670
2340497.137;-53.905;-50.180;-54.687;-56.252;-24.252;-21.271;-19.185;-19.968
2340497.145;-50.217;-46.864;-49.993;-55.172;-19.670;-14.678;-11.697;-14.305
2340497.153;-46.007;-45.002;-46.119;-53.048;-15.721;-8.568;-6.594;-9.127
2340497.161;-45.560;-46.268;-45.784;-54.054;-14.789;-5.662;-5.811;-6.594
2340497.169;-55.097;-56.513;-54.017;-64.708;-22.724;-10.915;-10.878;-11.548
2340497.177;-57.705;-59.977;-57.407;-66.794;-24.736;-8.196;-7.637;-10.505
2340497.185;-58.599;-60.573;-60.387;-67.428;-25.332;-3.688;-4.210;-6.780
2340497.193;-61.542;-63.777;-64.075;-69.216;-28.349;-2.794;-4.508;-6.035
2340497.201;-64.224;-67.130;-65.714;-72.010;-29.020;-5.700;-7.898;-10.058
2340497.209;-58.636;-60.983;-59.791;-63.814;-22.165;-1.118;-2.719;-6.370
2340497.217;-66.012;-68.322;-66.496;-69.775;-29.728;-9.239;-10.915;-12.517
2340497.225;-70.259;-73.425;-71.265;-74.953;-34.273;-11.548;-15.236;-14.715
2340497.233;-64.038;-67.987;-64.038;-68.545;-27.418;-2.459;-7.823;-5.476
2340497.241;-62.101;-66.273;-61.542;-65.677;-24.289;0.447;-6.445;0.596
2340497.249;-57.966;-61.542;-58.860;-59.679;-22.016;-3.129;-8.456;-4.321
2340497.257;-54.315;-57.295;-55.879;-54.464;-19.856;-4.172;-8.233;-6.035
2340497.265;-50.478;-53.830;-51.074;-50.478;-14.566;-0.969;-4.321;-3.353
2340497.273;-53.719;-57.556;-54.017;-55.991;-16.056;-1.751;-4.992;-3.651
2340497.281;-63.963;-67.875;-63.293;-63.963;-24.512;-5.923;-9.760;-6.892
2340497.289;-64.112;-68.620;-63.442;-62.324;-24.065;-2.347;-5.327;-3.614
2340497.297;-63.404;-69.663;-62.734;-63.330;-22.165;-1.788;-4.508;-4.433
2340497.305;-59.716;-65.453;-59.679;-59.679;-21.458;-2.608;-4.731;-5.774
2340497.313;-62.920;-69.439;-62.697;-62.138;-24.810;-6.929;-8.792;-9.350
2340497.298;-62.287;-70.408;-61.989;-62.063;-22.128;-5.327;-8.009;-8.158
2340497.306;-66.385;-73.351;-64.783;-66.645;-23.879;-8.494;-12.703;-11.846
2340497.314;-77.412;-85.048;-74.618;-78.790;-32.820;-20.675;-25.369;-22.352
2340497.322;-78.939;-86.389;-78.045;-79.274;-35.800;-24.736;-28.200;-25.816
2340497.330;-59.642;-66.124;-59.232;-59.232;-17.136;-7.749;-10.729;-7.860
2340497.338;-61.393;-65.975;-61.542;-61.132;-20.601;-10.580;-13.411;-9.574
2340497.346;-53.681;-56.848;-54.501;-57.481;-14.454;0.112;-1.006;-1.565
2340497.354;-54.687;-57.779;-54.426;-59.158;-12.368;-1.155;-2.086;-2.198
2340497.362;-105.649;-110.045;-104.420;-109.449;-60.238;-47.199;-50.217;-43.660
2340497.370;-131.205;-136.271;-130.907;-133.924;-86.017;-66.198;-69.924;-62.697
2340497.378;-73.537;-76.629;-74.245;-72.904;-30.026;-11.474;-14.082;-13.597
2340497.386;-45.151;-46.268;-47.125;-38.743;-2.496;18.477;15.423;12.890
2340497.394;-6.743;-7.562;-10.207;0.484;35.055;57.928;55.134;49.770
2340497.402;-22.911;-24.773;-25.481;-14.827;20.489;45.598;41.388;39.674
2340497.410;-40.345;-43.400;-41.313;-33.379;5.141;24.922;20.936;22.873
2340497.418;-41.276;-45.151;-42.468;-31.888;6.221;18.775;15.721;16.615
2340497.426;-54.911;-59.977;-57.295;-45.374;-6.147;10.394;6.370;10.170
2340497.434;-63.367;-69.514;-66.869;-56.215;-15.087;-2.198;-8.382;-1.378
2340497.442;-60.163;-65.155;-65.006;-52.266;-13.225;0.931;-5.029;0.596
2340497.450;-58.152;-62.957;-62.324;-49.807;-13.150;1.751;-3.912;1.229
2340497.458;-52.936;-55.917;-56.960;-43.511;-9.798;0.335;-4.284;-0.224
2340497.466;-53.123;-54.687;-57.183;-39.600;-12.629;-0.894;-4.508;0.373
2340497.474;-44.405;-45.598;-49.658;-30.883;-8.196;1.378;-2.049;2.459
2340497.482;-43.996;-44.927;-48.615;-31.628;-9.462;-1.080;-4.880;-1.229
2340497.594;-45.635;-46.864;-50.515;-32.373;-13.821;-3.539;-8.419;-5.029
2340497.602;-46.119;-48.243;-52.899;-32.857;-18.366;-17.695;-21.867;-18.142
2340497.610;-20.303;-22.128;-28.051;-7.302;4.098;-0.149;-2.943;-1.974
2340497.618;0.931;0.820;-7.637;15.460;22.389;18.142;16.764;16.540
2340497.626;-2.086;-1.714;-10.058;12.480;16.876;8.270;6.109;4.843
2340497.634;0.857;-0.261;-7.078;14.864;18.664;4.508;3.241;-1.043
2340497.642;1.453;0.782;-5.215;18.179;18.738;8.382;5.364;1.714
2340497.650;6.072;4.880;-0.112;22.128;21.756;2.347;-1.900;-1.863
2340497.658;12.740;11.027;7.041;30.249;25.779;5.960;1.490;2.868
2340497.666;14.156;11.958;9.499;32.857;25.332;9.686;3.353;8.233
2340497.674;31.404;29.765;29.765;53.011;42.655;-4.657;-8.605;-5.327
2340497.682;37.886;35.651;38.818;59.232;51.521;9.909;5.811;7.786
2340497.690;38.743;35.428;42.804;59.940;54.836;5.886;1.527;3.763
2340497.698;51.148;45.672;58.673;71.116;73.202;12.293;10.990;6.594
2340497.706;39.190;32.969;47.870;58.524;69.104;7.562;4.694;2.980
2340497.714;9.388;0.559;17.956;26.859;45.560;-12.591;-14.864;-14.678
2340497.722;8.009;-3.651;14.715;23.395;47.870;4.284;2.272;0.820
2340497.730;-4.731;-17.472;1.006;9.947;40.680;12.368;9.015;8.717
2340497.738;-31.777;-44.256;-28.051;-15.125;17.472;-1.639;-6.296;-3.651
2340497.746;-32.820;-46.268;-30.249;-16.540;18.068;-4.023;-9.872;-4.731
2340497.754;-35.800;-51.111;-34.384;-22.128;16.429;-7.153;-13.299;-5.402
2340497.762;-53.570;-69.179;-52.229;-38.221;0.782;-21.495;-27.753;-20.787
2340497.770;-53.979;-70.147;-53.458;-37.476;1.304;-15.870;-23.246;-15.162
2340497.778;-60.201;-76.406;-61.505;-42.543;-5.923;-13.448;-20.824;-11.958
2340497.806;-57.407;-72.941;-58.860;-38.445;-2.831;-11.846;-19.036;-11.586
2340497.814;-43.064;-58.934;-44.666;-24.512;11.325;-1.602;-8.233;-2.272
2340497.822;-39.712;-57.481;-41.686;-21.756;14.603;3.651;-4.247;2.682
2340497.830;-49.584;-69.030;-51.819;-32.000;6.258;1.378;-7.004;-0.149
2340497.838;-40.047;-61.803;-42.580;-24.214;17.136;10.803;2.645;9.686
2340497.846;-41.090;-63.330;-43.474;-24.252;16.280;14.007;4.917;12.927
2340497.854;-49.695;-72.382;-53.234;-30.063;6.072;6.817;-1.192;4.210
2340497.862;-62.957;-88.252;-66.645;-43.921;-5.476;-2.496;-10.505;-3.688
2340497.870;-72.680;-99.652;-76.033;-55.581;-13.970;-11.362;-19.185;-11.548
2340497.878;-64.746;-91.344;-69.104;-46.454;-7.376;-2.272;-10.170;-3.353
2340497.886;-57.034;-81.621;-63.181;-33.267;-1.676;-0.261;-4.582;-5.923
2340497.894;-60.797;-87.321;-68.285;-37.327;-6.147;-5.439;-9.537;-9.499
2340497.902;-65.118;-92.871;-71.935;-43.586;-7.823;-6.482;-12.256;-8.531
2340497.910;-69.886;-98.981;-77.188;-49.397;-10.841;-10.468;-16.727;-14.640
2340497.918;-74.804;-104.494;-81.435;-54.315;-13.933;-16.019;-21.718;-20.415
2340497.926;-80.466;-109.635;-86.725;-59.381;-19.073;-16.876;-23.842;-19.632
2340497.934;-90.115;-119.396;-96.224;-68.396;-27.604;-20.005;-27.977;-21.234
2340497.942;-78.753;-109.039;-85.160;-57.481;-15.311;-14.603;-21.532;-16.317
2340497.950;-78.268;-111.125;-83.856;-59.158;-12.480;-21.607;-27.381;-23.730
2340497.958;-74.916;-110.455;-80.094;-58.711;-7.451;-15.534;-22.352;-19.111
2340497.966;-58.860;-95.554;-64.373;-43.325;8.866;3.390;-5.253;-0.559
2340497.974;-55.321;-92.350;-61.691;-39.041;11.995;7.786;-0.894;4.210
2340497.982;-29.095;-65.789;-36.955;-10.245;36.359;23.358;16.354;16.764
2340497.990;-36.135;-73.798;-44.219;-18.962;29.765;16.205;9.947;12.517
2340497.970;-57.071;-95.926;-65.789;-39.935;9.909;5.588;-0.522;1.974
2340497.978;-76.704;-117.868;-84.713;-62.212;-7.004;-5.551;-16.168;-7.823
2340497.986;-92.722;-135.079;-100.769;-81.882;-21.905;-22.352;-34.757;-23.544
2340497.994;-88.215;-128.075;-95.963;-71.451;-17.881;-18.962;-31.814;-19.334
2340498.002;-79.460;-119.731;-88.066;-61.542;-11.288;-14.417;-27.157;-16.838
2340498.010;-68.545;-109.747;-78.864;-50.142;-1.416;-9.984;-20.526;-17.807
2340498.018;-73.165;-114.851;-84.229;-54.128;-6.035;-11.027;-20.266;-19.670
2340498.026;-64.969;-106.692;-77.784;-45.039;-0.335;0.447;-6.594;-9.947
2340498.034;-64.485;-105.612;-78.417;-43.027;-2.049;-3.278;-12.815;-13.448
2340498.042;-60.871;-102.930;-76.555;-41.947;0.186;2.347;-8.084;-7.153
2340498.050;-75.102;-118.241;-91.866;-55.581;-15.423;-9.090;-20.340;-13.113
2340498.058;-86.688;-130.869;-103.824;-67.391;-28.275;-25.481;-39.004;-27.455
2340498.066;-67.726;-113.100;-84.713;-48.131;-9.611;-1.118;-9.872;-10.245
2340498.074;-62.101;-108.257;-78.082;-43.996;-1.229;-3.502;-17.323;-8.754
2340498.082;-82.403;-129.491;-97.640;-64.932;-20.042;-30.771;-48.913;-32.373
2340498.090;-85.980;-133.999;-99.614;-66.906;-22.091;-34.198;-51.036;-38.445
2340498.098;-74.357;-125.505;-87.321;-58.264;-10.170;-25.220;-38.892;-32.112
2340498.106;-68.769;-121.444;-81.249;-53.421;-4.880;-14.789;-29.504;-19.781
2340498.114;-76.145;-130.460;-88.140;-59.567;-11.399;-16.727;-29.802;-19.409
2340498.122;-91.642;-148.304;-103.228;-76.704;-25.630;-30.734;-40.457;-28.051
2340498.130;-92.797;-150.800;-105.090;-80.355;-29.057;-50.552;-61.616;-50.031
2340498.138;-80.317;-137.351;-92.052;-65.044;-16.466;-33.043;-46.790;-39.414
2340498.146;-78.268;-137.426;-87.991;-64.112;-13.150;-41.761;-57.258;-46.454
2340498.154;-79.051;-139.885;-87.991;-66.161;-15.646;-46.380;-64.187;-51.707
2340498.119;-63.777;-123.046;-73.351;-47.795;-3.241;-43.958;-59.642;-54.389
2340498.127;-56.922;-118.166;-62.697;-38.929;4.955;-36.396;-52.638;-48.280
2340498.135;-63.069;-124.648;-68.322;-45.598;-4.545;-28.573;-44.852;-43.102
2340498.143;-75.884;-136.197;-78.268;-52.489;-17.807;-47.944;-64.746;-59.009
2340498.151;-65.789;-127.517;-62.659;-40.755;-7.898;-60.275;-78.492;-70.110
2340498.159;-53.793;-117.682;-47.348;-29.691;1.416;-71.749;-84.974;-87.023
2340498.167;-38.929;-101.402;-29.281;-9.909;14.566;-84.490;-94.771;-101.104
2340498.175;-32.187;-95.889;-19.446;-3.204;21.644;-95.218;-110.529;-109.524
2340498.183;-45.747;-110.269;-32.783;-15.907;9.164;-101.663;-116.453;-116.453
2340498.191;-66.683;-131.615;-53.756;-34.980;-10.282;-108.257;-125.766;-121.742
2340498.199;-68.471;-135.973;-52.527;-40.159;-4.433;-111.125;-129.119;-125.058
2340498.207;-79.684;-148.118;-62.175;-54.426;-12.964;-111.684;-129.640;-121.929
2340498.215;-80.764;-152.886;-63.367;-58.636;-10.878;-111.386;-129.119;-123.084
2340498.223;-87.619;-164.695;-70.669;-72.047;-12.107;-114.553;-132.956;-122.562
2340498.231;-112.057;-190.586;-96.634;-97.565;-31.404;-127.703;-145.771;-135.973
2340498.239;-137.947;-216.588;-123.642;-124.350;-49.844;-138.320;-154.413;-148.714
2340498.247;-140.741;-220.090;-128.001;-128.634;-48.317;-127.479;-142.083;-141.114
2340498.255;-172.779;-253.469;-161.640;-157.356;-75.698;-144.765;-163.503;-155.158
2340498.263;-198.819;-283.159;-187.121;-185.147;-93.393;-157.878;-174.157;-169.910
2340498.271;-211.671;-296.906;-200.756;-195.615;-102.222;-155.419;-170.395;-168.011
2340498.279;-238.381;-326.000;-226.833;-225.231;-124.462;-168.383;-182.129;-178.702
2340498.287;-260.919;-350.438;-248.067;-248.328;-141.487;-176.430;-193.119;-184.886
2340498.295;-275.671;-366.643;-261.180;-261.962;-150.651;-178.032;-194.162;-185.668
2340498.303;-283.122;-373.349;-268.519;-266.470;-155.270;-177.175;-191.331;-186.786
2340498.287;-296.943;-388.511;-282.153;-281.781;-167.899;-190.325;-202.060;-201.650
2340498.295;-293.255;-383.519;-278.726;-274.517;-163.615;-184.663;-195.615;-195.801
2340498.303;-324.622;-417.829;-309.050;-307.821;-191.778;-207.201;-221.804;-212.826
2340498.311;-325.814;-419.915;-309.199;-309.050;-187.829;-198.893;-210.628;-207.014
2340498.319;-308.380;-401.810;-292.473;-289.492;-169.575;-174.195;-179.857;-183.769
2340498.327;-320.487;-413.805;-304.580;-299.886;-181.533;-175.126;-181.496;-182.874
2340498.335;-350.028;-443.235;-333.302;-328.608;-210.404;-190.772;-199.191;-201.277
2340498.343;-362.359;-454.150;-345.223;-336.580;-221.059;-203.438;-214.316;-213.608
2340498.351;-374.354;-465.065;-358.261;-346.676;-233.427;-226.833;-236.928;-238.456
2340498.359;-369.549;-458.956;-352.934;-339.337;-227.280;-221.506;-229.999;-232.384
2340498.367;-372.827;-460.185;-354.573;-342.429;-229.105;-212.230;-220.686;-224.970
2340498.375;-384.599;-472.553;-362.769;-358.187;-236.779;-226.535;-236.221;-237.562
2340498.383;-401.027;-488.311;-377.558;-373.311;-251.271;-232.197;-244.975;-238.903
2340498.391;-401.437;-488.795;-377.856;-373.609;-252.090;-228.062;-242.889;-236.109
2340498.399;-410.676;-497.811;-389.554;-380.799;-265.501;-233.427;-245.981;-245.497
2340498.407;-415.966;-502.728;-396.818;-385.903;-275.336;-238.344;-249.892;-251.867
2340498.415;-421.554;-510.141;-401.214;-394.508;-278.503;-244.454;-259.392;-249.110
2340498.423;-439.435;-528.246;-417.344;-412.986;-296.533;-267.662;-284.091;-276.901
2340498.431;-436.679;-524.707;-413.917;-411.198;-293.888;-251.681;-272.244;-258.051
2340498.439;-410.192;-497.885;-386.164;-384.785;-265.986;-231.937;-247.359;-244.230
2340498.447;-400.841;-488.237;-376.478;-382.066;-256.933;-218.898;-237.040;-231.005
2340498.455;-391.938;-478.402;-365.563;-377.707;-249.445;-196.472;-220.835;-191.070
2340498.463;-404.194;-492.185;-376.999;-390.448;-265.278;-215.806;-233.389;-237.897
2340498.471;-390.857;-478.588;-362.769;-377.446;-252.165;-191.145;-211.149;-222.251
2340498.525;-419.021;-507.161;-390.969;-406.429;-282.079;-217.408;-239.499;-241.771
2340498.533;-428.632;-517.555;-399.724;-414.625;-291.057;-228.584;-252.314;-247.993
2340498.541;-430.569;-520.200;-400.729;-417.307;-293.888;-234.023;-260.957;-251.420
2340498.549;-424.497;-514.761;-394.359;-409.447;-289.306;-223.778;-249.445;-244.603
2340498.557;-404.827;-494.383;-373.758;-388.287;-270.382;-204.593;-230.744;-226.274
2340498.565;-400.171;-490.695;-368.170;-384.040;-265.948;-196.025;-222.921;-216.775
2340498.573;-372.864;-463.352;-341.497;-356.287;-241.287;-152.737;-181.720;-173.338
2340498.581;-333.078;-424.236;-297.688;-318.065;-203.736;-140.779;-168.048;-157.915
2340498.589;-294.931;-384.599;-257.120;-278.391;-174.679;-137.314;-164.248;-155.605
2340498.597;-278.540;-367.053;-239.164;-261.627;-168.793;-148.714;-179.373;-168.532
2340498.605;-247.657;-335.313;-204.332;-231.192;-141.971;-157.654;-187.494;-177.063
2340498.613;-210.367;-294.074;-166.446;-189.841;-118.241;-141.449;-168.867;-161.938
2340498.621;-212.155;-293.478;-163.876;-189.692;-120.737;-156.388;-181.459;-184.663
2340498.629;-205.040;-286.028;-152.960;-184.923;-114.292;-163.913;-190.884;-189.990
2340498.637;-195.689;-276.566;-141.673;-176.318;-108.331;-163.093;-193.305;-185.706
2340498.645;-203.699;-286.177;-150.762;-186.898;-122.190;-177.398;-205.114;-200.011
2340498.653;-214.018;-293.627;-161.156;-195.205;-134.781;-180.826;-211.187;-206.456
2340498.661;-238.381;-319.220;-183.731;-223.741;-155.978;-200.346;-235.029;-220.872
2340498.669;-268.966;-352.748;-212.677;-259.653;-182.688;-222.437;-257.939;-242.107
2340498.677;-239.052;-323.318;-183.769;-234.060;-152.849;-188.574;-220.016;-214.279
2340498.685;-260.845;-344.701;-204.742;-257.157;-170.730;-212.118;-241.175;-236.630
2340498.693;-295.453;-382.401;-238.381;-292.882;-201.911;-244.342;-274.815;-264.980
2340498.701;-276.752;-363.402;-219.420;-277.236;-185.333;-230.633;-259.951;-249.557
2340498.709;-270.307;-353.158;-212.155;-272.058;-181.645;-236.109;-264.980;-252.612
2340498.721;-300.668;-387.095;-236.146;-302.717;-206.828;-268.929;-298.694;-282.340
2340498.729;-289.194;-382.513;-223.443;-305.474;-195.354;-260.249;-288.039;-276.715
2340498.737;-251.792;-342.838;-186.674;-253.022;-163.056;-240.840;-268.780;-259.317
2340498.745;-225.343;-307.336;-157.915;-208.803;-137.165;-217.110;-244.975;-234.693
2340498.753;-197.999;-274.479;-131.764;-171.997;-113.659;-198.930;-224.933;-214.986
2340498.761;-216.737;-298.433;-150.986;-202.060;-133.924;-227.168;-255.182;-238.568
2340498.769;-238.940;-317.059;-170.879;-220.649;-153.743;-253.953;-279.956;-263.564
2340498.777;-239.387;-317.581;-172.406;-213.794;-156.537;-265.501;-291.020;-273.660
2340498.785;-248.700;-329.204;-179.596;-223.927;-164.807;-277.944;-302.084;-285.842
2340498.793;-255.592;-336.990;-187.233;-227.056;-175.796;-290.424;-311.807;-296.682
2340498.801;-255.369;-335.537;-187.829;-217.855;-177.994;-287.890;-310.689;-294.186
2340498.809;-266.321;-346.601;-201.091;-231.415;-193.566;-294.484;-315.979;-302.605
2340498.817;-261.776;-343.882;-196.658;-230.893;-191.480;-290.833;-311.658;-298.396
2340498.825;-277.869;-359.826;-214.688;-248.030;-210.106;-299.923;-317.134;-305.884
2340498.833;-292.882;-372.902;-232.048;-263.117;-228.658;-316.650;-333.153;-321.232
2340498.841;-293.776;-373.237;-234.842;-264.868;-233.762;-319.071;-335.760;-322.536
2340498.849;-302.270;-380.911;-245.906;-273.399;-244.938;-318.810;-333.562;-324.361
2340498.857;-318.848;-397.675;-264.123;-291.765;-263.974;-341.944;-361.502;-343.397
2340498.865;-326.931;-405.125;-275.522;-302.754;-275.262;-353.828;-371.449;-355.206
2340498.873;-332.482;-409.037;-285.916;-310.987;-286.326;-353.791;-368.319;-357.032
2340498.881;-336.953;-413.768;-292.696;-319.742;-291.727;-352.114;-364.259;-355.206
2340498.889;-345.372;-421.703;-303.313;-329.204;-300.631;-357.553;-367.537;-358.522
2340498.897;-358.447;-432.283;-321.344;-340.752;-315.309;-358.634;-368.021;-360.087
2340498.905;-367.202;-440.516;-332.519;-351.854;-324.510;-352.114;-359.826;-353.642
2340498.916;-388.734;-461.228;-357.032;-375.174;-345.372;-354.871;-362.471;-356.399
2340498.924;-401.847;-475.086;-372.566;-394.769;-356.957;-359.789;-364.073;-364.929
2340498.932;-400.655;-473.708;-373.721;-399.053;-354.461;-357.926;-359.565;-361.502
2340498.940;-408.962;-481.419;-384.375;-413.321;-361.465;-362.732;-365.376;-365.339
2340498.948;-420.101;-492.148;-396.371;-427.887;-369.772;-364.482;-365.227;-368.431
2340498.956;-426.807;-498.816;-404.790;-438.727;-374.205;-359.565;-358.224;-362.769
2340498.964;-427.291;-500.865;-406.206;-444.800;-370.629;-348.985;-347.644;-351.854
2340498.972;-428.073;-501.685;-407.286;-448.078;-366.531;-337.623;-336.543;-338.405
2340498.980;-436.157;-508.875;-416.450;-459.924;-372.231;-336.990;-338.517;-338.443
2340498.988;-443.421;-516.325;-424.720;-470.169;-377.484;-334.941;-336.990;-336.543
2340498.996;-433.698;-507.049;-416.264;-462.793;-366.978;-324.175;-321.940;-326.149
2340499.004;-442.900;-516.102;-426.322;-475.533;-373.945;-331.365;-329.241;-330.396
2340499.012;-447.296;-519.417;-432.096;-482.090;-380.054;-337.474;-334.494;-333.712
2340499.020;-435.971;-508.353;-423.677;-475.422;-371.672;-328.049;-323.430;-324.063
2340499.028;-427.365;-498.965;-416.040;-469.610;-362.098;-318.475;-311.546;-312.999
2340499.036;-426.322;-496.656;-415.817;-470.355;-360.198;-315.644;-306.405;-306.480
2340499.044;-424.981;-494.719;-415.668;-471.547;-360.124;-315.458;-303.350;-303.499
2340499.052;-419.766;-488.758;-413.023;-468.642;-356.324;-314.638;-298.694;-303.239
2340499.060;-424.534;-491.142;-418.834;-476.763;-361.353;-319.295;-302.009;-304.207
2340499.068;-418.685;-483.505;-414.811;-471.622;-357.218;-315.346;-294.968;-299.364
2340499.076;-407.957;-471.324;-407.547;-462.495;-350.177;-312.217;-288.896;-295.676
2340499.084;-403.747;-464.767;-403.970;-459.962;-346.005;-305.437;-281.408;-287.630
2340499.092;-402.965;-461.675;-403.300;-463.352;-345.185;-302.456;-279.136;-283.942
2340499.100;-392.608;-447.109;-394.024;-450.835;-335.611;-293.590;-269.786;-274.293
2340499.095;-386.089;-439.063;-388.511;-445.768;-328.757;-288.039;-261.702;-267.960
2340499.103;-380.613;-432.804;-382.997;-444.427;-322.647;-280.440;-252.798;-259.578
2340499.111;-370.704;-421.703;-373.572;-438.206;-312.813;-270.344;-243.671;-249.669
2340499.119;-366.420;-416.301;-370.219;-435.598;-309.311;-267.178;-242.554;-247.099
2340499.127;-360.273;-409.633;-364.371;-430.532;-304.915;-256.598;-234.060;-238.121
2340499.135;-357.442;-404.567;-362.210;-427.663;-303.723;-251.122;-229.143;-232.756
2340499.143;-353.605;-400.208;-358.410;-427.887;-299.811;-251.047;-229.292;-230.372
2340499.151;-347.905;-390.895;-352.785;-423.118;-295.900;-244.901;-223.815;-222.996
2340499.159;-346.266;-387.467;-353.381;-422.373;-295.490;-243.373;-221.170;-219.978
2340499.167;-335.760;-374.727;-345.223;-412.911;-286.251;-232.756;-210.628;-208.691
2340499.175;-330.396;-368.692;-339.076;-410.303;-280.291;-230.931;-206.269;-204.444
2340499.183;-329.241;-364.669;-338.592;-408.515;-279.918;-230.335;-203.401;-203.736
2340499.191;-324.994;-355.169;-337.176;-400.729;-279.211;-216.402;-190.660;-193.529
2340499.199;-298.843;-326.820;-312.850;-375.174;-258.647;-207.759;-180.863;-187.419
2340499.207;-287.034;-314.564;-301.190;-366.308;-249.147;-199.787;-174.791;-180.975
2340499.215;-286.885;-312.589;-300.854;-367.686;-249.036;-198.521;-174.418;-179.112
2340499.223;-281.893;-305.139;-296.123;-362.508;-242.479;-197.068;-168.532;-178.218
2340499.231;-277.013;-299.178;-291.169;-357.889;-236.593;-195.988;-168.756;-175.983
2340499.239;-276.640;-298.023;-291.578;-358.634;-236.891;-197.329;-170.618;-174.120
2340499.247;-273.399;-293.851;-288.896;-356.175;-234.470;-191.964;-165.664;-169.985
2340499.255;-268.593;-287.257;-283.271;-351.444;-228.770;-185.445;-159.703;-163.093
2340499.263;-268.817;-287.332;-282.899;-352.040;-227.690;-184.327;-159.554;-160.933
2340499.271;-266.843;-284.053;-280.812;-351.705;-224.821;-182.167;-160.560;-158.697
2340499.279;-263.713;-279.509;-277.944;-347.346;-219.829;-179.037;-156.835;-154.972
2340499.245;-254.624;-268.705;-269.897;-337.027;-211.895;-172.295;-148.825;-149.198
2340499.253;-252.724;-266.358;-268.817;-335.202;-210.963;-172.555;-148.751;-148.900
2340499.261;-251.047;-264.235;-267.550;-332.221;-209.212;-172.146;-148.676;-147.112
2340499.269;-248.142;-260.510;-265.390;-328.273;-208.020;-170.544;-147.484;-144.839
2340499.277;-244.901;-255.406;-262.968;-321.791;-205.897;-172.108;-148.714;-143.945
2340499.285;-238.717;-248.589;-257.343;-312.813;-200.979;-168.942;-145.026;-140.294
2340499.293;-236.146;-244.826;-254.214;-309.832;-197.925;-168.793;-144.877;-139.065
2340499.301;-226.162;-232.719;-244.379;-294.112;-189.804;-162.870;-135.154;-133.105
2340499.309;-217.520;-222.623;-234.731;-280.812;-181.571;-158.697;-129.975;-129.119
2340499.317;-213.012;-214.465;-230.670;-268.258;-179.298;-156.611;-126.623;-126.436
2340499.325;-198.185;-197.180;-215.247;-249.408;-167.377;-153.780;-124.946;-123.270
2340499.333;-187.419;-183.396;-203.215;-231.527;-159.554;-155.903;-126.734;-124.387
2340499.341;-165.068;-157.729;-182.167;-203.140;-144.728;-150.539;-120.699;-119.582
2340499.349;-133.254;-125.803;-147.633;-168.495;-117.831;-144.877;-116.117;-113.361
2340499.357;-113.286;-100.546;-124.648;-139.140;-100.620;-139.810;-108.853;-108.443
2340499.365;-85.346;-67.204;-95.032;-105.053;-76.555;-125.468;-95.107;-95.330
2340499.373;-64.783;-44.890;-72.829;-82.441;-58.822;-111.759;-82.925;-81.137
2340499.381;-68.694;-49.025;-73.910;-87.172;-59.754;-117.198;-90.599;-85.868
2340499.389;-75.959;-58.301;-78.157;-100.322;-66.087;-120.923;-96.634;-89.146
2340499.397;-76.033;-59.791;-78.678;-106.506;-67.502;-116.117;-89.668;-84.117
2340499.405;-69.328;-51.409;-73.388;-99.614;-60.871;-108.927;-82.999;-77.672
2340499.413;-68.806;-51.707;-74.133;-99.838;-59.903;-99.316;-73.425;-66.720
2340499.421;-70.371;-52.378;-79.572;-99.950;-63.516;-94.883;-68.806;-63.591
2340499.429;-86.948;-67.987;-98.310;-117.682;-80.168;-105.500;-78.231;-78.157
2340499.486;-101.663;-82.515;-114.739;-132.062;-95.256;-109.449;-82.217;-80.317
2340499.494;-101.775;-82.366;-116.378;-133.924;-95.479;-100.955;-76.704;-72.606
2340499.502;-101.961;-82.254;-117.533;-134.446;-98.273;-91.754;-67.130;-64.895
2340499.510;-101.142;-80.839;-118.650;-131.801;-100.322;-79.535;-56.848;-54.091
2340499.518;-103.265;-82.031;-120.066;-133.254;-104.010;-71.339;-50.403;-47.684
2340499.526;-107.847;-86.166;-125.431;-135.973;-109.673;-74.692;-55.209;-47.982
2340499.534;-104.718;-82.999;-123.419;-131.913;-108.480;-70.110;-51.148;-43.549
2340499.542;-104.979;-83.409;-124.201;-131.764;-108.853;-68.247;-46.119;-44.294
2340499.550;-109.114;-87.284;-127.554;-131.018;-110.790;-71.563;-49.248;-48.615
2340499.558;-111.908;-88.178;-129.305;-128.858;-112.951;-72.010;-51.782;-50.887
2340499.566;-98.832;-72.941;-116.527;-112.467;-101.291;-60.163;-38.594;-40.084
2340499.574;-98.608;-71.526;-115.596;-110.418;-100.061;-58.934;-38.706;-38.520
2340499.582;-95.442;-67.800;-113.025;-105.351;-99.316;-56.289;-35.278;-35.800
2340499.590;-90.562;-63.591;-109.635;-101.216;-98.720;-54.911;-31.628;-32.447
2340499.598;-90.823;-63.591;-109.673;-101.775;-99.763;-52.713;-27.679;-29.057
2340499.606;-85.533;-56.364;-105.761;-90.599;-97.044;-49.211;-23.767;-25.593
2340499.614;-73.798;-43.213;-94.324;-77.486;-85.868;-44.256;-18.105;-20.228
2340499.622;-71.973;-40.084;-92.797;-73.500;-85.682;-46.901;-19.409;-21.681
2340499.630;-73.761;-41.202;-95.330;-71.004;-90.264;-51.409;-24.028;-21.644
2340499.638;-62.287;-31.590;-82.925;-62.771;-79.721;-45.262;-17.844;-17.062
2340499.646;-63.665;-34.124;-82.962;-64.299;-80.280;-47.646;-16.838;-21.085
2340499.654;-64.746;-35.428;-83.633;-66.720;-80.280;-47.535;-17.360;-21.979
2340499.662;-58.785;-29.877;-78.343;-58.897;-75.474;-42.841;-16.019;-16.354
2340499.670;-56.140;-27.046;-77.449;-54.650;-74.953;-39.600;-13.933;-11.362
2340499.710;-50.217;-20.713;-74.469;-48.466;-72.755;-34.943;-8.568;-8.270
2340499.718;-55.097;-26.226;-80.578;-55.581;-77.412;-40.755;-12.293;-14.305
2340499.726;-45.784;-15.758;-71.861;-43.362;-68.210;-32.894;-1.937;-7.190
2340499.734;-37.774;-6.817;-64.410;-34.198;-62.324;-32.932;-1.341;-7.488
2340499.742;-36.508;-5.476;-64.149;-32.969;-62.324;-32.559;-1.304;-5.215
2340499.750;-31.851;1.900;-61.952;-23.730;-62.101;-30.845;1.676;-3.949
2340499.758;-21.905;10.952;-52.117;-13.188;-53.681;-19.856;13.821;7.860
2340499.766;-19.521;14.678;-49.807;-10.170;-52.974;-17.546;13.039;8.121
2340499.774;-23.507;9.909;-53.532;-12.033;-56.326;-17.472;11.288;5.737
2340499.782;-23.581;8.382;-52.154;-10.617;-54.277;-12.927;12.666;10.952
2340499.790;-21.122;10.058;-47.050;-11.623;-50.068;-10.245;11.139;13.597
2340499.798;-11.250;17.099;-36.694;-3.278;-38.370;-1.676;20.936;22.240
2340499.806;-6.855;20.713;-30.920;-0.224;-32.522;2.012;26.114;24.922
2340499.814;-14.491;13.001;-37.625;-9.835;-39.898;-2.049;21.532;19.446
2340499.822;-8.866;19.297;-31.739;-2.161;-33.900;3.316;24.661;23.991
2340499.830;-4.247;23.767;-25.742;3.614;-27.120;13.560;30.324;40.531
2340499.838;-8.531;17.472;-28.685;-1.900;-31.106;12.927;30.249;34.198
2340499.846;-4.768;21.644;-25.332;2.198;-30.398;15.981;30.734;35.912
2340499.854;-13.448;14.380;-33.267;-2.421;-35.800;8.941;26.859;28.536
2340499.862;-17.881;12.554;-38.296;-4.061;-40.978;1.341;20.005;18.850
2340499.870;-2.123;31.590;-24.363;14.529;-28.275;9.350;24.773;27.344
2340499.878;-8.196;24.065;-30.622;6.184;-34.533;11.064;29.840;29.318
2340499.886;-13.672;19.968;-36.769;-0.820;-42.506;8.866;27.493;24.810
2340499.894;-16.503;18.701;-41.462;-1.565;-46.976;3.166;21.569;20.675
2340499.874;-13.672;23.097;-41.239;5.551;-47.982;1.825;24.661;17.807
2340499.882;-15.534;21.867;-43.139;2.682;-51.744;1.974;24.512;16.652
2340499.890;-21.197;15.832;-46.939;-4.806;-54.352;2.645;24.624;17.434
2340499.898;-12.591;24.326;-35.986;3.614;-42.766;9.798;29.132;25.369
2340499.906;-1.267;36.955;-23.916;13.672;-30.659;19.893;36.471;36.508
2340499.914;-8.084;30.883;-30.212;8.456;-36.620;13.374;29.914;30.883
2340499.922;3.576;45.113;-19.297;23.730;-27.716;22.873;37.998;37.253
2340499.930;11.809;53.681;-10.878;30.436;-17.360;31.330;45.709;45.598
2340499.938;7.302;50.440;-14.491;25.705;-21.532;29.951;46.529;42.431
2340499.946;7.078;48.615;-14.119;22.799;-19.073;29.169;47.758;41.686
2340499.954;8.978;49.062;-13.299;21.756;-18.738;26.003;45.858;39.078
2340499.962;16.131;55.954;-4.806;27.046;-11.437;25.593;40.941;40.308
2340499.970;27.642;69.812;8.754;40.904;4.396;33.118;45.821;49.695
2340499.978;29.095;72.047;7.749;41.053;0.037;37.067;48.578;50.701
2340499.986;24.699;66.757;2.906;33.602;-7.339;31.516;44.443;40.643
2340499.994;29.057;72.494;8.419;37.961;-1.527;33.714;46.156;46.045
2340500.002;37.625;81.770;15.423;46.827;3.502;38.557;49.695;52.974
2340500.010;37.700;82.999;14.342;47.944;2.421;39.078;50.776;53.123
2340500.018;40.755;85.719;17.434;50.142;6.072;45.188;58.152;56.997
2340500.026;43.474;87.321;21.793;54.128;11.511;51.484;66.459;61.914
2340500.034;40.419;84.303;19.185;50.329;9.872;46.045;60.871;55.321
2340500.042;44.256;87.805;24.587;53.197;14.082;46.417;58.860;54.501
2340500.050;46.156;88.736;26.524;54.315;17.285;45.337;55.805;54.650
2340500.058;46.268;89.034;26.301;51.297;16.727;45.411;55.023;55.246
2340500.011;47.237;89.109;26.859;53.383;15.981;45.039;53.383;55.656
2340500.019;52.154;92.462;31.739;56.997;20.973;50.440;57.183;60.499
2340500.027;52.676;91.754;33.602;56.140;24.773;57.220;64.112;65.863
2340500.035;52.787;87.656;34.906;51.707;29.057;63.628;71.973;68.806
2340500.043;52.899;88.252;35.726;52.899;30.249;70.632;75.363;72.867
2340500.051;43.660;78.827;27.120;46.529;22.724;63.628;68.173;65.789
2340500.059;37.476;70.855;22.650;38.743;20.638;56.997;60.052;62.510
2340500.067;32.894;65.006;19.558;33.006;17.546;55.544;54.911;64.820
2340500.075;27.008;59.046;12.517;30.212;11.139;50.478;50.291;60.089
2340500.083;31.367;64.075;17.136;35.726;15.795;57.034;56.103;62.808
2340500.091;44.145;77.076;29.393;49.956;27.679;68.769;69.514;70.184
2340500.099;50.440;84.676;34.459;56.103;34.198;70.296;71.973;66.869
2340500.107;54.240;87.991;38.445;58.487;38.520;72.382;73.388;67.092
2340500.115;54.687;88.401;38.408;62.622;39.674;73.835;75.065;71.637
2340500.123;56.624;91.121;39.749;63.702;40.904;73.574;72.494;72.792
2340500.131;59.269;94.883;40.792;67.167;40.382;74.655;75.288;76.331
2340500.139;59.158;95.330;39.488;69.030;38.631;70.110;74.618;72.494
2340500.147;65.304;102.781;47.907;75.735;48.690;72.867;76.965;74.096
2340500.155;71.339;108.108;53.532;81.696;55.134;75.065;80.727;76.443
2340500.163;59.493;94.101;42.655;65.379;44.852;71.488;75.512;72.047
2340500.171;65.230;101.104;48.876;73.165;50.962;77.598;83.894;76.741
2340500.179;99.391;137.314;83.819;110.492;78.864;81.174;89.221;81.398
2340500.187;111.088;148.788;96.969;118.092;87.954;81.249;81.994;83.111
2340500.195;132.062;170.395;117.235;141.859;105.165;87.619;89.370;90.562
2340500.190;150.241;187.308;135.526;157.095;121.072;92.015;94.585;93.579
2340500.198;154.041;191.852;138.246;160.523;123.419;94.101;99.018;95.479
2340500.206;150.576;188.574;134.669;157.915;120.811;95.926;100.806;95.591
2340500.214;142.977;180.118;127.926;149.384;118.054;100.695;102.855;100.173
2340500.222;142.641;179.186;127.889;147.671;122.413;101.700;104.345;105.463
2340500.230;140.332;175.908;127.107;142.977;120.848;95.367;97.677;101.589
2340500.238;142.530;178.553;128.709;142.716;122.264;96.746;98.869;102.669
2340500.246;142.530;178.702;128.038;141.710;124.760;97.267;98.981;103.116
2340500.254;148.937;186.227;133.812;147.894;132.434;102.147;101.738;104.606
2340500.262;149.347;184.551;133.961;147.000;134.520;98.832;99.875;101.067
2340500.270;149.757;185.072;135.526;146.851;136.904;99.018;98.981;102.445
2340500.278;141.039;178.218;127.479;140.220;131.391;94.399;94.026;98.161
2340500.286;139.624;177.957;126.809;138.767;131.391;93.915;92.797;99.763
2340500.294;144.057;182.949;131.130;143.163;136.085;101.365;96.634;107.363
2340500.302;142.306;180.639;130.534;141.151;137.500;101.291;96.820;108.257
2340500.310;143.908;182.204;133.477;141.077;139.326;103.489;98.906;110.120
2340500.318;145.547;184.029;135.861;141.338;140.667;99.428;97.901;106.245
2340500.326;157.617;196.546;148.006;156.686;152.364;102.557;101.849;110.716
2340500.334;175.573;214.726;169.687;174.306;170.693;103.787;99.987;112.318
2340500.342;199.825;241.213;196.248;201.911;190.921;106.022;101.961;113.696
2340500.350;229.217;272.393;227.764;234.097;213.981;112.094;107.251;119.545
2340500.358;254.847;300.668;257.492;260.584;236.593;107.810;104.308;117.160
2340500.366;287.294;336.058;289.641;295.565;260.808;114.888;114.627;123.642
2340500.374;302.643;351.258;306.778;310.875;275.187;118.613;118.725;125.878
2340500.370;307.523;357.069;312.552;319.108;280.663;111.610;115.670;121.705
2340500.378;303.313;355.355;309.683;318.512;279.099;101.402;104.196;118.017
2340500.386;305.139;357.591;312.887;318.103;283.048;99.130;101.551;116.937
2340500.394;296.049;347.979;302.568;304.952;272.468;91.903;94.809;107.214
2340500.402;298.433;349.917;307.709;304.095;282.191;97.267;99.689;112.318
2340500.410;289.939;341.460;299.327;293.441;278.801;90.413;94.622;107.214
2340500.418;288.896;340.417;296.645;288.114;277.236;101.253;106.692;114.813
2340500.426;282.712;332.780;288.412;278.018;271.499;109.598;116.676;120.252
2340500.434;271.797;319.816;274.368;261.739;262.149;111.610;116.751;121.370
2340500.442;263.155;310.056;261.888;247.993;252.649;112.019;114.404;121.966
2340500.450;257.194;301.935;251.122;239.238;246.540;108.406;113.621;120.848
2340500.458;242.814;288.375;235.401;224.635;236.630;115.372;118.613;125.319
2340500.466;238.903;285.134;229.143;220.276;234.805;125.095;127.107;130.869
2340500.474;226.498;271.387;214.353;205.748;224.225;114.366;114.925;123.419
2340500.482;219.606;263.527;207.089;197.962;220.090;117.719;117.347;127.032
2340500.490;224.374;267.588;209.883;200.123;226.088;120.923;118.688;131.465
2340500.498;220.388;263.862;202.544;195.019;222.027;122.227;118.427;129.566
2340500.506;212.714;254.698;193.939;184.923;215.285;125.878;119.433;132.397
2340500.514;220.500;262.298;199.340;192.635;222.623;136.420;128.672;140.592
2340500.522;223.778;265.203;201.985;193.939;227.354;147.186;136.234;147.298
2340500.530;218.078;258.498;194.125;187.643;223.555;142.902;131.764;142.194
2340500.538;219.010;259.914;193.305;187.829;223.480;146.888;134.818;143.759
2340500.546;217.035;256.598;192.374;182.427;226.982;148.602;137.053;145.808
2340500.554;219.196;256.933;193.380;182.092;229.180;149.533;136.942;147.484
2340500.565;218.228;256.374;193.305;182.576;230.186;153.370;138.022;152.588
2340500.573;221.469;261.590;195.988;189.282;234.880;156.462;145.435;154.562
2340500.581;210.665;250.079;184.104;178.330;222.996;149.272;137.575;146.478
2340500.589;200.011;238.977;174.195;168.867;215.173;142.418;129.379;140.816
2340500.597;191.703;229.478;165.515;159.852;206.530;135.563;126.511;134.073
2340500.605;191.517;226.945;166.446;155.866;208.840;142.418;132.881;139.549
2340500.613;186.637;222.474;160.374;154.115;203.177;139.251;132.956;137.016
2340500.621;179.559;213.943;153.854;145.063;198.148;138.097;129.454;137.649
2340500.629;184.402;218.116;157.021;149.943;203.550;145.175;136.159;146.702
2340500.637;187.196;220.314;157.617;155.792;206.716;143.684;140.145;145.771
2340500.645;184.067;216.402;155.270;150.055;203.885;142.306;136.979;141.338
2340500.653;182.204;214.837;151.992;148.416;200.160;140.928;136.346;141.338
2340500.661;183.582;215.434;152.141;147.671;197.366;143.312;134.930;143.051
2340500.669;188.351;217.743;157.505;150.204;201.203;148.267;140.220;149.235
2340500.677;190.139;219.680;159.219;153.407;202.283;146.665;140.294;149.496
2340500.685;175.685;203.326;145.920;137.240;190.698;141.598;133.775;143.647
2340500.693;179.075;209.548;145.622;148.155;191.256;145.473;142.194;147.633
2340500.701;186.525;216.663;152.551;155.345;194.088;141.673;139.475;142.343
2340500.709;183.508;210.255;150.874;147.037;193.305;141.822;140.741;143.088
2340500.717;192.523;219.755;158.697;157.282;202.395;143.610;146.404;145.435
2340500.725;189.543;214.875;157.058;152.029;200.868;146.255;142.120;148.341
2340500.733;190.362;213.720;156.648;150.502;201.091;143.386;136.383;146.255
2340500.741;196.509;220.053;162.795;157.990;206.977;149.123;144.020;150.874
2340500.749;196.174;220.016;162.944;159.554;207.052;152.029;148.900;153.817
2340500.728;203.140;226.460;168.048;166.744;213.608;162.497;161.380;164.434
2340500.736;204.444;228.211;169.948;170.544;214.465;165.552;161.566;164.732
2340500.744;207.163;230.893;172.518;176.504;217.110;168.607;166.222;168.569
2340500.752;199.489;224.821;164.025;169.761;208.691;167.340;161.864;167.191
2340500.760;208.095;232.793;172.742;176.393;217.669;171.363;166.968;172.406
2340500.768;215.061;237.599;177.994;182.278;222.959;174.530;171.848;174.604
2340500.776;217.818;240.691;181.235;185.631;225.492;182.278;177.212;179.596
2340500.784;219.792;241.660;185.221;186.861;230.893;182.576;179.037;182.018
2340500.792;225.864;248.775;191.070;194.460;235.997;193.715;186.637;193.678
2340500.800;224.151;247.359;186.898;194.609;230.484;195.429;187.047;190.996
2340500.808;221.692;245.124;182.651;195.764;227.764;190.660;187.941;183.471
2340500.816;230.521;252.500;192.374;200.197;234.246;203.215;194.907;198.409
2340500.824;231.378;254.177;194.982;204.779;241.436;203.997;197.887;202.283
2340500.832;219.233;241.846;181.235;190.996;224.039;195.466;189.841;189.655
2340500.840;229.105;251.383;190.847;201.091;231.229;203.513;195.950;198.595
2340500.848;223.555;246.204;184.774;197.515;217.110;194.907;186.674;190.325
2340500.856;232.272;255.220;193.194;204.146;221.729;206.158;194.982;201.128
2340500.864;223.368;246.055;184.141;194.386;215.285;197.589;188.202;192.896
2340500.872;215.732;237.636;176.653;187.457;209.697;201.017;189.580;193.603
2340500.880;206.865;232.421;165.515;183.620;196.509;199.601;191.070;193.417
2340500.888;217.780;240.393;178.069;191.182;207.387;189.990;182.241;188.462
2340500.896;228.025;248.477;189.766;197.552;218.973;199.117;187.010;197.105
2340500.904;207.536;228.621;166.073;179.969;198.297;183.731;174.940;181.198
2340500.912;204.556;226.200;163.019;182.241;197.068;185.147;176.206;182.986
2340500.920;212.528;233.427;171.363;189.506;205.226;188.947;183.098;187.270
2340500.928;221.543;243.299;178.441;202.879;210.889;194.646;194.050;191.480
2340500.936;219.680;242.107;175.685;203.140;207.946;194.684;191.107;191.927
2340500.944;221.878;246.428;174.269;208.877;207.946;191.182;191.480;188.090
2340500.925;232.533;255.555;186.563;218.339;221.506;204.556;205.114;198.223
2340500.933;233.464;256.300;189.468;221.170;223.294;212.267;214.539;203.252
2340500.941;217.259;238.493;171.810;203.252;205.189;187.121;188.164;183.806
2340500.949;220.276;242.144;174.008;207.797;206.083;187.159;184.700;186.190
2340500.957;226.237;248.514;180.379;216.141;213.273;188.500;194.274;184.923
2340500.965;220.090;242.069;174.455;210.218;206.083;189.096;192.896;181.943
2340500.973;215.955;238.493;172.779;207.014;203.922;192.709;194.386;183.880
2340500.981;217.482;239.164;176.132;211.187;208.803;196.621;199.489;187.494
2340500.989;213.645;234.246;172.667;207.126;205.860;191.592;188.835;184.737
2340500.997;219.867;242.665;178.628;216.290;212.602;196.733;197.217;191.852
2340501.005;215.583;237.636;175.275;213.161;210.963;199.825;198.781;193.901
2340501.013;216.439;236.183;177.398;214.949;211.932;199.750;194.684;192.747
2340501.021;218.563;237.338;180.006;216.775;216.737;199.266;191.629;193.939
2340501.029;210.404;229.143;173.338;209.399;211.820;200.868;189.357;194.609
2340501.037;206.865;225.864;169.165;208.616;206.120;198.707;190.623;190.288
2340501.045;211.932;229.031;176.057;211.671;211.857;205.077;195.205;197.850
2340501.053;212.342;230.074;176.542;214.875;213.943;201.277;193.901;196.062
2340501.061;215.881;235.513;178.665;222.400;216.700;200.532;197.440;195.019
2340501.069;209.957;230.484;175.871;218.041;217.035;192.784;189.170;188.015
2340501.077;197.329;220.127;163.317;209.436;204.965;180.602;179.969;182.167
2340501.085;200.160;226.460;165.105;218.488;203.811;182.651;179.894;182.427
2340501.093;218.973;246.242;185.035;236.705;222.772;195.131;191.629;197.142
2340501.101;211.298;237.003;174.902;227.764;210.218;186.414;185.892;185.892
2340501.109;209.585;235.699;175.312;226.609;210.963;175.573;172.369;174.269
2340501.062;223.406;250.228;189.319;244.193;221.767;182.688;182.949;183.843
2340501.070;220.314;247.918;186.190;240.281;215.285;189.431;185.519;192.598
2340501.078;213.236;242.330;179.484;235.178;208.430;184.178;181.869;183.992
2340501.086;213.310;244.416;179.969;239.015;208.095;178.143;179.633;176.243
2340501.094;218.973;251.792;187.866;244.901;211.820;187.866;184.476;188.500
2340501.102;214.912;250.861;181.161;241.920;201.464;181.347;181.347;184.625
2340501.110;218.041;254.177;188.164;245.124;204.295;176.653;177.659;173.971
2340501.118;262.931;298.955;238.679;292.361;236.705;181.161;183.880;178.032
2340501.126;318.959;357.032;298.657;352.748;287.369;193.529;199.899;194.013
2340501.134;364.631;402.406;347.868;394.955;317.246;197.962;202.917;194.795
2340501.142;398.234;434.779;382.774;429.153;337.139;191.703;199.936;187.941
2340501.150;423.640;464.842;410.154;463.165;353.828;203.587;207.163;200.048
2340501.158;426.769;469.387;417.382;470.690;355.467;206.083;207.797;204.556
2340501.166;417.493;457.391;407.621;462.607;342.727;199.452;202.358;198.223
2340501.174;433.847;468.530;422.075;468.418;352.599;211.745;210.330;208.542
2340501.182;436.492;469.983;425.167;472.404;357.740;212.044;213.534;208.355
2340501.190;434.816;469.312;420.660;473.782;352.301;213.459;214.465;207.573
2340501.198;426.658;459.962;410.527;464.134;341.758;215.918;216.439;210.293
2340501.206;415.184;445.433;397.861;452.399;330.322;211.112;215.769;201.426
2340501.214;407.547;436.790;389.740;445.470;322.536;220.351;220.463;206.903
2340501.222;413.731;439.361;394.396;453.033;329.912;223.927;224.896;214.167
2340501.230;395.253;416.487;375.397;431.538;312.440;211.783;211.261;207.387
