Timestamp,AFz,AF3,AF4,AF7,AF8,Pz,P3,P4,2024-05-28 09:09:49.846,fs=125
6472646.154;-79.498;-90.227;-103.749;-91.195;-134.185;-60.722;-24.959;-25.742
6472646.162;-70.408;-93.058;-93.840;-92.350;-131.726;-62.175;-27.344;-28.796
6472646.170;-67.577;-102.855;-87.880;-89.183;-129.640;-62.734;-27.940;-28.908
6472646.178;-72.345;-108.741;-87.917;-89.034;-123.903;-64.708;-31.851;-27.269
6472646.186;-73.761;-95.852;-98.459;-88.550;-132.024;-62.399;-31.590;-23.060
6472646.194;-78.343;-97.044;-99.726;-97.901;-127.628;-66.757;-37.402;-26.450
6472646.202;-69.477;-98.310;-80.988;-91.121;-110.827;-65.938;-38.259;-26.003
6472646.210;-71.153;-97.416;-86.948;-86.501;-120.588;-67.800;-39.935;-28.163
6472646.218;-68.545;-94.362;-88.438;-82.180;-115.186;-65.677;-35.129;-27.232
6472646.226;-76.555;-93.840;-95.926;-85.346;-118.949;-70.482;-36.471;-32.298
6472646.234;-83.074;-119.060;-98.869;-98.944;-127.703;-74.469;-40.717;-36.843
6472646.242;-71.116;-91.977;-91.046;-83.186;-122.152;-69.253;-37.253;-31.702
6472646.250;-63.367;-89.258;-87.321;-80.168;-110.716;-67.465;-35.278;-30.659
6472646.258;-75.176;-96.746;-95.889;-87.880;-119.880;-74.506;-44.443;-36.694
6472646.266;-69.253;-96.560;-93.840;-85.533;-117.347;-78.008;-49.546;-38.221
6472646.274;-75.698;-105.500;-98.422;-88.178;-125.617;-79.498;-50.850;-40.233
6472646.282;-73.165;-100.583;-86.278;-87.358;-112.578;-79.758;-49.584;-40.643
6472646.290;-63.591;-95.889;-90.487;-84.192;-115.708;-74.133;-43.102;-35.539
6472646.298;-61.989;-82.850;-93.840;-76.257;-102.855;-67.726;-36.471;-30.883
6472646.306;-71.079;-97.193;-85.793;-84.452;-104.234;-74.916;-42.915;-36.843
6472646.314;-72.941;-106.059;-87.582;-84.341;-103.451;-80.056;-46.045;-42.804
6472646.322;-78.790;-112.876;-91.009;-90.636;-118.688;-75.214;-42.841;-39.451
6472646.330;-92.536;-121.631;-112.802;-102.445;-127.703;-73.090;-43.251;-36.210
6472646.338;-87.954;-106.171;-119.731;-99.279;-125.244;-72.755;-43.884;-37.439
6472646.319;-82.180;-96.485;-100.546;-88.327;-107.326;-72.978;-44.405;-37.514
6472646.327;-73.202;-104.308;-88.364;-87.954;-101.365;-68.210;-41.649;-30.696
6472646.335;-81.621;-110.604;-100.173;-91.717;-109.784;-61.467;-37.700;-22.650
6472646.343;-74.469;-104.792;-96.783;-85.793;-109.375;-64.820;-37.849;-27.120
6472646.351;-71.786;-97.491;-87.246;-89.630;-100.173;-76.778;-49.211;-39.078
6472646.359;-69.365;-95.554;-80.988;-82.850;-85.607;-76.517;-52.005;-37.216
6472646.367;-66.049;-89.146;-88.625;-72.420;-95.516;-67.949;-42.394;-30.436
6472646.375;-68.508;-89.258;-86.129;-78.566;-96.634;-66.347;-35.726;-30.920
6472646.383;-73.500;-103.749;-82.590;-88.960;-97.454;-68.210;-34.608;-33.118
6472646.391;-76.778;-98.646;-90.972;-91.046;-99.540;-72.680;-41.127;-36.173
6472646.399;-87.917;-107.139;-109.114;-96.671;-95.889;-76.219;-48.801;-38.520
6472646.407;-96.746;-124.946;-113.323;-95.814;-110.045;-76.257;-52.080;-39.376
6472646.415;-85.235;-113.621;-97.603;-93.728;-107.698;-71.414;-49.733;-37.029
6472646.423;-90.897;-109.896;-110.306;-103.451;-119.396;-74.878;-52.899;-43.996
6472646.431;-101.253;-114.925;-116.862;-105.575;-116.788;-78.194;-54.017;-48.205
6472646.439;-96.671;-111.647;-113.770;-103.787;-106.618;-74.729;-47.088;-45.709
6472646.447;-100.322;-126.958;-113.398;-101.924;-107.698;-75.437;-46.380;-47.013
6472646.455;-101.775;-125.393;-111.908;-106.357;-111.647;-78.976;-51.744;-48.280
6472646.463;-99.316;-123.531;-112.131;-111.014;-114.776;-79.200;-53.830;-46.231
6472646.471;-94.548;-106.283;-114.404;-105.277;-106.655;-76.555;-52.452;-40.717
6472646.479;-83.223;-92.052;-92.350;-92.611;-84.676;-68.396;-45.076;-30.994
6472646.487;-75.549;-98.832;-85.868;-87.991;-74.953;-61.542;-38.967;-26.710
6472646.495;-87.507;-118.464;-96.038;-97.863;-84.005;-62.697;-40.978;-31.702
6472646.503;-102.893;-125.654;-119.060;-98.720;-109.673;-66.794;-43.772;-37.998
6472646.470;-100.508;-113.659;-113.882;-99.652;-104.904;-73.053;-47.721;-45.672
6472646.478;-89.742;-101.998;-96.597;-98.497;-87.544;-72.122;-45.076;-45.151
6472646.486;-87.954;-107.251;-97.416;-93.319;-99.577;-68.396;-41.723;-41.500
6472646.494;-85.160;-102.371;-99.614;-78.417;-99.763;-64.895;-39.786;-37.365
6472646.502;-81.286;-87.582;-97.603;-73.723;-88.327;-64.261;-43.511;-33.565
6472646.510;-89.817;-91.642;-90.040;-77.263;-84.043;-62.324;-44.331;-32.410
6472646.518;-84.564;-92.424;-102.147;-81.211;-92.052;-61.207;-41.649;-32.187
6472646.526;-69.179;-81.696;-85.607;-70.259;-90.748;-54.203;-33.639;-25.518
6472646.534;-76.666;-91.046;-86.464;-68.881;-89.332;-54.128;-33.118;-26.338
6472646.542;-82.813;-85.682;-98.236;-69.253;-90.338;-53.346;-34.198;-26.263
6472646.550;-89.370;-95.665;-99.503;-76.070;-85.384;-55.060;-33.416;-29.206
6472646.558;-78.492;-79.870;-81.509;-64.299;-78.790;-51.372;-26.710;-27.008
6472646.566;-67.763;-67.092;-80.205;-49.993;-84.452;-52.825;-28.983;-28.349
6472646.574;-58.673;-64.485;-73.388;-44.145;-79.349;-54.538;-31.143;-30.063
6472646.582;-63.032;-66.087;-83.335;-51.036;-85.868;-53.495;-30.920;-28.536
6472646.590;-75.512;-84.378;-94.809;-60.908;-92.201;-56.103;-35.577;-30.063
6472646.598;-68.285;-65.863;-79.609;-53.644;-78.455;-53.868;-35.428;-29.691
6472646.606;-60.908;-63.740;-74.618;-45.449;-79.162;-45.933;-29.057;-23.581
6472646.614;-59.046;-61.244;-67.949;-42.021;-75.102;-44.480;-26.077;-23.805
6472646.622;-60.946;-72.680;-73.873;-47.982;-78.119;-40.345;-20.042;-20.266
6472646.630;-74.133;-75.772;-98.497;-49.807;-100.918;-39.339;-19.446;-20.228
6472646.638;-66.794;-57.593;-79.684;-43.325;-91.232;-36.582;-20.899;-17.732
6472646.646;-62.138;-63.591;-67.949;-47.535;-76.182;-37.849;-23.842;-18.664
6472646.654;-56.326;-56.885;-73.984;-46.007;-83.074;-38.110;-22.352;-18.813
6472646.635;-61.020;-72.978;-88.625;-53.570;-99.353;-33.304;-17.174;-14.603
6472646.643;-70.184;-83.670;-79.386;-50.887;-84.378;-35.912;-20.377;-15.832
6472646.651;-62.659;-54.128;-74.729;-40.121;-81.845;-40.568;-25.928;-17.807
6472646.659;-61.616;-52.825;-80.541;-42.170;-87.768;-42.282;-28.349;-20.638
6472646.667;-61.616;-65.230;-87.284;-47.535;-88.252;-40.047;-27.455;-18.142
6472646.675;-56.773;-72.531;-67.391;-48.093;-74.916;-33.453;-19.893;-12.890
6472646.683;-53.458;-61.877;-61.654;-39.712;-73.425;-33.155;-19.222;-11.437
6472646.691;-53.868;-50.776;-75.586;-36.620;-76.704;-34.794;-21.681;-13.672
6472646.699;-62.697;-65.938;-88.140;-46.827;-89.929;-39.935;-27.716;-20.415
6472646.707;-67.577;-61.281;-72.122;-51.893;-79.274;-43.213;-30.547;-24.736
6472646.715;-64.224;-61.244;-63.963;-45.672;-77.821;-42.990;-30.175;-24.512
6472646.723;-60.834;-62.473;-77.598;-40.606;-72.494;-40.494;-30.920;-20.191
6472646.731;-52.340;-38.184;-66.012;-26.226;-47.870;-41.202;-30.920;-20.564
6472646.739;-11.399;1.006;-15.497;-1.118;-8.866;-39.414;-28.163;-19.073
6472646.747;34.794;58.375;35.986;44.182;61.952;-31.069;-19.856;-13.411
6472646.755;103.228;127.964;108.331;90.897;144.355;-26.114;-14.715;-9.872
6472646.763;179.708;213.347;175.424;139.475;226.386;-24.810;-14.454;-6.855
6472646.771;285.693;325.404;290.126;201.054;368.059;-18.291;-11.288;1.304
6472646.779;368.692;409.409;386.834;247.769;478.961;-24.289;-15.758;-2.608
6472646.787;369.512;430.569;401.698;256.822;504.516;-32.634;-22.799;-11.623
6472646.795;383.072;441.074;422.746;264.794;533.536;-32.708;-21.569;-10.692
6472646.803;373.274;412.650;403.374;242.554;504.032;-30.734;-18.366;-9.611
6472646.811;310.913;338.182;339.337;193.939;428.334;-36.769;-24.140;-17.174
6472646.819;261.851;285.618;291.169;167.862;372.492;-36.731;-26.152;-16.540
6472646.829;219.606;239.126;248.328;137.947;303.127;-29.020;-17.248;-11.809
6472646.837;192.486;187.121;203.662;108.480;238.083;-22.948;-11.139;-11.288
6472646.845;145.845;131.540;155.382;76.629;190.660;-18.775;-7.972;-9.574
6472646.853;99.987;98.795;107.884;45.151;139.959;-25.555;-16.354;-14.417
6472646.861;68.545;70.557;83.186;26.673;107.735;-34.198;-27.828;-20.005
6472646.869;59.195;49.323;72.420;17.621;83.745;-30.734;-23.246;-17.658
6472646.877;53.979;33.751;47.535;8.829;53.644;-30.585;-18.477;-18.142
6472646.885;20.526;-6.594;22.538;-11.474;35.837;-29.020;-14.603;-16.876
6472646.893;11.511;-7.972;15.870;-13.709;26.375;-20.042;-4.992;-9.574
6472646.901;4.768;-1.974;-0.261;-11.325;0.447;-24.810;-12.070;-11.250
6472646.909;-14.752;-18.068;-20.675;-23.767;-17.397;-27.083;-18.962;-13.672
6472646.917;-8.903;-29.579;-21.160;-29.914;-20.005;-16.056;-9.499;-4.917
6472646.925;-24.885;-51.334;-33.341;-37.812;-30.026;-15.311;-4.955;-5.774
6472646.933;-32.559;-61.132;-43.176;-43.549;-30.808;-18.254;-3.576;-8.978
6472646.941;-48.093;-67.912;-52.489;-55.470;-46.529;-28.200;-12.182;-14.529
6472646.949;-61.542;-71.898;-63.516;-58.934;-65.863;-41.053;-24.028;-23.283
6472646.957;-66.198;-74.320;-73.351;-58.785;-74.543;-43.623;-24.401;-27.046
6472646.965;-64.373;-87.172;-86.203;-56.736;-73.425;-40.606;-21.979;-26.114
6472646.973;-73.165;-96.075;-80.392;-63.777;-73.016;-39.376;-26.412;-22.650
6472646.981;-86.129;-97.305;-90.078;-74.245;-75.921;-42.059;-31.851;-23.134
6472646.989;-84.713;-97.416;-92.648;-78.343;-93.840;-51.148;-40.010;-31.479
6472646.997;-75.325;-90.189;-84.974;-73.649;-76.965;-54.874;-41.686;-36.620
6472647.005;-85.831;-103.787;-101.216;-77.225;-92.871;-51.707;-38.818;-33.788
6472647.013;-87.880;-107.028;-105.985;-80.280;-93.505;-47.311;-36.508;-28.722
6472647.055;-87.582;-107.363;-93.877;-76.145;-88.103;-41.574;-33.267;-25.220
6472647.063;-80.727;-97.230;-97.193;-68.434;-93.132;-32.075;-25.630;-19.483
6472647.071;-77.784;-91.158;-96.336;-67.875;-91.158;-34.049;-27.269;-23.320
6472647.079;-79.237;-94.064;-107.326;-65.714;-95.554;-37.029;-28.238;-25.593
6472647.087;-76.108;-100.769;-98.795;-64.038;-89.742;-31.032;-23.693;-18.105
6472647.095;-76.070;-100.806;-90.301;-63.740;-82.366;-32.596;-25.816;-17.174
6472647.103;-77.263;-92.499;-87.246;-66.906;-80.839;-37.402;-30.883;-21.346
6472647.111;-92.387;-103.191;-103.600;-77.561;-89.072;-34.906;-29.616;-21.309
6472647.119;-96.224;-109.896;-115.372;-78.678;-99.503;-32.075;-25.444;-20.377
6472647.127;-86.315;-104.420;-112.690;-77.672;-92.350;-36.135;-30.473;-23.693
6472647.135;-88.587;-109.412;-101.924;-74.878;-78.827;-35.390;-31.628;-23.022
6472647.143;-86.091;-107.288;-96.560;-76.666;-82.292;-34.906;-30.957;-22.762
6472647.151;-92.238;-100.844;-104.494;-74.692;-88.029;-33.155;-27.902;-23.544
6472647.159;-89.630;-102.073;-113.621;-73.239;-82.962;-30.585;-23.656;-22.016
6472647.167;-87.582;-98.348;-102.967;-65.342;-77.114;-30.361;-23.618;-18.924
6472647.175;-81.286;-91.940;-92.089;-56.438;-76.257;-34.496;-25.481;-23.246
6472647.183;-63.702;-75.735;-82.366;-44.964;-73.053;-30.547;-20.340;-23.618
6472647.191;-71.153;-79.721;-89.034;-45.970;-72.159;-24.028;-15.013;-17.248
6472647.199;-84.192;-83.111;-94.250;-50.366;-72.755;-23.209;-14.491;-17.583
6472647.207;-89.109;-95.665;-98.832;-58.226;-82.850;-26.673;-18.813;-22.687
6472647.215;-66.832;-70.222;-85.011;-42.804;-78.641;-29.206;-23.991;-22.873
6472647.223;-56.848;-62.920;-73.947;-35.651;-75.735;-26.040;-21.644;-16.764
6472647.231;-77.039;-87.097;-98.720;-46.231;-98.199;-28.424;-23.320;-18.589
6472647.239;-96.112;-104.196;-109.971;-53.830;-93.691;-34.571;-29.579;-26.152
6472647.250;-75.847;-72.941;-97.565;-43.958;-80.951;-35.800;-29.802;-26.189
6472647.258;-52.229;-52.825;-67.949;-24.885;-68.434;-30.324;-20.564;-21.681
6472647.266;-72.904;-69.365;-89.854;-29.393;-89.779;-33.118;-25.555;-22.501
6472647.274;-81.658;-87.507;-94.995;-30.324;-88.960;-22.464;-17.695;-16.354
6472647.282;-70.930;-71.563;-90.785;-29.206;-82.888;-17.174;-13.299;-12.852
6472647.290;-56.401;-59.381;-64.746;-28.983;-58.934;-21.569;-16.429;-16.764
6472647.298;-61.877;-62.026;-73.239;-29.281;-75.512;-24.140;-18.254;-18.254
6472647.306;-66.198;-64.410;-80.541;-29.132;-83.745;-30.212;-25.630;-23.022
6472647.314;-67.651;-64.746;-84.043;-28.238;-76.853;-35.949;-32.820;-25.518
6472647.322;-70.445;-67.912;-88.327;-33.043;-87.172;-33.341;-32.000;-23.767
6472647.330;-70.035;-78.641;-74.655;-40.606;-91.009;-36.731;-33.937;-28.946
6472647.338;-63.814;-75.921;-71.451;-32.112;-71.526;-39.041;-33.304;-29.206
6472647.346;-62.995;-67.912;-77.710;-28.163;-69.812;-38.557;-33.788;-26.971
6472647.354;-67.428;-55.097;-84.564;-19.148;-72.680;-32.485;-30.249;-23.283
6472647.362;-68.620;-59.567;-76.890;-24.214;-79.386;-33.304;-30.585;-24.103
6472647.370;-55.283;-63.665;-63.106;-27.493;-75.214;-33.081;-30.845;-24.736
6472647.378;-54.799;-70.259;-68.396;-24.587;-75.288;-31.553;-29.728;-23.134
6472647.386;-61.952;-64.261;-82.254;-21.905;-77.784;-33.751;-30.063;-24.885
6472647.394;-60.052;-57.518;-72.122;-20.787;-76.257;-32.298;-26.673;-24.922
6472647.402;-48.913;-44.182;-67.949;-18.403;-68.508;-34.459;-28.983;-27.828
6472647.410;-45.635;-48.131;-57.593;-9.574;-62.622;-34.235;-30.324;-25.891
6472647.418;-57.891;-72.718;-61.430;-18.328;-72.569;-35.055;-32.261;-25.481
6472647.426;-51.446;-68.359;-64.448;-12.405;-69.663;-26.375;-24.214;-18.589
6472647.434;-43.549;-48.503;-54.501;-10.245;-58.711;-22.911;-21.607;-19.819
6472647.401;-39.525;-31.590;-53.160;-7.004;-59.754;-25.779;-25.518;-23.134
6472647.409;-50.217;-42.841;-62.324;-9.798;-61.803;-26.003;-26.599;-22.016
6472647.417;-48.093;-60.983;-62.250;-15.795;-72.382;-28.610;-27.865;-24.512
6472647.425;-56.215;-80.876;-69.737;-20.564;-77.561;-30.287;-27.344;-25.555
6472647.433;-54.538;-59.754;-53.756;-15.013;-58.822;-31.851;-28.685;-26.897
6472647.441;-50.738;-44.331;-54.389;-23.618;-63.628;-34.943;-32.783;-28.722
6472647.449;-54.017;-46.864;-66.571;-22.389;-74.133;-32.485;-30.957;-24.661
6472647.457;-68.806;-83.745;-98.534;-26.189;-99.577;-28.238;-28.238;-19.632
6472647.465;-67.726;-86.091;-79.386;-28.387;-78.194;-26.450;-30.398;-19.446
6472647.473;-54.315;-50.589;-55.879;-17.509;-63.851;-27.642;-31.255;-20.489
6472647.481;-65.491;-54.240;-73.537;-24.885;-85.346;-28.983;-31.255;-22.016
6472647.489;-57.556;-61.616;-67.800;-27.344;-71.786;-22.016;-24.661;-17.695
6472647.497;-70.296;-85.309;-88.140;-39.078;-86.613;-26.338;-26.561;-23.246
6472647.505;-67.949;-77.598;-82.627;-30.249;-87.023;-23.991;-24.289;-21.011
6472647.513;-50.776;-52.229;-55.917;-15.832;-61.356;-12.890;-13.262;-10.096
6472647.521;-53.756;-53.681;-61.654;-20.079;-73.686;-15.348;-16.391;-12.629
6472647.529;-64.671;-71.749;-82.292;-36.024;-83.633;-22.724;-24.810;-20.675
6472647.537;-65.081;-70.035;-76.592;-27.604;-77.561;-26.301;-26.412;-23.693
6472647.545;-59.903;-71.302;-62.585;-27.232;-70.296;-22.948;-22.762;-20.862
6472647.553;-57.481;-76.666;-67.167;-29.206;-71.190;-16.280;-18.887;-13.560
6472647.561;-64.708;-74.878;-74.059;-28.387;-68.396;-14.193;-18.254;-10.990
6472647.569;-69.812;-63.479;-79.349;-31.479;-71.116;-17.993;-20.303;-15.497
6472647.577;-62.175;-70.110;-75.214;-29.728;-84.713;-19.893;-19.968;-16.727
6472647.585;-65.528;-75.623;-70.445;-33.081;-71.451;-24.140;-24.065;-21.160
6472647.624;-60.834;-70.482;-64.634;-26.748;-67.092;-23.656;-25.593;-22.314
6472647.632;-57.295;-78.455;-84.899;-27.008;-78.604;-20.862;-24.438;-19.744
6472647.640;-65.714;-67.465;-80.727;-28.759;-73.798;-16.466;-19.521;-15.646
6472647.648;-66.422;-62.473;-66.422;-35.539;-72.457;-15.646;-19.483;-13.113
6472647.656;-79.460;-90.562;-86.799;-42.170;-80.653;-17.434;-23.209;-14.268
6472647.664;-80.355;-93.281;-99.726;-43.474;-90.636;-22.203;-26.822;-17.844
6472647.672;-77.933;-86.054;-84.825;-38.557;-82.254;-23.544;-26.375;-20.228
6472647.680;-80.019;-89.779;-78.268;-48.690;-72.122;-31.441;-34.459;-28.089
6472647.688;-63.181;-69.179;-71.675;-47.907;-68.434;-29.206;-32.373;-27.008
6472647.696;-62.659;-74.655;-79.349;-38.520;-73.351;-25.257;-27.344;-23.842
6472647.704;-61.877;-73.798;-82.441;-29.989;-72.345;-26.487;-27.902;-24.997
6472647.712;-60.089;-76.555;-56.140;-30.063;-51.372;-23.395;-26.301;-22.426
6472647.720;-65.789;-87.097;-65.640;-39.935;-57.444;-19.260;-22.426;-19.707
6472647.728;-70.594;-77.970;-91.344;-42.766;-80.355;-20.452;-21.160;-21.383
6472647.736;-56.364;-59.530;-75.363;-32.783;-67.167;-17.658;-18.962;-14.976
6472647.744;-51.558;-68.843;-62.734;-34.086;-60.871;-14.976;-17.695;-15.497
6472647.752;-68.843;-90.338;-71.600;-39.786;-72.494;-17.174;-19.893;-20.713
6472647.760;-74.506;-98.459;-72.718;-45.821;-59.791;-18.179;-20.117;-21.607
6472647.768;-62.287;-69.402;-70.520;-38.370;-55.023;-18.999;-20.899;-21.979
6472647.776;-56.513;-63.181;-78.604;-32.745;-62.250;-18.068;-21.942;-21.681
6472647.784;-61.765;-79.125;-78.492;-42.953;-63.479;-18.999;-23.469;-21.569
6472647.792;-65.304;-86.501;-59.791;-45.076;-51.819;-17.062;-20.005;-19.446
6472647.800;-75.661;-92.536;-77.002;-49.919;-69.775;-14.752;-17.919;-18.701
6472647.808;-66.310;-75.400;-84.043;-47.199;-69.104;-10.319;-14.491;-15.534
6472647.850;-60.387;-73.127;-61.542;-40.382;-49.323;-4.284;-7.451;-11.027
6472647.858;-58.152;-81.919;-60.797;-41.351;-45.300;-5.551;-7.376;-11.139
6472647.866;-71.190;-100.583;-79.460;-51.446;-58.375;-11.027;-15.497;-15.572
6472647.874;-77.151;-92.052;-80.541;-53.979;-51.670;-12.890;-17.844;-17.248
6472647.882;-69.812;-77.412;-75.214;-51.707;-53.458;-18.068;-21.867;-20.526
6472647.890;-62.138;-71.786;-66.534;-45.709;-50.738;-24.401;-28.759;-25.891
6472647.898;-59.120;-83.968;-57.444;-43.064;-37.476;-19.185;-26.301;-21.458
6472647.906;-61.318;-89.891;-73.574;-44.256;-45.411;-14.044;-22.091;-16.950
6472647.914;-64.857;-70.557;-67.614;-36.284;-53.421;-8.792;-14.752;-13.411
6472647.922;-49.360;-53.644;-53.644;-28.536;-43.288;-8.270;-15.013;-13.150
6472647.930;-57.742;-69.365;-65.826;-38.967;-49.882;-9.984;-17.695;-15.311
6472647.938;-59.418;-69.849;-70.371;-34.347;-55.172;-14.268;-21.085;-21.197
6472647.946;-50.254;-62.995;-54.091;-26.003;-32.932;-21.458;-26.189;-27.418
6472647.954;-43.474;-48.988;-41.984;-19.781;-29.132;-25.928;-33.043;-28.051
6472647.962;-47.274;-42.692;-49.360;-14.193;-24.438;-26.450;-36.955;-27.120
6472647.970;-33.565;-29.840;-28.163;-4.135;1.192;-24.103;-34.347;-26.524
6472647.978;7.600;31.926;17.472;34.794;57.518;-16.689;-26.263;-21.346
6472647.986;72.829;97.826;85.272;82.664;138.916;-9.499;-20.787;-13.746
6472647.994;157.319;181.720;166.781;136.755;240.579;-1.192;-13.188;-3.986
6472648.002;272.170;313.297;297.986;207.052;386.648;2.868;-8.978;1.043
6472648.010;360.273;398.383;396.855;256.337;505.112;9.090;-3.763;7.674
6472648.018;404.455;454.001;443.421;280.924;569.336;12.890;-2.719;11.064
6472648.026;420.399;476.800;454.895;305.064;590.980;6.780;-12.405;7.711
6472648.034;401.363;465.810;453.740;292.882;574.514;5.066;-11.399;5.811
6472648.074;365.041;405.945;410.676;253.096;512.935;-1.788;-15.497;0.522
6472648.082;316.463;337.437;357.255;216.290;452.995;-5.215;-16.801;-1.900
6472648.090;257.790;268.929;288.486;173.375;367.984;-4.135;-14.752;-3.092
6472648.098;230.968;240.505;260.882;155.047;321.791;-1.267;-10.654;-4.061
6472648.106;191.405;202.768;212.304;129.938;255.518;-0.149;-11.213;-5.737
6472648.114;140.034;141.822;154.898;94.250;181.459;1.490;-12.256;-6.109
6472648.122;124.052;116.304;143.945;76.219;167.228;2.533;-10.058;-6.966
6472648.130;103.265;94.511;117.905;65.975;137.053;-7.041;-16.615;-15.832
6472648.138;80.466;70.818;92.313;56.587;100.844;-11.660;-18.254;-16.950
6472648.146;45.858;39.600;55.581;36.247;71.675;-19.334;-25.108;-21.607
6472648.154;28.051;15.348;34.049;21.756;52.713;-21.942;-26.748;-27.195
6472648.162;21.830;18.999;36.135;25.220;45.002;-16.168;-20.824;-25.108
6472648.170;23.283;20.862;30.324;28.200;33.565;-8.233;-17.025;-19.446
6472648.178;6.855;4.694;9.723;19.707;10.915;-7.115;-21.867;-17.658
6472648.186;-10.245;-16.093;-0.857;7.078;13.039;-5.998;-22.240;-15.236
6472648.194;-9.499;-11.474;-7.227;6.780;3.986;-4.694;-16.205;-13.374
6472648.202;-12.629;-13.225;1.453;11.772;-6.706;-5.625;-15.832;-12.666
6472648.210;-33.081;-33.118;-25.630;-5.774;-33.863;-11.772;-23.134;-19.111
6472648.218;-29.802;-39.078;-32.112;-8.568;-25.257;-12.293;-24.252;-20.340
6472648.226;-35.502;-46.976;-28.014;-11.623;-28.461;-10.021;-21.383;-19.297
6472648.234;-38.929;-34.869;-38.706;-7.227;-44.070;-6.035;-17.583;-16.354
6472648.242;-46.864;-43.362;-54.650;-10.021;-52.825;-7.264;-20.638;-16.689
6472648.250;-53.719;-56.177;-51.372;-17.807;-46.678;-10.394;-22.501;-21.122
6472648.258;-44.070;-41.910;-41.164;-8.680;-48.168;-8.605;-19.707;-21.234
6472648.270;-36.359;-48.131;-39.116;-11.772;-56.066;-5.998;-16.093;-18.328
6472648.278;-53.495;-51.856;-60.983;-17.695;-64.522;-10.766;-21.085;-20.266
6472648.286;-51.782;-51.856;-58.338;-16.391;-60.238;-13.337;-25.034;-21.532
6472648.294;-48.503;-55.321;-44.517;-16.019;-47.497;-5.476;-16.727;-14.380
6472648.302;-45.411;-46.380;-42.841;-10.803;-43.735;-4.321;-15.348;-13.523
6472648.310;-43.139;-46.752;-44.741;-12.442;-51.484;-7.823;-20.526;-15.870
6472648.318;-58.226;-52.415;-63.516;-17.062;-71.675;-11.027;-22.128;-21.309
6472648.326;-57.593;-57.034;-60.499;-13.486;-62.287;-8.941;-17.844;-23.842
6472648.334;-49.248;-52.899;-49.435;-17.248;-48.205;-11.548;-22.016;-26.003
6472648.342;-49.695;-58.748;-50.925;-25.220;-53.495;-13.448;-25.667;-26.710
6472648.350;-60.126;-66.049;-69.067;-26.189;-73.910;-14.268;-25.332;-25.183
6472648.358;-62.287;-50.925;-61.877;-25.108;-67.465;-16.913;-28.573;-25.705
6472648.366;-56.438;-58.971;-53.570;-23.805;-60.201;-21.122;-32.336;-30.771
6472648.374;-69.402;-77.225;-73.835;-28.908;-68.881;-22.203;-33.304;-32.783
6472648.382;-58.673;-63.926;-64.671;-28.573;-65.304;-16.242;-28.573;-26.077
6472648.390;-53.197;-55.656;-56.289;-19.148;-61.765;-5.402;-15.087;-17.248
6472648.398;-48.392;-47.050;-46.194;-15.497;-55.805;-0.596;-11.623;-16.652
6472648.406;-62.250;-63.255;-77.337;-23.954;-70.408;-0.894;-17.956;-17.062
6472648.414;-54.352;-54.874;-57.183;-25.555;-63.181;-2.086;-19.595;-19.148
6472648.422;-50.552;-63.069;-48.429;-24.810;-64.485;0.782;-12.517;-18.515
6472648.430;-68.992;-84.527;-65.677;-39.451;-69.924;-2.384;-14.566;-21.905
6472648.438;-74.282;-73.612;-76.704;-41.090;-72.457;-2.794;-17.770;-21.309
6472648.446;-65.416;-70.073;-59.418;-36.471;-59.381;-8.717;-24.475;-22.240
6472648.454;-58.562;-61.356;-64.634;-36.135;-64.149;-14.491;-30.398;-23.320
6472648.465;-80.839;-89.630;-82.403;-45.002;-79.684;-18.403;-35.875;-29.244
6472648.473;-86.091;-101.551;-84.601;-56.103;-91.940;-17.397;-31.814;-31.553
6472648.481;-76.853;-84.266;-73.947;-50.291;-72.904;-19.260;-29.579;-32.708
6472648.489;-66.720;-80.094;-65.081;-42.878;-68.024;-14.342;-27.381;-27.902
6472648.497;-65.528;-67.726;-61.691;-39.935;-57.928;-11.586;-29.020;-26.301
6472648.505;-74.618;-78.902;-69.886;-45.002;-58.450;-8.643;-27.493;-25.742
6472648.513;-76.704;-87.097;-85.533;-46.752;-83.074;-5.700;-22.501;-23.283
6472648.521;-64.000;-70.296;-65.640;-38.296;-62.138;-2.980;-18.030;-18.142
6472648.529;-67.092;-84.154;-65.044;-44.480;-62.622;-4.657;-20.377;-17.881
6472648.537;-79.870;-87.209;-71.339;-47.162;-66.534;-16.838;-32.932;-28.983
6472648.545;-67.651;-64.336;-66.832;-37.849;-62.473;-15.125;-29.206;-28.834
6472648.553;-64.410;-67.614;-64.522;-42.282;-57.109;-11.548;-24.065;-26.338
6472648.561;-68.769;-86.911;-70.781;-53.942;-66.273;-6.631;-22.091;-22.873
6472648.569;-76.033;-82.217;-77.300;-46.343;-67.838;-2.123;-19.334;-18.887
6472648.577;-70.296;-79.609;-72.047;-48.093;-65.006;-1.267;-18.664;-18.366
6472648.585;-65.714;-74.320;-62.324;-48.243;-58.971;-5.998;-24.252;-21.346
6472648.593;-65.826;-69.141;-63.479;-44.778;-57.593;-7.078;-26.152;-21.346
6472648.601;-74.208;-86.389;-81.770;-48.839;-69.141;-6.072;-21.867;-20.787
6472648.609;-78.604;-92.164;-71.302;-52.713;-60.126;-12.070;-23.618;-25.071
6472648.617;-73.761;-85.160;-65.975;-50.068;-58.562;-15.274;-25.928;-27.455
6472648.625;-66.571;-65.491;-60.946;-39.302;-55.134;-13.262;-24.773;-25.593
6472648.633;-61.505;-59.903;-55.581;-36.955;-43.362;-10.468;-22.985;-24.699
6472648.641;-66.459;-77.412;-69.514;-41.835;-57.071;-9.574;-23.209;-27.195
6472648.649;-60.275;-69.924;-69.365;-32.969;-51.484;-3.316;-16.838;-24.214
6472648.629;-53.532;-54.725;-49.435;-26.710;-44.405;-0.484;-16.205;-19.222
6472648.637;-61.430;-54.650;-57.109;-28.238;-51.409;-1.788;-18.477;-18.999
6472648.645;-57.258;-54.464;-48.988;-25.891;-40.717;-3.278;-19.781;-18.477
6472648.653;-51.595;-58.003;-48.764;-25.593;-40.531;-7.041;-24.438;-21.048
6472648.661;-60.908;-69.998;-58.152;-37.327;-57.518;-9.350;-27.195;-23.767
6472648.669;-70.296;-69.551;-72.978;-36.657;-66.906;-5.029;-21.234;-18.552
6472648.677;-65.640;-55.358;-69.626;-27.940;-65.044;-2.123;-18.664;-16.652
6472648.685;-57.556;-50.738;-53.942;-22.836;-58.971;-4.768;-21.905;-21.495
6472648.693;-60.610;-63.591;-52.601;-25.891;-53.607;-3.651;-21.681;-22.464
6472648.701;-60.946;-69.216;-56.960;-21.160;-58.450;1.341;-17.025;-19.036
6472648.709;-66.906;-51.036;-70.110;-15.572;-64.708;-3.614;-20.340;-24.140
6472648.717;-60.722;-47.833;-62.697;-15.385;-60.201;-6.407;-20.377;-25.332
6472648.725;-64.522;-52.601;-63.702;-22.687;-73.798;-7.153;-21.197;-23.171
6472648.733;-51.595;-45.411;-48.317;-7.078;-54.128;3.353;-10.952;-14.640
6472648.741;-42.655;-35.316;-43.660;1.527;-40.308;8.717;-5.849;-11.548
6472648.749;-42.878;-35.614;-47.162;1.304;-39.414;15.125;0.335;-5.513
6472648.757;-46.566;-31.888;-51.036;-5.625;-57.295;11.139;-7.376;-7.600
6472648.765;-55.209;-41.462;-49.099;-9.425;-60.014;5.253;-10.133;-15.460
6472648.773;-47.311;-33.639;-41.984;-7.413;-53.085;-3.800;-15.609;-25.146
6472648.781;-51.744;-52.117;-54.203;-15.050;-51.782;-6.557;-18.142;-27.865
6472648.789;-53.346;-56.513;-64.373;-20.899;-60.089;-7.749;-22.314;-24.922
6472648.797;-73.351;-62.473;-62.175;-22.687;-67.838;-16.280;-30.883;-31.516
6472648.805;-59.903;-39.339;-53.570;-16.950;-59.344;-15.497;-27.530;-30.808
6472648.813;-36.210;-22.762;-35.316;-8.717;-46.901;-9.388;-20.862;-24.810
6472648.840;-44.629;-43.288;-52.564;-6.855;-61.207;3.353;-7.749;-14.976
6472648.848;-46.492;-43.958;-48.168;0.298;-52.303;11.884;-1.676;-10.543
6472648.856;-36.992;-33.304;-28.759;5.104;-41.984;13.188;-1.602;-10.729
6472648.864;-43.400;-21.271;-39.525;0.745;-51.148;9.760;-5.662;-13.858
6472648.872;-41.947;-31.479;-51.446;-9.164;-59.791;2.496;-13.709;-20.675
6472648.880;-43.958;-38.520;-55.321;-4.508;-70.632;2.459;-15.683;-20.154
6472648.888;-45.337;-28.908;-44.145;2.608;-54.650;1.676;-14.044;-18.254
6472648.896;-42.729;-43.288;-28.238;-0.782;-41.462;-0.186;-12.331;-18.328
6472648.904;-26.785;-14.193;-36.880;3.688;-40.010;-2.943;-14.231;-20.079
6472648.912;-24.028;10.692;-12.293;13.970;-6.109;-3.874;-14.603;-20.787
6472648.920;6.109;45.821;15.050;47.125;28.908;0.708;-10.990;-19.222
6472648.928;58.785;82.888;83.223;77.300;105.463;11.735;-2.384;-9.760
6472648.936;112.019;141.300;143.945;117.533;187.382;14.901;-1.490;-4.023
6472648.944;207.946;253.022;233.129;200.458;292.994;20.713;4.210;2.980
6472648.952;304.915;376.403;346.564;282.899;418.015;25.593;10.468;7.153
6472648.960;430.495;523.776;474.751;382.587;539.646;26.114;15.758;7.190
6472648.968;509.620;615.604;561.625;457.354;624.284;28.461;21.718;10.133
6472648.976;554.323;679.232;604.987;513.010;660.084;36.061;30.175;19.036
6472648.984;585.839;708.252;639.819;554.509;693.388;39.600;32.261;22.352
6472648.992;601.113;738.874;658.520;586.100;695.884;44.741;37.514;24.252
6472649.000;597.797;748.076;655.018;606.924;685.230;57.556;50.291;30.585
6472649.008;585.914;747.591;639.521;625.774;657.551;64.224;55.991;33.565
6472649.016;564.307;733.323;614.114;625.961;618.286;64.448;58.562;32.000
6472649.024;555.851;721.924;606.999;628.717;604.801;72.122;69.402;38.780
6472649.123;518.262;677.332;570.416;602.081;567.175;65.155;60.648;32.820
6472649.131;471.435;621.751;520.796;571.236;506.975;48.503;43.102;18.924
6472649.139;417.978;571.050;463.985;526.868;443.086;40.829;37.588;15.758
6472649.147;372.939;514.016;419.877;478.290;403.598;33.490;30.026;13.970
6472649.155;319.667;435.375;363.328;421.181;344.738;40.680;40.941;17.360
6472649.163;268.035;357.330;308.268;371.635;281.967;31.777;33.528;6.482
6472649.171;205.711;277.199;245.050;307.597;213.310;22.464;25.928;0.261
6472649.179;165.887;242.218;202.581;264.719;169.389;18.887;24.699;-6.780
6472649.187;147.261;208.877;192.560;241.958;159.927;17.025;26.263;-13.299
6472649.195;111.312;173.114;156.127;218.637;122.413;18.366;17.807;-5.402
6472649.203;74.394;143.945;115.447;193.603;76.182;30.994;26.934;9.686
6472649.211;64.112;111.088;95.703;173.114;58.226;14.640;10.915;-7.078
6472649.219;70.632;125.393;101.887;177.808;50.515;9.537;8.419;-15.758
6472649.227;27.567;87.060;59.716;152.327;8.419;-0.820;-7.935;-22.054
6472649.235;-5.513;40.531;32.410;129.342;-27.046;4.433;-5.327;-18.738
6472649.243;-20.973;16.578;2.086;109.747;-56.922;9.723;-0.857;-17.099
6472649.251;-41.276;4.768;-17.136;88.029;-78.864;13.635;2.012;-13.784
6472649.259;-67.838;-15.646;-46.045;66.832;-107.512;10.431;-3.204;-17.732
6472649.267;-89.370;-49.099;-58.599;58.450;-113.919;9.947;-2.906;-19.036
6472649.275;-93.579;-58.562;-61.095;56.289;-117.235;17.174;4.731;-9.276
6472649.283;-89.779;-38.706;-72.531;48.578;-139.102;13.560;3.763;-8.456
6472649.291;-110.641;-49.956;-94.622;40.494;-151.061;7.264;0.745;-13.150
6472649.299;-127.852;-76.629;-88.587;32.969;-149.272;5.215;0.186;-14.901
6472649.307;-123.866;-87.954;-103.377;26.412;-162.609;-0.484;-4.545;-21.011
6472649.247;-143.014;-105.128;-116.229;15.683;-174.269;-1.900;-7.525;-24.289
6472649.255;-148.974;-102.185;-129.119;10.990;-183.880;-3.651;-12.890;-25.742
6472649.263;-149.161;-101.589;-126.287;8.456;-178.441;-3.986;-14.417;-26.338
6472649.271;-163.391;-121.929;-136.606;-7.227;-201.315;-4.508;-17.174;-27.642
6472649.279;-171.512;-133.514;-149.272;-17.360;-209.957;-9.574;-24.140;-31.590
6472649.287;-173.189;-134.781;-148.043;-14.342;-200.272;-5.811;-20.564;-27.940
6472649.295;-176.691;-154.227;-147.596;-23.283;-203.662;1.155;-13.597;-21.495
6472649.303;-174.716;-127.666;-157.952;-20.266;-216.812;2.645;-13.523;-21.681
6472649.311;-176.653;-133.477;-154.674;-21.346;-201.650;7.302;-11.697;-19.036
6472649.319;-172.518;-145.584;-135.079;-24.997;-200.570;10.431;-9.872;-15.423
6472649.327;-176.616;-152.141;-152.215;-22.091;-205.003;17.993;-1.714;-8.568
6472649.335;-177.808;-144.951;-152.811;-21.681;-203.177;18.254;-2.347;-11.511
6472649.343;-172.257;-122.823;-139.549;-20.340;-191.145;17.993;-1.676;-14.305
6472649.351;-164.844;-127.479;-145.473;-11.139;-194.535;27.008;6.445;-6.370
6472649.359;-156.201;-129.975;-128.672;-10.878;-189.915;29.393;5.662;-3.651
6472649.367;-152.886;-133.477;-118.315;-12.927;-186.265;29.095;3.502;-4.433
6472649.375;-146.478;-118.986;-124.238;-6.668;-187.643;28.051;3.949;-5.476
6472649.383;-144.616;-117.011;-132.099;-6.668;-174.493;30.249;6.706;-4.321
6472649.391;-144.616;-113.957;-123.046;-6.631;-168.942;28.200;2.943;-6.221
6472649.399;-131.875;-113.770;-94.995;-2.384;-158.437;28.908;7.860;-5.625
6472649.407;-114.962;-90.487;-86.054;6.519;-143.275;34.869;15.013;-1.863
6472649.415;-108.629;-76.853;-79.013;22.985;-126.883;44.703;21.905;5.066
6472649.423;-96.895;-57.146;-61.989;43.474;-100.769;50.515;28.498;11.213
6472649.431;-45.039;2.831;-3.055;76.555;-36.843;55.246;33.565;16.056
6472649.439;31.702;71.898;91.232;128.150;90.934;49.211;24.959;11.325
6472649.447;128.448;182.129;193.231;178.292;215.359;42.617;12.554;8.158
6472649.455;265.166;339.858;340.231;257.157;376.627;37.663;4.321;4.284
6472649.463;377.148;452.213;468.269;314.303;534.058;41.500;6.482;9.313
6472649.471;432.245;496.730;521.019;329.912;614.636;53.830;15.609;22.650
6472649.479;493.415;536.330;555.441;321.791;642.911;61.765;23.060;33.379
6472649.487;509.508;541.098;576.936;299.327;669.323;56.252;18.701;27.008
6472649.495;478.290;495.613;545.755;272.729;663.996;55.544;16.987;23.879
6472649.503;456.460;475.235;539.236;243.299;634.491;48.950;10.617;16.168
6472649.511;417.642;424.422;487.827;200.458;577.085;44.070;7.264;11.399
6472649.519;370.406;375.472;428.520;164.881;518.374;41.723;5.141;8.009
6472649.527;305.921;299.327;371.076;121.221;438.690;45.709;7.004;13.560
6472649.535;252.463;212.267;320.598;74.059;373.237;52.750;16.801;20.377
6472649.543;238.009;181.608;290.610;43.213;312.701;50.105;17.621;17.695
6472649.551;190.362;155.494;225.827;20.713;229.068;44.331;8.754;12.219
6472649.559;142.641;101.365;186.563;-4.806;188.239;42.953;4.731;9.909
6472649.567;114.627;49.993;161.976;-27.046;155.233;44.927;7.898;10.058
6472649.575;109.933;48.466;129.566;-36.843;111.163;43.474;12.107;7.451
6472649.583;91.270;39.972;110.269;-48.913;93.095;48.280;21.458;10.841
6472649.591;75.847;14.231;110.008;-57.146;89.630;45.747;16.578;11.101
6472649.599;60.722;3.241;100.471;-69.551;73.016;36.769;5.551;3.688
6472649.607;39.339;4.210;67.465;-78.045;27.344;37.178;4.917;4.284
6472649.615;34.012;-23.879;35.726;-88.662;8.717;37.476;2.123;3.576
6472649.623;23.507;-41.090;51.968;-93.095;21.979;42.766;7.898;8.792
6472649.589;3.688;-47.944;28.349;-95.963;-1.825;47.386;14.715;14.007
6472649.597;8.680;-41.425;0.112;-105.761;-20.377;35.316;5.029;5.513
6472649.605;-9.052;-70.818;13.374;-117.756;-33.714;24.363;-5.513;-0.559
6472649.613;-11.213;-69.626;7.860;-125.393;-47.944;17.919;-11.288;-4.359
6472649.621;-32.075;-95.926;-22.799;-130.683;-55.805;22.687;-7.264;0.596
6472649.629;-31.553;-100.732;-26.450;-135.154;-50.515;27.679;-1.937;5.029
6472649.637;-17.062;-74.245;4.135;-127.703;-49.397;24.550;-4.210;1.341
6472649.645;-22.650;-87.954;-17.360;-133.403;-76.965;16.838;-11.399;-5.700
6472649.653;-35.800;-82.366;-36.992;-134.110;-90.748;14.789;-12.256;-7.227
6472649.661;-38.967;-104.941;-27.902;-139.736;-63.591;18.403;-7.898;-2.719
6472649.669;-44.815;-116.676;-39.861;-144.653;-76.070;19.372;-4.619;-0.969
6472649.677;-21.458;-79.684;-31.888;-131.652;-90.338;24.773;1.006;4.321
6472649.685;-32.932;-92.611;-29.132;-131.764;-80.131;34.049;11.474;12.554
6472649.693;-46.603;-113.286;-61.989;-143.796;-96.597;31.553;9.313;8.456
6472649.701;-17.434;-95.218;-18.850;-137.873;-74.692;24.550;3.129;1.565
6472649.709;-32.000;-102.483;-24.848;-139.996;-69.737;20.973;1.341;-0.671
6472649.717;-50.068;-119.992;-45.002;-147.857;-97.007;19.297;1.341;0.820
6472649.725;-64.485;-141.561;-72.196;-158.511;-116.900;19.111;0.410;-1.788
6472649.733;-57.891;-137.761;-59.046;-164.881;-118.576;11.809;-5.253;-11.511
6472649.741;-61.467;-136.457;-70.073;-161.752;-103.377;12.517;-5.215;-8.903
6472649.749;-49.397;-124.611;-50.440;-150.055;-103.526;18.217;-1.006;-0.671
6472649.757;-54.128;-129.044;-60.387;-158.027;-116.192;11.362;-7.711;-6.221
6472649.765;-65.528;-132.136;-75.400;-159.331;-109.747;12.852;-7.302;-3.725
6472649.773;-62.697;-127.517;-51.521;-163.577;-94.511;10.990;-6.482;-4.172
6472649.769;-49.137;-113.063;-60.834;-149.794;-118.911;14.715;-2.086;0.298
6472649.777;-38.520;-113.919;-61.430;-136.383;-116.602;14.938;-0.633;0.298
6472649.785;-60.014;-149.384;-60.089;-160.486;-113.063;12.144;-2.123;-2.123
6472649.793;-63.218;-130.087;-56.922;-156.313;-120.588;13.597;-0.075;-0.931
6472649.801;-64.448;-141.859;-82.217;-160.113;-130.087;13.113;-0.335;1.341
6472649.809;-77.002;-153.035;-94.958;-174.418;-142.232;4.210;-10.170;-3.688
6472649.817;-75.288;-148.043;-77.300;-167.005;-125.729;6.184;-8.978;-3.912
6472649.825;-68.583;-158.958;-71.079;-162.907;-123.642;12.368;-2.459;-1.341
6472649.833;-62.361;-129.491;-65.602;-155.829;-127.964;11.586;-2.943;-2.757
6472649.841;-68.657;-136.234;-88.327;-162.795;-124.238;5.923;-9.388;-6.892
6472649.849;-74.618;-152.439;-88.438;-168.160;-123.121;2.123;-12.964;-9.462
6472649.857;-55.470;-133.254;-52.825;-154.935;-104.755;4.880;-8.643;-5.662
6472649.865;-48.727;-118.501;-51.782;-149.235;-102.818;1.900;-11.288;-8.866
6472649.873;-59.567;-138.618;-67.353;-162.795;-109.449;1.453;-10.170;-10.133
6472649.881;-54.464;-125.505;-59.940;-157.878;-109.114;-3.986;-14.119;-15.087
6472649.889;-39.935;-104.904;-57.258;-146.329;-110.976;-0.671;-9.686;-10.058
6472649.897;-45.486;-120.923;-56.922;-151.284;-96.373;-2.421;-11.958;-9.090
6472649.905;-51.819;-145.622;-51.297;-155.307;-93.952;-6.184;-14.119;-10.133
6472649.913;-50.366;-144.318;-51.260;-153.445;-99.316;-3.502;-11.325;-8.233
6472649.921;-43.288;-117.198;-60.648;-149.310;-109.114;-3.576;-14.417;-8.792
6472649.929;-50.850;-116.788;-65.044;-145.696;-90.413;-2.645;-15.274;-8.456
6472649.937;-59.791;-137.836;-65.416;-151.619;-97.938;0.186;-11.846;-6.706
6472649.945;-52.229;-138.432;-55.023;-150.837;-94.995;1.751;-10.356;-4.247
6472649.953;-61.169;-140.704;-77.374;-159.778;-111.908;0.633;-12.927;-4.247
6472650.009;-58.264;-134.297;-78.008;-155.233;-99.242;1.751;-11.958;-3.278
6472650.017;-64.149;-153.258;-61.803;-156.090;-79.647;7.600;-5.700;-0.782
6472650.025;-47.199;-132.211;-44.778;-142.381;-80.615;16.764;6.333;4.657
6472650.033;-38.855;-110.753;-71.563;-132.285;-107.437;13.299;3.241;2.198
6472650.041;-21.569;-93.356;-45.374;-118.501;-71.190;9.127;-1.192;-0.335
6472650.049;-25.108;-99.801;-18.850;-118.911;-51.074;8.792;-0.745;-0.410
6472650.057;-31.106;-106.059;-40.457;-120.066;-79.125;5.960;-3.092;0.596
6472650.065;-27.567;-105.128;-47.050;-112.802;-87.433;8.680;-0.447;4.843
6472650.073;-29.430;-98.310;-39.563;-114.553;-87.507;6.929;-1.378;3.129
6472650.081;-21.867;-90.823;-35.688;-99.353;-72.569;10.617;2.533;5.141
6472650.089;-21.122;-107.475;-47.721;-101.067;-69.253;7.749;-0.969;-0.782
6472650.097;-11.735;-95.554;-34.496;-104.606;-65.267;6.109;-1.416;-4.098
6472650.105;-24.214;-100.099;-36.508;-99.130;-77.002;8.754;1.937;-1.155
6472650.113;-34.347;-110.641;-39.563;-103.116;-64.671;-0.186;-7.972;-5.588
6472650.121;-37.253;-110.194;-47.348;-102.669;-73.202;-7.153;-18.142;-9.537
6472650.129;-16.280;-76.033;-38.035;-82.478;-59.307;0.410;-11.958;-3.688
6472650.137;20.079;-35.726;1.080;-52.750;-21.197;6.184;-5.960;0.484
6472650.145;41.500;-15.013;26.263;-34.571;25.742;7.972;-4.396;3.353
6472650.153;80.280;31.292;97.118;-7.451;105.985;15.013;3.204;11.586
6472650.161;126.660;66.496;142.977;29.355;161.082;24.773;10.878;21.718
6472650.169;236.966;198.036;251.941;153.221;277.348;33.900;21.979;29.616
6472650.177;355.020;359.565;374.392;270.456;404.231;36.433;29.691;30.659
6472650.185;458.509;476.316;486.746;370.331;503.659;44.815;39.078;37.327
6472650.193;517.033;555.143;537.969;447.594;530.295;54.613;49.174;43.735
6472650.160;542.514;592.768;580.736;494.830;561.029;57.966;55.097;45.747
6472650.168;538.751;606.403;562.891;514.649;538.826;61.393;58.264;48.876
6472650.176;488.758;567.473;493.936;492.707;466.518;56.587;53.830;45.523
6472650.184;401.400;459.589;406.206;424.907;369.474;51.819;49.807;42.394
6472650.192;331.849;364.073;329.390;347.681;288.859;43.660;40.978;33.230
6472650.200;281.073;283.159;276.826;279.136;237.152;38.221;36.769;28.126
6472650.208;239.946;228.696;244.416;240.840;207.573;37.849;37.663;30.845
6472650.216;200.346;179.037;196.248;200.644;160.821;32.559;32.596;24.177
6472650.224;158.101;142.120;161.082;168.830;149.123;22.650;21.420;15.907
6472650.232;136.904;107.288;152.662;135.787;113.174;15.423;16.093;9.909
6472650.240;103.749;56.364;102.185;102.632;60.983;11.399;9.909;9.537
6472650.248;60.163;14.976;73.910;76.890;34.384;7.749;3.316;6.557
6472650.256;43.660;5.588;40.159;58.934;7.786;7.637;8.792;1.639
6472650.264;40.196;3.725;34.273;53.160;10.990;10.654;14.752;2.719
6472650.272;26.412;-12.368;39.786;47.497;4.061;9.649;8.158;0.075
6472650.280;-4.955;-48.801;-3.278;25.257;-43.847;15.385;13.150;2.235
6472650.288;-8.233;-42.021;-9.164;28.834;-44.703;22.575;20.675;8.009
6472650.296;-26.114;-71.898;-33.826;5.886;-57.705;14.305;11.362;1.863
6472650.304;-49.733;-99.912;-53.830;-20.750;-87.358;6.072;3.166;-3.129
6472650.312;-67.540;-109.300;-81.733;-18.701;-115.633;6.631;7.190;-1.006
6472650.320;-91.195;-116.117;-105.575;-28.983;-131.913;8.941;12.666;1.378
6472650.328;-66.198;-105.239;-66.832;-25.965;-93.132;13.635;15.795;6.817
6472650.336;-68.173;-116.676;-69.104;-25.146;-102.371;10.505;12.927;3.576
6472650.344;-82.515;-134.893;-97.081;-30.622;-125.840;5.811;11.213;-2.906
6472650.369;-90.562;-123.866;-100.471;-29.802;-129.007;1.229;4.843;-5.662
6472650.377;-108.220;-151.023;-117.235;-60.238;-141.338;-5.476;-2.868;-10.617
6472650.385;-121.072;-171.028;-131.950;-60.573;-150.986;-1.490;2.719;-6.892
6472650.393;-103.563;-129.454;-109.933;-25.705;-134.557;6.557;12.331;-0.149
6472650.401;-103.861;-136.122;-117.756;-38.706;-144.765;4.135;8.978;1.006
6472650.409;-120.625;-165.664;-132.285;-59.344;-160.672;-5.029;3.017;-8.084
6472650.417;-130.944;-172.891;-141.636;-71.749;-163.466;-4.023;1.565;-8.829
6472650.425;-123.531;-166.893;-144.765;-60.722;-156.797;0.484;2.049;-5.513
6472650.433;-120.699;-159.070;-135.265;-57.630;-151.284;-4.768;-4.992;-10.990
6472650.441;-120.178;-154.898;-133.887;-57.407;-154.860;-3.353;-1.043;-9.462
6472650.449;-129.268;-175.200;-143.461;-60.461;-157.766;0.447;4.843;-8.009
6472650.457;-150.464;-192.635;-163.652;-71.824;-178.404;0.373;4.396;-8.270
6472650.465;-139.438;-173.040;-153.892;-68.843;-179.708;-0.559;2.012;-6.594
6472650.473;-129.230;-164.174;-142.865;-64.559;-159.293;-4.061;-2.347;-6.519
6472650.481;-145.994;-190.027;-160.411;-77.300;-174.604;-10.841;-11.772;-10.766
6472650.489;-159.964;-206.493;-169.501;-85.011;-182.055;-8.903;-10.282;-11.213
6472650.497;-148.490;-175.461;-181.235;-75.810;-184.961;-7.488;-6.892;-11.139
6472650.505;-150.725;-173.636;-181.720;-76.927;-186.339;-9.350;-7.264;-13.411
6472650.513;-160.001;-186.265;-169.389;-73.649;-182.018;-8.196;-5.700;-12.927
6472650.521;-171.140;-201.948;-175.908;-77.114;-187.904;-13.486;-12.144;-18.738
6472650.529;-165.291;-205.152;-184.588;-91.493;-181.161;-20.266;-20.191;-25.630
6472650.537;-157.058;-191.927;-171.550;-82.031;-179.000;-19.334;-22.314;-26.040
6472650.545;-161.976;-183.508;-187.084;-76.592;-185.780;-12.293;-18.291;-20.303
6472650.553;-167.564;-191.852;-185.557;-79.907;-191.033;-1.900;-8.978;-8.978
6472650.609;-168.793;-190.698;-181.086;-80.839;-187.941;3.055;-2.831;-4.880
6472650.617;-170.395;-193.752;-187.941;-85.458;-187.866;5.774;2.533;-6.072
6472650.625;-165.813;-192.039;-181.571;-86.427;-184.290;4.582;-0.224;-8.494
6472650.633;-164.025;-199.601;-181.906;-86.948;-185.482;-2.906;-7.674;-13.299
6472650.641;-169.501;-203.550;-182.129;-88.774;-178.106;-7.749;-7.749;-16.540
6472650.649;-170.320;-184.178;-179.932;-83.223;-175.014;-14.603;-13.709;-24.028
6472650.657;-163.540;-178.702;-186.078;-76.443;-183.284;-20.266;-21.011;-27.381
6472650.665;-170.283;-186.414;-191.666;-78.864;-187.196;-16.764;-19.260;-22.948
6472650.673;-170.283;-207.461;-186.525;-84.713;-179.037;-7.302;-9.947;-14.529
6472650.681;-179.484;-207.052;-193.641;-87.544;-187.829;-8.903;-10.878;-15.646
6472650.689;-175.461;-182.688;-184.402;-79.125;-177.585;-3.241;-5.476;-8.270
6472650.697;-166.520;-178.590;-182.278;-81.100;-167.862;-2.868;-6.109;-8.121
6472650.705;-169.501;-189.357;-185.482;-86.352;-168.867;-10.356;-15.236;-13.150
6472650.713;-178.479;-193.715;-190.996;-85.942;-175.722;-7.935;-11.101;-10.915
6472650.721;-184.849;-198.446;-191.741;-92.834;-176.094;-10.766;-14.566;-17.174
6472650.729;-185.408;-203.177;-194.050;-85.235;-173.226;-8.456;-14.678;-15.721
6472650.737;-179.149;-190.549;-188.053;-80.727;-171.997;-7.004;-13.337;-15.944
6472650.745;-170.060;-182.539;-179.261;-68.285;-157.543;-1.490;-8.196;-11.101
6472650.753;-149.719;-160.784;-169.463;-60.759;-143.647;0.037;-4.843;-9.350
6472650.761;-156.760;-165.738;-169.091;-63.293;-136.830;-7.153;-10.990;-14.119
6472650.769;-166.297;-172.555;-161.529;-74.431;-141.077;-18.515;-23.358;-21.756
6472650.777;-163.279;-169.761;-158.548;-61.393;-146.143;-21.830;-25.108;-24.289
6472650.785;-172.481;-176.281;-161.938;-59.344;-142.381;-22.985;-25.518;-25.034
6472650.793;-174.642;-182.465;-174.940;-72.271;-148.974;-29.579;-30.287;-31.032
6472650.834;-167.489;-155.568;-165.179;-67.763;-147.745;-28.983;-27.418;-34.012
6472650.842;-163.503;-156.984;-169.724;-64.373;-146.255;-27.530;-28.014;-33.490
6472650.850;-173.524;-172.369;-165.850;-63.814;-140.741;-25.406;-28.908;-30.361
6472650.858;-161.156;-156.909;-153.035;-57.630;-136.942;-28.387;-33.528;-31.255
6472650.866;-163.093;-153.892;-159.554;-53.272;-138.618;-30.100;-34.757;-31.479
6472650.874;-165.515;-155.270;-165.291;-51.036;-140.406;-23.283;-26.189;-24.326
6472650.882;-169.203;-161.417;-167.340;-53.421;-144.243;-21.905;-23.469;-22.687
6472650.890;-164.174;-153.407;-156.537;-44.070;-129.454;-26.673;-26.859;-28.238
6472650.898;-160.374;-142.753;-150.315;-42.506;-118.986;-28.946;-29.393;-32.708
6472650.906;-158.437;-148.118;-153.407;-39.116;-122.115;-26.003;-26.301;-31.218
6472650.914;-153.482;-145.361;-155.121;-35.278;-128.262;-26.338;-27.232;-29.132
6472650.922;-148.714;-135.824;-145.063;-34.571;-127.554;-28.126;-32.149;-30.957
6472650.930;-146.218;-135.191;-145.435;-36.284;-129.081;-24.103;-30.361;-26.226
6472650.938;-144.280;-128.523;-153.407;-33.155;-140.108;-21.905;-25.332;-22.203
6472650.946;-145.100;-132.471;-140.518;-28.312;-120.141;-19.744;-19.372;-21.048
6472650.954;-128.523;-122.450;-122.823;-11.995;-101.440;-10.543;-9.388;-13.746
6472650.962;-130.199;-121.184;-133.403;-15.646;-116.043;-13.746;-12.591;-19.670
6472650.970;-135.563;-115.857;-137.612;-14.156;-116.266;-16.727;-16.876;-22.613
6472650.978;-146.590;-123.717;-146.069;-20.228;-122.674;-18.924;-21.234;-23.767
6472650.986;-143.126;-120.997;-146.143;-21.197;-120.886;-23.097;-25.406;-28.349
6472650.994;-152.737;-131.316;-151.396;-29.840;-126.250;-29.728;-30.510;-33.379
6472651.002;-149.533;-116.751;-142.865;-12.554;-124.462;-19.073;-18.105;-22.762
6472651.010;-154.935;-131.167;-146.069;-23.842;-126.474;-22.054;-20.489;-25.406
6472651.018;-149.906;-113.845;-143.945;-15.832;-118.949;-22.091;-20.638;-26.114
6472651.029;-153.035;-105.463;-156.015;-13.076;-129.938;-24.959;-24.736;-29.542
6472651.037;-169.426;-133.812;-169.240;-36.471;-136.457;-25.369;-27.083;-25.071
6472651.045;-158.623;-126.995;-143.312;-19.856;-118.501;-20.787;-24.065;-18.254
6472651.053;-160.336;-124.201;-135.638;-17.285;-113.808;-27.530;-26.301;-28.051
6472651.061;-147.000;-102.073;-135.675;2.347;-106.059;-24.103;-21.756;-23.916
6472651.069;-150.949;-115.037;-133.589;-5.625;-100.583;-28.796;-23.693;-29.616
6472651.077;-167.079;-128.113;-146.590;-22.240;-113.137;-28.051;-22.128;-28.349
6472651.085;-171.289;-110.790;-158.735;-22.165;-128.597;-30.547;-27.642;-26.897
6472651.093;-127.032;-60.387;-120.439;22.314;-101.812;-35.502;-31.814;-31.441
6472651.101;-101.626;-44.294;-96.895;46.827;-92.834;-34.682;-27.530;-32.298
6472651.109;-67.502;-13.970;-61.244;86.091;-62.920;-31.181;-21.234;-30.547
6472651.117;-35.577;37.886;-18.924;118.539;-27.381;-31.032;-21.234;-28.871
6472651.125;0.484;89.034;6.035;161.231;-23.507;-24.550;-15.385;-21.979
6472651.133;-9.798;75.772;-6.184;160.076;-34.422;-19.073;-10.543;-17.509
6472651.141;-36.098;37.029;-27.940;141.636;-52.340;-11.437;-2.421;-7.972
6472651.149;-37.849;27.120;-39.451;134.297;-57.742;-8.270;1.080;-2.608
6472651.157;-55.730;25.965;-39.116;125.021;-67.279;-8.531;2.459;-4.619
6472651.165;-75.437;10.580;-48.652;115.521;-62.063;-12.554;-3.129;-5.551
6472651.173;-58.338;18.962;-57.444;122.041;-57.779;-12.964;-0.410;-5.327
6472651.181;-59.791;4.731;-52.415;116.602;-59.344;-11.884;4.768;-8.978
6472651.189;-68.545;8.158;-50.142;118.613;-63.218;-7.749;6.966;-5.476
6472651.197;-77.896;3.092;-69.775;108.220;-77.337;-14.827;-5.625;-9.425
6472651.205;-90.711;-16.242;-87.507;94.324;-96.485;-15.385;-8.866;-8.196
6472651.213;-96.485;-24.699;-85.123;94.697;-84.303;-12.591;-2.570;-2.496
6472651.195;-96.112;-31.814;-89.034;82.329;-86.799;-22.277;-8.643;-9.798
6472651.203;-107.214;-36.135;-100.397;77.151;-96.411;-25.332;-9.015;-15.087
6472651.211;-109.188;-29.691;-101.738;80.615;-94.175;-30.324;-11.660;-21.122
6472651.219;-106.096;-31.255;-95.852;84.452;-89.556;-34.086;-14.901;-27.269
6472651.227;-84.788;-18.850;-79.833;97.007;-75.512;-29.504;-11.623;-22.724
6472651.235;-86.352;-15.981;-86.948;90.152;-77.970;-32.559;-14.119;-24.475
6472651.243;-96.858;-32.000;-89.444;84.825;-86.203;-30.138;-11.772;-20.713
6472651.251;-92.052;-33.118;-87.656;87.023;-79.125;-14.976;0.671;-7.153
6472651.259;-87.172;-23.842;-91.791;90.748;-74.767;-14.007;0.671;-8.717
6472651.267;-96.522;-24.512;-101.216;81.249;-83.037;-18.664;-5.066;-12.293
6472651.275;-123.717;-65.714;-126.921;57.518;-109.412;-23.395;-9.313;-13.933
6472651.283;-127.926;-62.063;-138.655;56.773;-122.897;-22.836;-8.419;-10.952
6472651.291;-91.381;-24.922;-85.719;77.859;-78.082;-22.165;-7.898;-10.580
6472651.299;-96.075;-37.961;-89.705;77.076;-75.698;-20.713;-5.737;-8.345
6472651.307;-111.274;-58.264;-115.857;68.173;-84.043;-25.108;-8.978;-11.139
6472651.315;-95.069;-37.141;-115.260;66.534;-86.352;-32.187;-16.727;-18.068
6472651.323;-106.208;-39.972;-106.990;62.510;-93.542;-36.843;-18.068;-22.501
6472651.331;-98.869;-51.931;-98.944;64.932;-83.409;-38.147;-15.981;-23.916
6472651.339;-106.618;-69.216;-102.334;57.854;-75.363;-37.663;-24.028;-22.575
6472651.347;-96.373;-43.362;-118.054;51.521;-86.203;-30.622;-21.160;-17.285
6472651.355;-95.740;-38.296;-117.905;43.698;-92.797;-31.814;-22.165;-18.328
6472651.363;-111.051;-58.524;-122.935;46.380;-91.456;-31.553;-20.601;-16.838
6472651.371;-119.843;-73.537;-118.017;36.247;-88.811;-34.273;-21.718;-20.117
6472651.379;-117.905;-81.733;-114.962;22.911;-80.466;-34.124;-22.799;-18.775
6472651.434;-98.683;-56.587;-104.867;33.043;-66.943;-31.218;-18.999;-16.019
6472651.442;-102.669;-58.189;-105.873;31.963;-62.138;-30.398;-18.999;-15.795
6472651.450;-113.063;-80.355;-126.250;22.464;-75.772;-31.665;-23.171;-17.025
6472651.458;-108.629;-64.559;-108.518;26.338;-66.571;-27.418;-18.105;-14.156
6472651.466;-105.277;-63.591;-107.363;24.103;-72.233;-23.618;-15.274;-9.760
6472651.474;-111.498;-80.317;-113.472;13.970;-77.598;-25.183;-18.515;-10.729
6472651.482;-113.994;-76.294;-112.839;18.775;-70.445;-21.756;-16.019;-8.941
6472651.490;-95.740;-58.115;-104.345;27.232;-63.367;-18.887;-13.933;-8.680
6472651.498;-89.705;-52.378;-100.397;29.430;-59.307;-17.770;-12.033;-8.158
6472651.506;-95.852;-48.578;-91.307;30.808;-50.925;-19.260;-15.162;-8.196
6472651.514;-97.081;-59.344;-104.867;25.332;-54.687;-18.328;-14.231;-7.041
6472651.522;-95.293;-60.499;-111.014;24.028;-69.998;-22.948;-18.440;-9.872
6472651.530;-104.792;-71.749;-105.761;15.758;-75.251;-33.453;-26.785;-16.205
6472651.538;-121.072;-95.107;-117.049;-3.166;-79.870;-45.486;-39.190;-24.065
6472651.546;-114.478;-92.350;-123.605;0.186;-88.662;-41.388;-36.433;-20.154
6472651.554;-112.914;-72.755;-128.113;-0.335;-88.401;-35.912;-30.510;-17.099
6472651.562;-112.988;-76.666;-115.596;2.719;-63.479;-36.359;-28.312;-17.956
6472651.570;-101.887;-73.202;-109.226;5.364;-59.754;-35.614;-27.679;-19.111
6472651.578;-117.794;-88.401;-112.914;1.080;-69.663;-35.018;-27.381;-21.905
6472651.586;-109.300;-76.108;-110.865;-0.745;-65.640;-35.465;-28.685;-23.171
6472651.594;-90.897;-56.848;-97.416;5.551;-53.570;-33.267;-26.673;-22.016
6472651.602;-103.489;-77.076;-103.824;1.341;-60.648;-35.875;-29.802;-23.060
6472651.610;-108.629;-81.435;-115.037;2.868;-66.645;-37.067;-31.851;-24.699
6472651.618;-96.448;-67.502;-108.555;5.960;-61.765;-36.471;-32.410;-24.252
6472651.629;-88.662;-73.686;-91.270;0.969;-61.728;-33.900;-30.659;-21.569
6472651.637;-90.748;-77.933;-87.693;-0.186;-52.936;-25.518;-24.401;-13.895
6472651.645;-103.563;-78.790;-111.759;2.645;-62.734;-26.859;-25.071;-14.827
6472651.653;-97.007;-63.777;-114.180;0.671;-72.941;-32.671;-28.312;-19.409
6472651.661;-86.613;-57.667;-82.813;11.437;-43.660;-31.739;-26.859;-18.887
6472651.669;-95.405;-73.910;-93.579;2.161;-61.616;-32.224;-30.585;-20.005
6472651.677;-92.201;-77.561;-103.675;-7.264;-66.794;-35.353;-36.433;-23.171
6472651.685;-81.360;-64.299;-92.275;2.496;-48.131;-33.081;-32.894;-21.122
6472651.693;-78.380;-60.312;-83.856;6.966;-40.270;-30.994;-34.943;-17.099
6472651.701;-66.347;-39.786;-57.556;12.219;-13.523;-32.298;-39.712;-20.117
6472651.709;-46.864;-5.290;-44.927;44.256;13.746;-32.037;-36.508;-22.054
6472651.717;2.868;44.145;8.605;85.905;81.137;-25.816;-26.450;-16.578
6472651.725;67.987;113.137;84.601;137.016;173.002;-23.842;-24.624;-12.480
6472651.733;155.158;211.783;178.739;201.166;276.454;-23.358;-28.946;-9.313
6472651.741;242.740;313.558;277.981;263.304;384.971;-13.635;-19.819;1.118
6472651.749;340.007;428.520;374.317;341.684;499.524;-3.465;-9.537;11.250
6472651.757;416.860;519.939;471.585;420.362;591.166;8.978;1.155;20.824
6472651.765;463.128;575.148;522.844;464.991;639.744;16.987;8.307;26.114
6472651.773;488.684;619.404;528.097;496.507;633.113;22.762;16.801;31.106
6472651.781;477.545;603.870;513.718;498.258;611.283;19.893;15.087;29.467
6472651.789;446.327;570.007;482.611;479.706;567.362;18.477;13.262;28.722
6472651.797;397.898;503.585;429.116;447.184;493.079;26.822;23.544;34.720
6472651.805;351.854;443.570;378.527;414.625;424.460;26.636;26.487;31.851
6472651.813;317.432;407.174;334.196;381.544;369.847;17.956;20.042;21.048
6472651.855;271.425;343.546;287.704;333.451;312.664;11.809;9.984;14.082
6472651.863;233.948;286.028;249.110;296.757;267.848;13.709;10.282;15.944
6472651.871;206.009;254.475;214.502;279.136;231.154;11.474;11.995;14.044
6472651.879;182.465;236.034;185.929;255.555;201.873;3.837;3.837;9.015
6472651.887;154.711;199.080;161.231;227.839;172.332;-4.359;-5.290;4.210
6472651.895;131.018;169.650;135.973;213.608;141.822;-2.980;-2.906;3.986
6472651.903;124.313;163.838;123.493;210.516;130.944;6.035;5.402;8.047
6472651.911;115.745;154.823;120.066;205.003;129.752;10.058;9.201;9.760
6472651.919;82.739;118.166;91.903;180.602;93.840;3.055;0.671;1.080
6472651.927;58.152;86.874;55.805;160.076;52.005;0.410;-3.725;-2.086
6472651.935;54.874;82.888;46.492;152.364;42.319;3.278;-2.123;2.831
6472651.943;30.100;68.396;36.135;133.216;34.086;-0.559;-6.855;2.384
6472651.951;20.228;58.562;31.143;132.099;20.415;0.149;-8.792;1.229
6472651.959;23.544;64.485;23.916;137.761;17.621;-1.825;-8.866;-1.341
6472651.967;8.978;41.462;0.894;126.585;-4.582;-4.508;-8.941;-3.725
6472651.975;-0.559;33.304;-1.118;112.914;-4.359;-6.482;-11.660;-5.886
6472651.983;6.258;41.984;11.027;104.830;-13.821;-5.029;-12.703;-5.662
6472651.991;5.364;28.275;15.572;112.765;-5.700;6.147;-2.086;4.098
6472651.999;-0.186;26.301;-0.969;119.060;-21.234;2.570;-6.258;1.602
6472652.007;-13.895;21.905;-17.770;105.575;-27.455;-7.339;-13.523;-6.519
6472652.015;-20.936;17.807;-33.267;102.036;-36.694;-2.049;-3.502;-1.155
6472652.023;-21.122;25.071;-20.675;102.632;-41.351;1.192;0.522;2.012
6472652.031;-11.027;19.334;-6.817;96.224;-24.848;1.080;-1.937;1.378
6472652.039;-19.707;-3.017;-6.668;89.817;-26.152;5.960;0.484;2.310
6472652.094;-15.683;8.196;-18.440;95.032;-34.459;12.256;7.227;5.774
6472652.102;-18.962;11.288;-36.210;89.593;-41.798;7.637;2.384;6.072
6472652.110;-39.227;-21.495;-40.047;67.465;-53.383;-4.694;-11.921;-2.719
6472652.118;-46.566;-23.209;-45.039;68.955;-59.232;-11.586;-20.154;-10.431
6472652.126;-36.880;-5.439;-36.806;80.504;-56.289;-8.307;-16.913;-10.394
6472652.134;-41.090;-19.670;-43.996;75.251;-57.146;-6.407;-14.119;-10.207
6472652.142;-26.040;-6.035;-38.631;75.288;-44.033;-5.774;-14.566;-11.809
6472652.150;-41.351;-14.603;-54.128;74.394;-57.518;-1.788;-11.846;-9.686
6472652.158;-27.232;-1.527;-26.003;77.225;-44.294;2.049;-7.376;-2.831
6472652.166;-8.270;5.849;-10.394;80.504;-33.043;-0.931;-11.027;-1.416
6472652.174;-33.155;-22.277;-37.067;64.597;-46.119;-10.617;-23.693;-8.531
6472652.182;-41.239;-31.777;-48.988;55.581;-56.736;-11.362;-23.581;-11.995
6472652.190;-44.703;-37.588;-50.552;58.636;-59.083;-10.170;-19.297;-10.207
6472652.198;-47.907;-26.971;-58.562;62.138;-59.605;-9.574;-15.162;-9.984
6472652.206;-42.059;-21.644;-60.014;59.977;-62.250;-13.411;-19.409;-16.242
6472652.214;-45.300;-23.432;-56.662;53.793;-59.344;-10.170;-20.117;-14.529
6472652.222;-48.801;-38.110;-58.711;50.962;-55.917;-5.662;-15.832;-8.158
6472652.230;-44.703;-37.216;-60.163;54.166;-49.062;0.112;-11.809;2.906
6472652.238;-36.508;-21.569;-45.151;58.226;-40.270;2.980;-9.835;4.284
6472652.246;-40.643;-24.550;-43.400;61.318;-39.861;3.837;-6.557;-1.080
6472652.254;-39.414;-27.232;-44.927;63.330;-39.972;-4.359;-15.199;-8.605
6472652.262;-41.649;-9.760;-49.584;60.648;-39.302;-12.890;-25.146;-14.678
6472652.270;-42.431;-22.687;-53.793;53.495;-37.663;-10.319;-23.842;-12.405
6472652.278;-33.267;-10.505;-53.123;61.691;-40.717;-2.533;-15.870;-7.115
6472652.393;-22.762;1.825;-36.322;75.325;-28.796;4.657;-7.153;-2.757
6472652.401;-29.244;-11.884;-33.714;66.534;-26.636;4.023;-8.605;-2.980
6472652.409;-40.494;-28.424;-39.935;59.903;-34.943;6.482;-5.439;-0.745
6472652.417;-37.663;-16.838;-43.474;69.626;-35.912;6.519;-3.651;0.745
6472652.425;-27.008;1.825;-38.445;73.649;-33.528;-2.384;-13.150;-6.109
6472652.433;-34.943;-14.342;-48.168;65.826;-39.972;-13.523;-27.195;-14.529
6472652.441;-33.565;-9.239;-38.706;68.136;-28.349;-13.299;-25.928;-13.113
6472652.449;-20.638;5.402;-25.257;76.108;-13.486;-0.224;-9.835;-4.098
6472652.457;-25.555;1.676;-34.310;70.073;-19.707;1.565;-8.605;-5.253
6472652.465;-22.501;0.708;-27.008;68.098;-13.299;-0.075;-10.394;-9.276
6472652.473;-28.200;1.863;-33.416;66.571;-21.048;0.149;-8.792;-9.090
6472652.481;-44.703;-23.469;-53.495;55.917;-39.898;-4.396;-17.099;-9.947
6472652.489;-47.572;-12.219;-56.960;53.942;-34.682;-15.162;-28.238;-18.030
6472652.497;-39.078;-5.662;-39.116;57.220;-12.927;-14.305;-25.928;-18.664
6472652.505;-37.290;-15.423;-35.986;58.711;-21.271;-9.909;-19.930;-11.474
6472652.513;-37.886;-9.015;-36.098;53.905;-30.249;-17.732;-24.922;-17.434
6472652.521;-54.725;-25.295;-61.393;41.276;-56.066;-22.501;-28.126;-23.358
6472652.529;-60.648;-25.295;-75.996;44.182;-58.338;-24.512;-30.138;-27.828
6472652.537;-40.755;-3.986;-45.486;51.782;-27.493;-23.581;-30.473;-28.722
6472652.545;-38.259;-9.686;-42.841;54.911;-25.406;-16.578;-25.220;-21.271
6472652.553;-34.198;-12.629;-24.922;54.985;-21.122;-22.128;-34.831;-23.358
6472652.561;-22.054;5.029;-31.367;59.828;-26.114;-24.214;-36.769;-22.687
6472652.569;-29.318;1.118;-39.041;58.860;-29.132;-19.260;-27.977;-19.409
6472652.577;-42.729;-9.201;-64.299;49.993;-46.305;-25.146;-29.057;-25.406
6472652.620;-52.303;-21.495;-64.485;43.921;-50.478;-25.146;-26.226;-26.226
6472652.628;-61.095;-23.767;-63.106;42.990;-51.782;-17.248;-19.968;-21.122
6472652.636;-52.601;-20.713;-59.791;43.660;-53.830;-13.262;-18.589;-17.434
6472652.644;-43.102;-24.028;-58.115;36.508;-54.948;-18.440;-24.438;-22.165
6472652.652;-50.776;-28.536;-57.593;34.608;-49.248;-16.131;-22.724;-20.750
6472652.660;-41.872;-5.662;-45.486;45.970;-31.739;-13.188;-18.030;-16.205
6472652.668;-39.153;-8.531;-51.521;50.552;-38.408;-19.670;-24.810;-18.701
6472652.676;-46.715;-20.005;-70.482;42.804;-52.452;-25.406;-31.553;-20.266
6472652.684;-57.444;-32.745;-71.749;29.169;-45.039;-27.716;-33.937;-24.587
6472652.692;-57.518;-26.748;-67.130;28.461;-53.719;-23.246;-29.244;-23.954
6472652.700;-54.576;-33.677;-65.342;28.387;-58.189;-17.397;-25.108;-18.477
6472652.708;-57.295;-21.383;-60.946;29.951;-51.148;-19.111;-26.934;-17.099
6472652.716;-46.529;-13.039;-50.664;36.247;-39.004;-18.515;-23.879;-15.870
6472652.724;-43.623;-16.056;-51.707;42.990;-23.805;-23.283;-20.489;-23.171
6472652.732;-14.007;19.893;-29.132;66.310;-6.706;-29.206;-21.048;-26.487
6472652.740;-0.075;43.251;-12.144;81.174;31.106;-35.465;-27.791;-27.120
6472652.748;8.270;52.825;15.721;91.568;61.542;-36.359;-36.098;-25.295
6472652.756;65.155;124.872;79.237;139.400;137.538;-19.073;-25.257;-9.611
6472652.764;139.885;210.218;174.120;203.848;245.422;6.557;-2.459;13.411
6472652.772;207.275;282.824;259.392;256.188;344.738;12.219;2.384;17.732
6472652.780;304.021;401.661;359.379;335.537;450.127;19.222;12.927;23.730
6472652.788;398.345;527.576;443.347;423.752;528.209;26.561;28.871;30.436
6472652.796;438.206;574.850;484.139;458.732;566.915;30.063;39.823;30.920
6472652.804;469.349;605.509;520.498;485.070;598.244;24.810;34.794;21.011
6472652.845;486.970;629.984;533.089;495.389;617.430;16.652;19.744;14.938
6472652.853;456.125;589.266;503.473;470.541;585.914;10.394;6.929;16.950
6472652.861;403.784;540.838;446.439;429.116;526.346;4.955;-0.410;16.801
6472652.869;357.144;479.966;390.932;375.211;465.661;1.416;-1.416;14.454
6472652.877;293.516;403.374;325.516;315.458;399.165;6.035;5.700;14.231
6472652.885;241.473;339.262;270.121;261.962;339.933;11.697;13.299;13.672
6472652.893;221.953;284.910;243.001;208.132;310.056;10.878;14.007;10.096
6472652.901;185.147;236.221;203.811;163.764;278.093;1.714;6.966;4.023
6472652.909;142.865;179.559;161.156;127.070;235.550;-16.727;-9.909;-8.009
6472652.917;103.898;136.681;120.960;80.578;188.090;-29.355;-23.879;-16.429
6472652.925;64.075;93.170;70.967;45.002;139.512;-28.424;-25.108;-13.225
6472652.933;18.068;40.680;14.417;13.001;93.132;-30.212;-28.946;-12.033
6472652.941;1.863;20.228;14.678;-9.611;77.225;-30.845;-32.820;-11.511
6472652.949;-11.697;17.434;8.345;-17.248;55.879;-33.602;-34.943;-13.970
6472652.957;-25.965;-1.267;-14.678;-27.753;48.168;-43.586;-39.786;-24.065
6472652.965;-40.531;-24.997;-29.914;-38.072;36.545;-49.993;-43.213;-32.708
6472652.973;-61.393;-50.291;-57.742;-54.054;8.345;-49.062;-40.568;-34.645
6472652.981;-68.881;-57.183;-70.333;-62.510;-11.735;-44.294;-37.402;-30.287
6472652.989;-77.114;-62.846;-74.990;-68.881;-21.309;-39.563;-39.712;-22.911
6472652.997;-96.187;-80.951;-93.244;-80.168;-32.820;-29.728;-35.837;-11.884
6472653.005;-112.429;-99.503;-116.639;-87.842;-53.197;-23.991;-30.808;-3.241
6472653.013;-112.541;-91.605;-122.935;-90.562;-61.467;-29.691;-32.037;-7.823
6472653.021;-120.401;-105.985;-113.100;-97.454;-59.530;-40.978;-37.029;-17.956
6472653.029;-130.348;-118.241;-130.795;-113.808;-71.302;-48.131;-39.153;-23.730
6472653.128;-143.237;-124.611;-148.416;-116.453;-87.842;-53.942;-40.308;-30.212
6472653.136;-149.272;-128.262;-150.204;-121.370;-96.709;-60.536;-43.772;-38.259
6472653.144;-143.535;-119.023;-140.518;-117.533;-79.460;-51.074;-35.949;-30.026
6472653.152;-147.820;-125.542;-149.608;-118.837;-91.493;-39.749;-26.897;-21.122
6472653.160;-149.272;-130.385;-148.416;-120.886;-95.032;-26.077;-14.193;-8.605
6472653.168;-147.298;-128.746;-146.553;-121.966;-93.058;-31.404;-18.515;-9.723
6472653.176;-160.113;-146.888;-165.217;-135.079;-106.730;-47.311;-32.969;-20.973
6472653.184;-171.177;-152.327;-177.659;-138.842;-115.521;-54.389;-37.588;-26.897
6472653.192;-170.022;-140.704;-173.263;-138.916;-110.082;-52.489;-33.081;-25.705
6472653.200;-156.723;-126.176;-160.299;-132.099;-100.397;-47.907;-26.673;-23.730
6472653.208;-147.596;-119.731;-151.843;-131.540;-93.915;-43.623;-21.458;-19.334
6472653.216;-143.237;-119.731;-146.441;-135.116;-90.189;-37.290;-17.323;-13.039
6472653.224;-146.180;-120.923;-152.104;-133.254;-84.937;-37.886;-20.936;-11.735
6472653.232;-140.257;-117.682;-145.733;-125.803;-77.933;-37.253;-22.091;-10.617
6472653.240;-134.856;-111.759;-135.750;-120.252;-65.863;-38.147;-23.544;-9.947
6472653.248;-124.127;-81.845;-127.219;-101.477;-42.468;-41.351;-24.736;-9.537
6472653.256;-73.835;-16.987;-70.482;-63.814;-1.267;-41.835;-21.383;-9.537
6472653.264;-26.003;42.617;-25.406;-19.334;59.605;-42.133;-17.993;-12.554
6472653.272;47.609;125.021;45.076;48.690;159.256;-35.539;-9.686;-8.158
6472653.280;119.023;213.720;151.284;101.700;255.033;-32.075;-7.488;-3.688
6472653.288;198.334;310.056;235.550;167.340;339.113;-32.596;-9.239;-1.602
6472653.296;262.894;385.158;295.080;219.755;406.541;-33.118;-9.798;0.522
6472653.304;306.405;433.028;335.984;262.856;445.433;-28.424;-6.407;6.109
6472653.312;329.204;472.441;364.371;289.679;471.622;-26.375;-4.470;8.978
6472653.326;368.394;521.801;392.906;327.528;484.511;-17.285;5.066;16.503
6472653.334;388.362;577.569;403.635;355.393;494.607;-12.591;10.952;16.727
6472653.342;390.857;570.826;415.146;362.806;503.473;-7.227;19.670;20.266
6472653.350;404.567;576.377;435.747;373.460;514.016;-0.373;27.679;28.089
6472653.358;418.089;602.044;439.845;375.435;508.800;0.894;29.504;29.691
6472653.366;411.198;587.180;432.134;372.156;497.215;5.290;33.416;32.336
6472653.374;401.177;575.185;420.772;376.403;481.457;13.560;38.892;40.792
6472653.382;375.845;555.441;397.600;362.732;452.362;7.190;30.696;36.620
6472653.390;353.716;526.346;371.784;334.419;425.279;5.700;30.324;32.634
6472653.398;326.522;477.657;351.556;297.427;395.328;8.792;33.341;31.590
6472653.406;285.916;427.477;293.627;250.824;337.213;9.947;36.433;31.851
6472653.414;243.261;375.547;254.624;205.003;294.484;4.396;32.596;26.822
6472653.422;219.867;337.251;237.264;185.966;282.042;-6.966;21.942;17.099
6472653.430;196.546;297.949;200.868;149.310;230.968;-14.715;12.591;11.437
6472653.438;154.711;233.985;160.076;96.671;189.394;-19.670;5.737;5.215
6472653.446;119.731;201.538;115.670;65.044;133.328;-19.409;5.998;4.582
6472653.454;105.575;186.414;94.287;59.865;104.085;-15.087;13.784;7.637
6472653.462;84.639;156.760;93.803;40.121;110.753;-15.311;15.385;4.619
6472653.470;78.529;145.659;75.437;24.326;76.890;-14.454;13.560;4.582
6472653.478;46.268;108.331;36.694;-1.825;35.167;-16.578;6.780;5.178
6472653.486;35.241;75.325;17.770;-30.585;15.944;-20.415;1.788;4.582
6472653.494;18.962;58.785;8.978;-37.700;0.596;-16.689;4.210;9.537
6472653.502;15.087;56.736;-2.310;-36.694;-12.219;-9.201;11.921;17.621
6472653.510;5.662;54.687;-15.385;-43.549;-27.120;-1.267;23.097;22.128
6472653.550;-4.135;32.894;-21.085;-45.970;-46.007;-0.224;28.946;16.466
6472653.558;-7.525;10.394;-29.691;-53.495;-43.288;3.465;36.173;15.870
6472653.566;-25.742;-17.248;-57.444;-74.059;-69.849;-6.221;22.650;8.084
6472653.574;-54.277;-19.707;-98.161;-91.046;-105.649;-23.618;0.596;-5.960
6472653.582;-66.385;-36.471;-98.310;-114.180;-120.178;-33.416;-13.597;-8.903
6472653.590;-63.814;-55.805;-81.956;-129.454;-122.041;-41.053;-23.730;-11.176
6472653.598;-75.847;-74.655;-103.265;-134.595;-135.191;-34.347;-16.391;-3.725
6472653.606;-85.495;-87.135;-123.084;-135.414;-145.026;-22.426;-0.075;5.476
6472653.614;-90.450;-83.148;-137.947;-137.165;-148.602;-19.483;6.109;5.476
6472653.622;-87.097;-71.414;-119.954;-139.736;-146.702;-17.919;8.792;5.886
6472653.630;-93.132;-92.201;-117.756;-145.063;-153.631;-14.454;9.425;8.754
6472653.638;-91.605;-95.703;-128.746;-143.088;-163.317;-8.345;15.460;11.474
6472653.646;-100.024;-109.412;-156.350;-143.275;-188.164;-5.811;19.185;11.362
6472653.654;-105.463;-115.037;-143.237;-154.935;-182.576;-11.064;14.789;6.594
6472653.662;-113.286;-120.662;-151.396;-164.211;-182.837;-15.348;10.729;2.421
6472653.670;-123.642;-126.250;-167.489;-166.483;-197.403;-12.480;10.207;5.886
6472653.678;-116.825;-117.272;-162.199;-161.193;-189.953;-12.144;6.780;8.345
6472653.686;-116.229;-119.321;-161.752;-157.543;-194.870;-15.832;1.825;2.496
6472653.694;-105.575;-134.222;-143.833;-169.240;-188.500;-15.423;3.800;-1.863
6472653.702;-99.801;-111.945;-128.411;-164.025;-169.873;-13.299;7.562;-2.012
6472653.710;-98.683;-110.567;-130.460;-158.511;-172.071;-12.629;5.737;0.037
6472653.718;-85.048;-106.767;-123.233;-149.012;-170.991;-10.356;4.843;3.763
6472653.726;-78.790;-98.832;-120.290;-151.768;-162.125;-9.313;6.296;7.190
6472653.734;-52.825;-65.230;-86.166;-137.500;-134.222;-9.127;8.270;9.276
6472653.700;-36.620;-61.207;-68.508;-136.383;-114.292;-16.466;3.800;2.012
6472653.708;-38.370;-73.314;-70.035;-142.083;-128.932;-10.394;10.245;6.966
6472653.716;-48.690;-85.495;-86.501;-147.559;-140.257;0.857;19.744;18.142
6472653.724;-49.137;-89.966;-92.126;-151.135;-147.969;4.582;21.793;18.999
6472653.732;-51.521;-95.107;-94.920;-150.576;-145.175;7.451;23.060;17.695
6472653.740;-68.545;-119.954;-108.033;-163.354;-154.003;10.058;23.656;18.217
6472653.748;-71.377;-109.933;-111.908;-164.248;-165.291;11.511;24.810;18.887
6472653.756;-66.869;-99.428;-110.380;-154.451;-163.764;11.064;23.954;19.707
6472653.764;-69.588;-105.463;-108.927;-159.815;-162.907;6.631;18.626;17.807
6472653.772;-84.713;-125.803;-121.184;-173.710;-173.710;0.782;11.697;15.907
6472653.780;-86.054;-130.422;-130.050;-178.590;-179.075;1.602;10.803;17.211
6472653.788;-87.656;-127.628;-131.838;-177.883;-175.461;-3.912;6.557;10.990
6472653.796;-88.848;-120.252;-127.777;-179.224;-173.710;-6.966;1.751;8.419
6472653.804;-92.424;-131.615;-133.961;-183.284;-182.204;-8.084;-1.378;6.296
6472653.812;-95.814;-139.810;-133.254;-185.259;-183.396;-10.319;-2.347;2.608
6472653.820;-100.471;-139.326;-131.652;-185.966;-177.249;-16.689;-5.327;-2.347
6472653.828;-95.330;-134.706;-133.961;-185.743;-177.100;-13.486;0.633;-1.416
6472653.836;-102.781;-141.375;-143.424;-188.388;-188.313;-13.448;1.043;-2.608
6472653.844;-105.351;-150.762;-148.751;-193.939;-184.923;-18.440;-4.023;-7.823
6472653.852;-108.592;-150.651;-151.284;-195.801;-187.308;-18.254;-6.370;-7.823
6472653.860;-115.298;-147.447;-149.533;-199.415;-184.476;-15.870;-6.258;-5.774
6472653.868;-109.747;-143.498;-142.232;-195.727;-183.173;-15.460;-5.811;-4.321
6472653.876;-115.223;-156.835;-150.315;-201.911;-175.387;-15.162;-5.625;-3.166
6472653.884;-107.698;-145.286;-140.816;-190.921;-169.948;-4.917;4.247;4.731
6472653.866;-107.661;-138.022;-131.987;-188.164;-165.589;-3.874;5.439;4.955
6472653.874;-108.778;-131.801;-145.286;-185.519;-167.750;-0.522;9.462;7.860
6472653.882;-94.846;-127.070;-112.206;-176.020;-141.710;-1.118;9.127;7.637
6472653.890;-91.828;-113.137;-108.145;-175.685;-138.395;-2.719;5.960;5.402
6472653.898;-97.156;-114.925;-121.891;-177.175;-146.404;-0.596;6.929;5.700
6472653.906;-90.227;-113.472;-113.733;-174.157;-147.410;-2.645;4.806;4.023
6472653.914;-89.407;-117.980;-111.684;-176.057;-142.008;-9.723;-1.267;-2.496
6472653.922;-101.030;-130.013;-119.582;-180.677;-138.357;-10.841;-2.943;-3.241
6472653.930;-107.028;-139.102;-127.517;-181.608;-144.094;-11.288;-4.657;-1.714
6472653.938;-104.308;-115.111;-127.032;-170.134;-137.277;-10.431;-6.407;0.037
6472653.946;-89.146;-99.912;-96.485;-160.076;-118.054;-6.966;-4.098;3.949
6472653.954;-87.582;-103.600;-94.809;-157.133;-127.219;-9.015;-5.849;2.757
6472653.962;-94.287;-116.453;-115.186;-162.274;-147.559;-11.809;-8.084;-1.118
6472653.970;-92.238;-116.043;-114.776;-161.827;-140.555;-7.264;-1.825;0.931
6472653.978;-93.132;-125.282;-118.688;-162.944;-137.500;-3.539;2.608;2.645
6472653.986;-105.500;-128.597;-119.433;-165.962;-139.326;-5.476;1.416;-0.112
6472653.994;-110.827;-118.017;-119.619;-162.274;-144.988;-10.841;-4.023;-4.433
6472654.002;-78.566;-90.338;-98.310;-147.186;-120.439;-11.623;-6.780;-6.109
6472654.010;-75.772;-93.877;-95.218;-145.622;-126.213;-11.362;-8.345;-7.302
6472654.018;-86.352;-118.762;-99.577;-150.949;-131.652;-8.680;-6.780;-4.061
6472654.026;-79.945;-103.712;-100.434;-141.636;-121.854;2.645;3.688;5.737
6472654.034;-73.947;-72.867;-92.238;-128.411;-120.103;2.086;2.459;5.700
6472654.042;-89.779;-90.636;-101.030;-137.873;-128.597;-9.127;-9.090;-6.221
6472654.050;-74.469;-88.587;-89.407;-139.102;-119.321;-9.574;-6.445;-5.066
6472654.029;-73.798;-103.042;-89.817;-137.351;-119.396;-4.880;0.112;-0.112
6472654.037;-92.350;-115.559;-110.753;-144.690;-140.630;-10.021;-3.800;-9.313
6472654.045;-74.692;-67.875;-95.963;-125.766;-115.559;-11.958;-10.543;-11.809
6472654.053;-71.675;-75.959;-86.650;-128.970;-103.042;-12.703;-14.268;-11.362
6472654.061;-70.520;-77.710;-74.580;-119.172;-108.667;-4.694;-5.662;-2.906
6472654.069;-63.851;-83.633;-84.229;-119.954;-118.390;0.820;-1.155;1.974
6472654.077;-81.025;-108.182;-96.895;-135.526;-123.344;-7.339;-10.617;-6.780
6472654.085;-70.296;-76.704;-77.747;-125.095;-114.106;-12.517;-13.821;-11.884
6472654.093;-53.383;-54.836;-62.697;-109.337;-106.096;-5.700;-5.178;-6.594
6472654.101;-49.733;-56.997;-64.634;-106.245;-97.677;0.633;0.298;-1.043
6472654.109;-58.264;-80.205;-72.569;-113.957;-106.059;2.049;3.278;-1.714
6472654.117;-60.648;-76.927;-76.853;-117.160;-103.302;5.439;7.115;2.272
6472654.125;-65.006;-72.159;-80.094;-114.143;-95.814;3.912;2.421;1.825
6472654.133;-71.377;-85.980;-87.246;-121.184;-112.727;-0.037;-5.141;-1.453
6472654.141;-77.114;-87.470;-85.570;-131.913;-127.703;-1.788;-7.264;-3.278
6472654.149;-80.317;-82.999;-87.023;-132.024;-115.596;-2.533;-7.413;-4.843
6472654.157;-64.857;-76.555;-82.366;-126.995;-107.363;1.378;-4.917;0.112
6472654.165;-62.026;-85.793;-74.655;-132.881;-100.471;2.980;-4.694;0.633
6472654.173;-63.218;-79.498;-62.771;-129.156;-95.144;3.017;-5.662;-1.304
6472654.181;-58.934;-49.546;-61.952;-109.375;-84.303;6.519;-1.192;1.043
6472654.189;-30.659;-23.171;-43.809;-85.905;-63.442;11.027;5.215;5.811
6472654.197;2.496;3.763;-6.109;-58.934;-21.085;5.774;0.373;1.490
6472654.205;45.598;51.819;48.093;-13.411;34.310;7.749;0.447;1.863
6472654.213;109.822;135.079;111.423;50.403;108.704;10.878;3.837;4.694
6472654.180;183.061;236.630;193.939;116.341;211.112;17.099;10.245;9.723
6472654.188;290.051;356.324;298.135;187.159;314.862;28.051;18.403;18.999
6472654.196;392.571;475.347;419.915;264.980;436.269;32.224;21.122;24.587
6472654.204;437.722;527.762;477.396;286.698;512.861;37.737;28.014;29.542
6472654.212;442.639;519.864;473.820;275.187;527.613;29.020;20.564;20.415
6472654.220;411.160;477.843;428.073;240.952;496.097;20.042;12.144;11.101
6472654.228;373.460;435.151;389.777;206.120;457.764;16.615;8.605;9.015
6472654.236;309.050;349.469;324.175;134.669;385.717;9.239;1.192;3.055
6472654.244;248.738;270.754;260.174;63.591;321.865;-4.247;-14.305;-7.898
6472654.252;200.123;208.169;217.073;1.639;276.677;-10.207;-25.705;-10.654
6472654.260;163.689;146.404;182.204;-37.141;237.450;-11.437;-31.032;-11.139
6472654.268;130.162;93.244;145.212;-59.791;196.397;-6.370;-24.661;-7.823
6472654.276;98.124;63.032;109.933;-85.793;167.154;-3.874;-19.893;-6.668
6472654.284;80.280;39.525;83.335;-108.145;135.303;-6.221;-21.495;-11.995
6472654.292;52.117;16.950;53.942;-126.921;92.983;-8.754;-22.203;-15.683
6472654.300;35.614;-1.341;40.047;-141.896;67.614;-16.689;-29.132;-20.973
6472654.308;21.160;-26.487;29.393;-154.339;64.373;-17.658;-31.479;-20.862
6472654.316;5.253;-50.180;7.749;-166.856;44.741;-13.858;-28.834;-17.881
6472654.324;-9.239;-60.871;-6.594;-177.138;31.628;-3.800;-19.111;-7.190
6472654.332;-35.726;-91.083;-50.701;-204.258;-6.184;-4.098;-18.030;-6.855
6472654.340;-57.854;-115.111;-65.826;-219.904;-36.806;-2.533;-15.832;-6.780
6472654.348;-55.693;-110.120;-56.922;-217.892;-33.714;5.253;-9.574;-1.416
6472654.356;-54.985;-106.357;-61.058;-212.081;-33.937;11.697;-5.253;3.092
6472654.364;-63.553;-113.621;-78.790;-215.173;-45.151;6.072;-12.703;-5.625
6472654.406;-69.328;-119.209;-84.341;-223.666;-55.581;-5.737;-24.363;-17.807
6472654.414;-74.767;-139.810;-90.301;-224.821;-63.591;-3.129;-23.022;-15.013
6472654.422;-80.056;-148.937;-105.165;-230.707;-79.274;-10.058;-27.604;-18.142
6472654.430;-90.003;-138.283;-113.808;-233.166;-95.591;-20.750;-33.267;-26.673
6472654.438;-96.038;-150.464;-105.053;-235.066;-85.905;-17.397;-29.318;-24.773
6472654.446;-103.079;-160.858;-115.260;-240.691;-91.605;-12.591;-28.126;-21.383
6472654.454;-108.071;-162.162;-129.528;-247.993;-100.322;-7.749;-26.003;-18.664
6472654.462;-111.535;-168.160;-133.403;-247.248;-97.901;-9.350;-27.828;-19.036
6472654.470;-112.914;-167.266;-133.552;-239.387;-106.767;-9.835;-25.965;-19.595
6472654.478;-104.383;-161.417;-125.058;-234.880;-110.716;-6.333;-20.191;-18.813
6472654.486;-103.787;-162.050;-124.127;-231.452;-110.231;-0.671;-15.311;-15.646
6472654.494;-101.477;-162.832;-119.731;-231.005;-99.726;0.037;-12.703;-13.150
6472654.502;-113.547;-167.415;-132.844;-235.215;-110.194;-6.184;-12.852;-17.770
6472654.510;-121.705;-171.177;-144.057;-231.676;-123.419;-8.158;-19.148;-21.011
6472654.518;-119.545;-172.481;-147.074;-230.148;-129.826;-6.668;-21.942;-21.979
6472654.526;-113.249;-176.281;-136.569;-226.460;-119.023;-3.204;-18.068;-18.850
6472654.534;-113.882;-169.240;-142.381;-232.495;-129.454;3.166;-10.654;-12.293
6472654.542;-114.702;-161.864;-147.000;-234.023;-123.791;7.860;-7.898;-6.594
6472654.550;-86.278;-148.565;-106.581;-218.973;-59.381;8.270;-8.158;-7.711
6472654.558;-71.265;-141.263;-83.521;-245.012;-23.618;2.757;-15.013;-16.578
6472654.566;-59.605;-142.455;-73.165;-267.401;4.806;-7.562;-28.387;-22.352
6472654.574;-55.656;-150.129;-61.691;-303.462;22.240;-19.707;-46.268;-25.146
6472654.582;-49.509;-159.107;-58.338;-339.113;29.206;-25.742;-54.538;-23.656
6472654.590;-62.138;-188.239;-65.230;-371.598;40.494;-40.568;-67.540;-36.657
6472654.555;-66.161;-195.652;-76.853;-394.359;53.011;-52.117;-75.921;-45.486
6472654.563;-64.708;-176.094;-76.033;-394.993;52.303;-57.481;-82.068;-51.260
6472654.571;-78.194;-193.752;-85.756;-406.578;28.573;-57.779;-85.905;-52.564
6472654.579;-82.701;-202.022;-101.551;-400.357;18.775;-42.543;-73.090;-37.886
6472654.587;-68.024;-188.760;-94.846;-381.581;18.142;-24.661;-54.687;-23.954
6472654.595;-57.407;-175.126;-87.805;-367.239;17.025;-17.062;-43.064;-22.687
6472654.603;-52.489;-159.405;-70.445;-358.932;31.851;-16.168;-40.606;-24.401
6472654.611;-54.054;-144.094;-79.349;-354.573;21.905;-16.019;-42.878;-22.985
6472654.619;-47.348;-146.888;-79.088;-340.641;20.489;-6.668;-33.788;-14.715
6472654.627;-50.887;-156.350;-73.984;-341.572;15.944;3.614;-24.289;-6.706
6472654.635;-66.459;-170.954;-89.556;-347.719;-0.447;5.513;-26.599;-3.912
6472654.643;-65.528;-164.248;-84.154;-341.646;7.376;1.155;-32.261;-7.413
6472654.651;-37.290;-137.538;-75.810;-328.943;11.213;0.969;-31.106;-4.210
6472654.659;-50.962;-148.453;-82.478;-341.758;2.198;-15.572;-45.449;-17.285
6472654.667;-59.791;-150.725;-83.260;-339.672;-4.135;-21.271;-49.621;-22.724
6472654.675;-68.173;-170.991;-99.167;-335.313;-14.529;-20.824;-46.454;-24.401
6472654.683;-71.973;-171.997;-96.001;-337.660;-16.876;-22.501;-47.684;-25.034
6472654.691;-66.087;-165.366;-91.866;-334.717;-23.730;-19.968;-45.523;-21.495
6472654.699;-48.727;-134.446;-87.842;-319.891;-13.076;-10.692;-35.726;-12.852
6472654.707;-41.947;-129.677;-80.690;-307.523;-3.763;-0.820;-25.369;-1.863
6472654.715;-42.766;-142.604;-71.749;-293.814;-0.820;12.517;-11.846;9.686
6472654.723;-43.139;-140.667;-67.279;-298.917;-3.427;10.282;-11.399;3.241
6472654.731;-43.809;-129.789;-73.649;-292.137;-13.746;6.482;-14.007;-0.522
6472654.739;-47.944;-133.887;-80.913;-296.496;-13.262;0.522;-19.372;-6.668
6472654.779;-61.467;-145.771;-104.718;-300.929;-28.275;0.037;-20.079;-8.047
6472654.787;-60.052;-150.949;-93.505;-300.519;-34.384;-2.868;-23.171;-10.468
6472654.795;-54.315;-138.991;-75.735;-299.886;-22.277;-0.224;-19.222;-6.035
6472654.803;-45.411;-132.546;-76.033;-287.853;-14.007;3.204;-19.148;-1.453
6472654.811;-34.124;-113.882;-78.864;-281.669;-11.809;1.155;-21.085;-2.086
6472654.819;-46.194;-132.471;-74.841;-280.887;-10.617;-6.258;-26.375;-10.617
6472654.827;-51.446;-142.157;-74.431;-286.847;-17.993;-10.580;-29.951;-12.815
6472654.835;-47.311;-132.211;-82.850;-285.581;-26.338;-14.342;-35.055;-15.311
6472654.843;-45.039;-129.044;-87.693;-282.042;-23.656;-11.884;-32.261;-15.534
6472654.851;-42.841;-132.993;-73.984;-278.354;-14.827;-10.245;-26.003;-17.583
6472654.859;-58.450;-143.684;-83.223;-288.635;-20.154;-4.321;-22.091;-12.293
6472654.867;-39.749;-120.178;-74.059;-261.627;-18.552;7.413;-13.039;-2.272
6472654.875;-2.272;-82.031;-38.892;-206.083;-5.290;11.735;-8.531;0.149
6472654.883;10.692;-53.458;-23.805;-174.940;-5.066;9.909;-8.382;-2.123
6472654.891;29.914;-13.746;-4.061;-133.850;-3.837;9.276;-6.892;-1.714
6472654.899;46.827;1.825;7.413;-105.016;-9.090;14.715;-1.267;3.539
6472654.907;41.127;-1.304;2.794;-86.762;-25.779;13.523;-0.149;1.006
6472654.915;41.872;3.390;9.127;-64.783;-29.653;11.362;0.857;-0.112
6472654.923;34.980;3.688;-1.155;-66.385;-40.978;6.743;-1.304;-2.794
6472654.931;19.148;-13.411;-20.042;-82.143;-55.917;8.605;0.596;-3.874
6472654.939;6.966;-34.720;-34.198;-89.444;-54.315;9.723;-0.857;-3.427
6472654.947;10.133;-25.518;-19.446;-85.272;-49.993;8.531;-3.688;-3.688
6472654.955;21.756;-7.637;-15.832;-76.815;-46.119;12.591;-0.410;-0.373
6472654.963;18.366;-19.036;-19.893;-80.056;-54.464;15.646;1.788;-0.410
6472655.019;5.662;-21.271;-28.946;-88.811;-55.544;10.580;-1.900;-7.637
6472655.027;3.427;-23.767;-33.043;-92.126;-58.487;6.407;-8.047;-12.480
6472655.035;11.772;-20.266;-23.246;-78.604;-51.111;9.909;-6.072;-9.611
6472655.043;6.743;-22.389;-22.613;-79.162;-37.588;4.098;-13.113;-14.789
6472655.051;13.560;-8.605;-17.881;-72.829;-22.538;1.714;-15.609;-15.199
6472655.059;33.230;26.450;0.782;-50.813;-2.570;-1.825;-12.703;-16.056
6472655.067;30.957;22.762;9.388;-52.899;11.921;-13.448;-20.452;-23.730
6472655.075;45.411;46.454;24.550;-37.029;50.925;-15.125;-18.030;-23.283
6472655.083;90.115;92.834;77.300;-5.700;108.033;-12.554;-15.944;-19.334
6472655.091;156.611;164.397;157.431;46.082;197.478;-3.763;-10.729;-12.442
6472655.099;228.249;240.393;242.069;100.583;293.441;4.992;-7.674;-5.662
6472655.107;287.481;305.623;312.403;143.126;379.905;9.909;-7.264;-0.522
6472655.115;369.363;410.602;396.930;224.896;468.977;18.328;1.155;6.407
6472655.123;446.439;516.064;476.427;303.946;533.052;28.200;15.646;13.560
6472655.131;464.581;548.735;491.887;344.552;527.166;36.024;24.848;18.999
6472655.139;455.454;539.534;475.496;352.934;504.404;39.488;27.306;21.271
6472655.147;434.667;513.606;443.235;352.859;464.618;40.047;30.436;19.595
6472655.155;396.408;466.257;403.784;338.480;388.585;48.466;41.761;27.642
6472655.163;346.974;411.682;344.850;323.988;288.300;51.968;46.268;30.398
6472655.171;308.715;377.521;291.914;302.792;205.822;52.527;46.119;30.026
6472655.179;267.811;329.986;252.835;278.018;169.128;58.003;53.085;31.963
6472655.187;248.514;299.029;229.552;262.521;145.547;58.524;54.091;33.602
6472655.195;219.457;254.624;204.854;232.086;96.895;53.756;48.466;29.951
6472655.203;180.118;205.822;156.537;193.752;49.807;51.856;47.646;25.369
6472655.171;148.863;187.047;121.891;169.352;23.507;58.524;53.048;31.255
6472655.179;122.711;157.133;103.489;145.882;4.321;56.066;46.045;30.324
6472655.187;105.277;124.574;87.917;119.954;-9.872;51.744;38.929;28.498
6472655.195;85.980;96.262;59.530;101.179;-36.918;54.352;41.425;32.708
6472655.203;69.775;78.231;50.217;93.132;-33.602;58.450;47.423;35.651
6472655.211;64.261;84.862;49.733;90.078;-32.634;58.748;49.733;35.353
6472655.219;62.175;82.739;42.021;81.025;-37.886;55.656;45.523;33.416
6472655.227;65.118;66.981;55.917;76.331;-35.949;57.481;47.833;35.837
6472655.235;52.601;55.209;33.639;68.136;-50.701;54.985;46.752;33.788
6472655.243;44.107;51.334;16.242;62.883;-47.684;44.480;41.164;25.332
6472655.251;43.176;47.274;25.481;66.981;-43.698;43.213;41.984;26.412
6472655.259;45.076;53.719;32.820;66.385;-38.035;42.878;41.239;28.126
6472655.267;40.159;44.778;28.796;60.312;-41.090;43.735;41.202;27.753
6472655.275;29.765;31.069;1.527;45.337;-74.394;42.878;38.110;25.891
6472655.283;48.988;44.070;30.510;66.720;-45.039;43.064;38.408;24.810
6472655.291;59.865;53.197;49.695;73.612;-15.013;55.768;51.521;35.651
6472655.299;86.166;82.850;71.786;94.324;-13.337;61.505;55.544;41.649
6472655.307;109.896;110.902;86.725;109.151;-4.992;63.628;53.979;44.182
6472655.315;116.676;110.306;100.918;108.778;18.924;67.428;56.960;47.944
6472655.323;92.797;79.572;92.313;89.332;6.519;59.754;50.366;39.600
6472655.331;76.480;54.426;70.110;77.002;-14.678;54.985;48.354;34.124
6472655.339;78.306;90.748;66.720;87.246;-20.862;52.899;46.566;31.218
6472655.347;72.010;79.758;65.640;85.235;-13.150;56.997;47.237;34.906
6472655.355;70.520;58.040;63.032;81.733;-13.672;64.634;52.005;41.761
6472655.350;72.829;58.152;53.868;81.807;-20.862;69.626;57.183;45.188
6472655.358;76.965;65.491;63.628;85.011;-25.295;75.661;65.491;47.944
6472655.366;81.211;81.770;70.147;95.740;-26.897;84.527;76.406;55.321
6472655.374;84.862;77.449;83.037;95.442;-1.192;81.398;71.824;55.470
6472655.382;70.557;54.128;65.230;78.268;-20.005;70.706;59.083;45.374
6472655.390;55.768;42.096;45.747;64.708;-32.745;62.622;49.360;38.408
6472655.398;66.124;39.227;59.418;62.995;-27.940;63.144;50.366;39.935
6472655.406;64.410;56.438;56.624;68.136;-33.453;63.553;51.744;39.823
6472655.414;67.577;57.630;53.681;67.092;-30.808;65.453;50.999;40.047
6472655.422;79.758;46.641;59.195;70.855;-39.749;72.084;57.369;47.162
6472655.430;75.288;42.655;56.922;71.153;-30.808;77.151;62.063;51.521
6472655.438;79.125;57.556;72.345;74.320;-20.936;77.412;65.602;50.887
6472655.446;75.139;49.993;57.258;69.700;-35.539;73.351;62.846;46.231
6472655.454;68.173;38.669;41.202;60.312;-47.535;70.855;61.952;44.480
6472655.462;75.065;44.443;64.597;63.851;-23.618;70.594;61.169;43.586
6472655.470;85.235;60.685;76.555;68.247;-17.546;66.496;50.999;41.202
6472655.478;79.945;55.246;66.943;64.857;-16.131;61.803;41.835;37.886
6472655.486;69.067;36.508;47.721;55.656;-30.473;61.877;41.090;38.520
6472655.494;69.402;26.897;54.426;51.074;-34.831;65.416;44.256;43.474
6472655.502;75.661;39.600;63.479;52.080;-32.075;61.654;41.313;37.774
6472655.510;69.998;42.282;54.315;55.544;-25.965;58.189;40.047;33.490
6472655.518;82.552;56.811;67.018;61.765;-15.385;56.997;37.514;34.124
6472655.526;80.205;43.437;68.173;58.562;-15.087;55.134;35.688;31.069
6472655.534;71.302;35.204;45.709;48.541;-39.041;53.421;37.029;27.828
6472655.620;74.059;30.547;61.095;51.446;-24.512;58.375;40.829;32.000
6472655.628;74.953;41.388;68.322;48.652;-18.626;63.777;43.549;36.359
6472655.636;79.386;49.733;66.943;57.518;-24.326;61.505;41.649;36.657
6472655.644;84.639;41.313;59.679;59.195;-18.999;64.112;43.437;40.978
6472655.652;67.204;23.060;53.793;46.678;-19.893;63.106;41.462;38.557
6472655.660;68.434;28.983;49.770;44.182;-39.637;63.553;40.643;36.694
6472655.668;87.768;45.747;73.425;52.601;-20.005;65.491;40.829;36.210
6472655.676;89.817;38.706;78.119;50.962;-6.557;68.992;41.611;41.127
6472655.684;69.998;14.342;49.397;34.310;-40.941;66.869;37.476;41.984
6472655.692;62.063;16.019;58.971;31.032;-24.587;57.966;28.089;33.975
6472655.700;77.337;40.904;72.420;36.508;-5.923;56.885;30.473;31.702
6472655.708;81.509;39.376;59.009;41.910;-17.136;64.783;38.557;38.147
6472655.716;78.566;19.595;60.759;37.849;-19.781;63.851;37.476;37.961
6472655.724;79.051;18.179;64.783;36.508;-23.544;56.438;30.696;29.467
6472655.732;80.727;23.842;62.436;42.878;-16.205;58.413;32.000;30.883
6472655.740;77.710;33.677;60.275;44.554;-19.073;61.616;34.310;35.092
6472655.748;81.062;42.506;63.889;45.411;-16.280;64.746;34.347;41.686
6472655.756;76.927;27.195;66.422;41.351;-13.262;69.924;44.554;44.852
6472655.764;86.315;22.389;80.243;47.982;-0.298;74.953;51.446;45.449
6472655.772;83.186;34.571;70.669;47.460;0.075;77.076;50.664;46.529
6472655.780;76.033;16.466;51.223;34.161;-24.922;63.777;33.341;34.608
6472655.788;74.245;18.962;50.142;30.287;-22.203;54.426;24.550;25.108
6472655.796;81.733;23.022;72.122;32.410;-4.992;53.868;27.232;25.965
6472655.804;76.965;13.597;63.628;24.810;-11.288;49.137;19.409;23.209
6472655.755;77.449;18.775;53.607;32.522;-21.495;54.985;23.767;26.599
6472655.763;80.056;15.832;60.387;36.173;-18.850;61.058;31.702;30.883
6472655.771;72.494;1.751;52.676;29.020;-15.348;57.705;28.238;27.455
6472655.779;89.966;31.255;68.396;28.834;2.757;54.426;21.458;25.444
6472655.787;80.653;23.022;64.820;27.195;-8.158;55.805;21.681;26.412
6472655.795;70.259;15.423;48.913;28.349;-24.140;57.332;23.097;28.573
6472655.803;83.186;6.743;68.434;32.187;-4.247;64.075;28.871;37.216
6472655.811;88.699;23.805;73.463;32.261;13.225;60.275;22.836;35.390
6472655.819;88.289;25.444;65.565;28.200;1.378;58.226;21.681;32.373
6472655.827;80.727;14.417;59.493;27.716;-8.792;61.020;26.263;33.639
6472655.835;85.384;19.222;68.918;31.218;5.178;62.883;24.587;36.173
6472655.843;86.389;8.084;71.228;30.100;3.502;61.020;24.140;32.336
6472655.851;85.160;14.640;69.849;31.516;3.427;64.224;29.132;32.894
6472655.859;89.444;21.309;65.416;33.751;4.433;62.436;27.232;30.845
6472655.867;87.246;15.795;60.573;26.710;1.043;58.785;24.028;29.244
6472655.875;72.755;0.335;55.619;21.048;-7.339;60.014;24.773;30.957
6472655.883;95.814;30.100;79.647;43.362;22.911;73.761;36.843;44.852
6472655.891;119.656;44.890;100.434;54.091;37.774;77.300;40.233;47.721
6472655.899;98.795;21.979;85.235;42.543;28.312;70.706;32.112;39.116
6472655.907;76.182;9.798;57.146;28.536;7.600;69.663;27.828;35.688
6472655.915;75.251;3.576;44.815;16.727;-7.451;66.794;25.220;33.490
6472655.923;92.387;25.779;63.740;31.739;15.385;64.522;23.171;33.490
6472655.931;98.310;25.183;82.627;39.898;26.375;68.396;27.418;37.104
6472655.939;97.938;16.056;86.427;39.153;18.701;72.345;32.559;38.967
6472655.909;89.072;6.519;69.030;36.433;6.109;73.761;35.949;38.855
6472655.917;94.324;30.063;68.545;42.580;13.597;75.102;35.465;40.047
6472655.925;97.454;41.351;81.770;46.715;18.142;79.200;36.433;44.219
6472655.933;91.717;27.418;70.892;43.474;5.402;80.280;36.433;46.045
6472655.941;90.636;16.540;62.846;45.449;12.219;81.472;38.743;44.368
6472655.949;95.777;16.280;79.796;47.088;22.352;79.572;41.351;41.202
6472655.957;93.058;34.906;81.211;51.185;21.905;73.127;31.181;37.141
6472655.965;85.048;41.910;61.654;50.515;0.931;70.073;26.673;34.161
6472655.973;92.983;41.202;69.104;54.240;2.719;66.385;24.512;29.728
6472655.981;101.067;29.951;86.315;54.203;24.550;68.843;26.748;32.596
6472655.989;98.161;31.851;77.561;55.432;19.595;73.723;34.049;35.018
6472655.997;100.695;45.709;78.268;65.193;16.391;75.065;37.886;37.774
6472656.005;100.471;44.592;77.151;71.041;7.972;77.225;39.376;40.755
6472656.013;98.497;39.339;76.890;59.418;20.377;69.253;28.387;31.404
6472656.021;94.958;36.843;79.051;51.185;22.352;55.954;14.380;18.887
6472656.029;99.130;41.425;81.211;58.673;20.638;54.054;13.486;17.397
6472656.037;98.757;39.153;77.635;66.496;21.569;59.269;21.718;20.228
6472656.045;97.826;40.643;83.409;68.694;16.913;67.912;33.788;25.928
6472656.053;96.671;41.574;75.921;61.803;14.231;73.947;37.476;30.585
6472656.061;85.756;30.883;64.485;42.692;6.445;62.957;19.893;21.048
6472656.069;91.605;36.135;76.257;60.424;7.637;73.314;35.353;27.381
6472656.077;84.974;33.639;58.301;51.446;-11.176;67.055;26.673;25.332
6472656.085;87.023;34.384;75.325;51.484;10.058;64.299;23.916;25.108
6472656.093;85.086;32.224;83.037;54.687;18.179;57.146;18.850;18.515
6472656.057;89.370;35.912;81.547;57.295;26.524;55.395;22.426;16.242
6472656.065;99.279;48.988;79.125;61.765;15.683;54.240;19.073;16.429
6472656.073;82.701;33.490;58.375;51.074;3.912;47.311;7.227;10.319
6472656.081;83.745;29.579;77.561;49.211;15.385;51.297;17.025;10.319
6472656.089;94.362;36.657;91.866;62.771;29.467;66.310;32.820;24.326
6472656.097;95.777;44.145;84.229;73.239;25.295;75.363;36.769;34.310
6472656.105;107.661;72.569;98.422;78.306;26.040;77.561;37.439;36.433
6472656.113;91.717;45.449;83.297;64.075;12.927;74.804;34.086;33.677
6472656.121;90.823;33.639;74.580;53.681;13.113;75.996;35.986;34.235
6472656.129;93.840;48.503;73.649;65.751;18.999;81.137;42.170;38.967
6472656.137;102.036;57.779;83.745;70.892;25.481;82.180;41.202;40.121
6472656.145;95.591;47.460;84.788;60.685;21.048;76.927;36.173;34.049
6472656.153;88.438;32.037;68.843;52.750;9.947;68.806;29.728;28.126
6472656.161;94.846;44.480;82.441;65.342;18.291;70.184;30.473;29.244
6472656.169;84.639;31.888;72.606;54.538;15.199;62.026;23.432;20.266
6472656.177;98.944;44.182;72.829;58.077;18.254;60.089;22.948;19.707
6472656.185;101.365;45.821;88.885;61.728;19.483;64.000;27.828;23.954
6472656.193;93.542;53.681;88.327;71.488;22.016;68.694;34.049;27.753
6472656.201;95.665;42.431;84.303;62.659;29.616;74.618;39.116;33.267
6472656.209;88.550;30.212;79.311;59.493;28.387;77.188;41.276;33.751
6472656.217;85.607;55.134;75.325;69.216;20.117;74.357;34.049;29.989
6472656.225;93.915;55.209;68.471;67.465;16.950;68.136;28.089;24.289
6472656.233;93.617;33.192;81.211;65.304;25.928;66.012;30.845;21.495
6472656.241;97.938;38.333;93.617;63.926;39.116;67.055;34.571;23.432
6472656.250;97.379;38.296;88.848;67.763;37.365;69.998;38.035;27.269
6472656.258;94.511;53.830;84.005;74.096;25.108;71.041;35.912;29.877
6472656.266;86.389;56.028;65.006;70.781;16.019;69.290;32.447;29.467
6472656.274;90.115;38.780;76.443;71.228;31.926;72.010;35.353;33.565
6472656.282;94.958;34.012;92.126;67.949;40.382;69.104;30.845;32.112
6472656.290;87.768;25.071;82.068;56.699;18.962;61.393;23.916;24.922
6472656.298;80.727;35.651;72.569;63.106;18.477;59.977;27.828;23.358
6472656.306;70.594;29.355;67.614;61.654;23.991;55.730;30.138;17.919
6472656.314;80.355;25.854;82.180;58.413;30.845;54.054;27.008;17.062
6472656.322;94.622;45.709;88.140;68.806;44.219;62.324;25.779;27.381
6472656.330;102.036;52.229;94.511;76.778;45.635;67.949;28.722;33.341
6472656.338;93.877;38.855;87.991;73.910;40.755;67.763;30.883;30.734
6472656.346;86.576;40.941;79.572;69.626;33.453;68.918;32.969;32.298
6472656.354;79.386;31.292;68.247;66.794;25.891;70.781;35.241;35.577
6472656.362;90.487;43.251;88.923;83.148;50.366;75.996;42.357;38.594
6472656.370;85.160;36.620;81.807;73.276;43.027;69.104;36.322;30.100
6472656.378;71.488;22.464;60.908;61.840;18.068;56.364;20.042;21.644
6472656.386;83.447;44.405;68.881;78.455;27.269;64.038;30.138;25.742
6472656.394;87.470;49.844;74.245;77.002;27.753;60.387;32.820;22.464
6472656.402;86.613;46.454;83.297;77.486;37.178;61.095;28.387;23.395
6472656.410;86.427;45.411;79.349;86.054;31.702;65.677;30.324;28.200
6472656.418;84.341;44.033;77.933;84.229;25.593;66.534;33.677;29.840
6472656.426;80.056;39.786;74.580;82.813;28.796;66.161;31.963;29.877
6472656.434;77.859;40.494;69.253;83.335;24.997;66.422;34.571;30.063
6472656.415;71.451;39.451;62.622;77.374;21.383;58.077;28.498;20.675
6472656.423;77.412;43.586;68.881;81.956;28.610;56.960;27.344;21.495
6472656.431;76.517;42.953;68.098;78.604;19.744;52.005;20.117;17.546
6472656.439;74.171;36.843;66.385;78.641;13.821;54.725;22.687;18.701
6472656.447;75.325;42.059;70.818;85.793;19.409;61.803;32.559;24.699
6472656.455;84.974;56.922;82.068;93.021;31.143;63.665;32.820;27.791
6472656.463;88.215;55.619;83.409;94.995;30.026;64.149;31.218;29.579
6472656.471;76.443;45.970;69.141;87.060;16.391;54.091;24.214;19.334
6472656.479;67.167;52.042;59.642;81.025;8.754;50.813;23.469;18.142
6472656.487;64.149;43.064;58.077;80.504;9.872;48.876;24.289;16.317
6472656.495;73.053;45.449;62.883;88.401;14.827;49.509;23.022;17.062
6472656.503;64.336;34.682;58.673;78.939;14.827;42.319;11.399;12.107
6472656.511;52.191;31.851;48.839;66.981;-0.373;36.061;5.476;6.631
6472656.519;58.562;51.185;54.240;80.876;6.333;37.774;11.101;7.339
6472656.527;62.063;47.460;63.442;89.556;9.686;51.744;27.642;18.068
6472656.535;65.789;58.599;67.465;97.975;17.732;60.350;33.528;26.859
6472656.543;56.699;49.807;58.487;90.785;13.560;56.066;25.295;25.220
6472656.551;41.835;33.267;43.772;74.953;1.304;45.002;13.784;13.225
6472656.559;37.551;32.596;37.253;76.219;-2.310;51.707;21.756;18.738
6472656.567;28.610;33.602;25.295;71.526;-15.162;46.529;19.968;15.460
6472656.575;33.528;36.992;38.072;75.735;3.576;50.962;23.097;21.085
6472656.583;38.408;31.255;43.176;75.847;6.966;55.619;25.928;23.060
6472656.591;42.468;40.270;46.678;75.065;8.084;53.272;23.954;19.744
6472656.599;46.603;52.303;56.811;83.819;22.464;49.137;22.352;15.311
6472656.655;41.723;42.915;52.936;82.888;24.661;45.337;21.718;12.554
6472656.663;39.563;40.084;50.627;77.151;17.062;41.127;17.509;7.153
6472656.671;42.878;63.181;59.009;78.753;18.030;42.468;14.491;13.262
6472656.679;30.734;47.460;47.460;67.949;18.030;37.067;8.345;10.617
6472656.687;28.312;48.764;46.045;66.347;15.609;40.382;12.368;14.007
6472656.695;38.110;58.971;59.791;71.637;20.675;51.260;27.008;21.830
6472656.703;31.590;51.782;55.768;57.444;21.905;48.168;24.997;21.160
6472656.711;19.483;38.147;42.692;46.417;15.013;32.671;10.133;2.980
6472656.719;18.999;32.783;43.102;45.598;16.615;39.414;13.076;10.170
6472656.727;17.062;49.546;40.531;48.168;13.262;40.643;12.554;14.417
6472656.735;9.201;47.758;31.777;40.568;-1.080;33.192;4.098;9.127
6472656.743;5.290;45.188;30.622;31.665;9.649;36.880;14.231;10.841
6472656.751;-0.335;41.537;21.458;28.051;6.370;43.549;24.140;17.360
6472656.759;-2.794;43.586;31.739;19.483;1.751;41.462;20.340;14.268
6472656.767;-2.123;40.717;33.677;16.354;7.749;40.643;19.595;15.423
6472656.775;-2.086;38.110;30.734;9.686;12.554;36.843;15.460;11.399
6472656.783;-9.686;33.714;26.077;0.000;11.809;32.894;13.076;3.166
6472656.791;-10.952;30.622;24.438;-2.123;6.929;38.967;20.973;9.388
6472656.799;-21.197;17.807;18.962;-17.993;0.931;24.177;-0.708;1.267
6472656.807;-23.954;22.165;10.505;-26.152;-8.009;18.887;-7.488;-0.857
6472656.815;-22.128;35.502;13.784;-21.607;-2.533;26.710;1.229;5.290
6472656.823;-22.762;28.834;15.385;-21.718;5.513;28.387;5.737;6.109
6472656.831;-16.838;37.104;22.873;-15.423;17.062;38.035;19.744;12.331
6472656.839;-19.446;33.155;21.160;-17.695;15.385;49.956;32.783;16.801
6472656.852;-30.249;29.206;9.388;-29.467;0.447;43.549;18.962;10.990
6472656.860;-26.673;37.178;14.305;-24.326;5.588;36.284;14.231;5.588
6472656.868;-33.863;22.091;11.511;-35.390;-6.184;23.730;5.104;-4.433
6472656.876;-51.968;0.857;-5.588;-55.544;-19.856;23.395;2.310;-3.427
6472656.884;-43.958;6.482;-2.049;-57.444;1.900;27.530;4.880;2.496
6472656.892;-40.606;18.962;3.092;-49.286;8.233;29.765;6.519;6.929
6472656.900;-47.348;19.446;4.545;-56.662;6.109;27.604;0.447;4.992
6472656.908;-46.529;18.850;7.041;-46.305;8.456;35.241;9.388;9.499
6472656.916;-45.970;26.338;6.780;-35.875;9.350;38.035;14.454;9.574
6472656.924;-46.156;19.222;4.508;-32.187;9.015;37.067;17.658;4.396
6472656.932;-48.615;16.093;-0.857;-30.771;1.229;36.024;21.532;1.192
6472656.940;-52.564;15.274;-6.743;-31.739;5.476;33.677;17.993;2.906
6472656.948;-55.172;23.022;-2.868;-28.573;9.686;30.845;10.878;6.780
6472656.956;-45.337;24.922;10.841;-13.933;16.689;32.000;13.970;11.027
6472656.964;-44.405;39.525;6.109;-10.915;10.692;24.363;3.576;4.992
6472656.972;-46.678;35.241;2.757;-12.442;11.586;17.732;-3.874;-2.459
6472656.980;-47.274;33.118;7.525;-1.639;23.730;25.630;8.307;2.906
6472656.988;-42.841;38.631;9.164;9.835;15.572;29.057;8.605;6.296
6472656.996;-39.078;44.517;15.758;17.658;22.948;31.218;6.407;4.917
6472657.004;-37.067;49.584;19.334;22.613;29.691;31.702;10.729;1.006
6472657.012;-33.192;58.524;22.836;27.493;24.065;28.163;10.468;-3.241
6472657.020;-34.273;59.605;17.919;28.014;23.693;25.332;7.004;-5.662
6472657.028;-36.769;47.423;19.595;28.424;23.469;32.894;14.566;2.496
6472657.036;-30.696;54.762;24.959;35.875;29.430;34.645;10.580;5.998
6472657.090;-34.347;58.115;20.936;34.869;25.183;34.980;8.531;9.425
6472657.098;-43.958;57.071;10.580;29.132;10.394;31.590;3.278;9.872
6472657.106;-41.947;52.527;15.795;34.086;21.197;27.455;0.857;7.413
6472657.114;-33.788;55.209;29.169;45.076;34.682;32.037;13.039;10.394
6472657.122;-28.312;70.706;23.283;57.817;25.071;32.745;20.340;9.164
6472657.130;-35.875;67.726;17.285;56.550;21.271;28.014;11.362;5.364
6472657.138;-32.187;60.014;19.558;55.321;20.452;27.753;7.264;7.339
6472657.146;-34.980;62.659;17.807;54.128;16.764;29.393;9.537;8.866
6472657.154;-37.923;65.826;17.360;56.438;17.732;28.275;3.092;3.614
6472657.162;-37.961;54.352;24.885;55.097;25.108;29.951;1.118;6.557
6472657.170;-33.975;63.553;31.851;62.622;33.714;33.714;4.880;11.846
6472657.178;-30.734;77.337;32.261;73.686;33.267;35.986;11.213;16.317
6472657.186;-29.914;77.635;24.177;73.835;22.314;28.349;7.674;8.494
6472657.194;-34.422;68.918;21.458;68.992;20.899;23.469;3.278;0.894
6472657.202;-39.861;60.610;28.089;60.610;25.593;18.813;-4.135;-1.676
6472657.210;-43.623;63.553;22.054;60.052;19.334;16.466;-6.743;-3.390
6472657.218;-25.593;79.647;35.278;71.153;27.977;20.415;0.894;-0.447
6472657.226;-20.750;77.300;36.657;77.747;30.249;25.108;12.256;1.974
6472657.234;-27.493;60.871;34.012;65.267;27.269;25.332;3.390;3.129
6472657.242;-23.507;78.306;38.520;68.471;28.349;28.536;5.476;5.998
6472657.250;-21.569;86.315;41.202;67.092;39.414;26.263;6.892;3.763
6472657.258;-22.352;77.002;39.302;68.881;37.737;22.277;1.304;1.937
6472657.266;-27.791;83.596;33.565;68.620;30.398;20.191;1.118;-0.224
6472657.274;-34.198;72.494;29.020;58.599;27.679;21.122;6.109;-1.267
6472657.450;-33.453;72.718;25.406;57.891;25.928;22.575;6.706;-0.820
6472657.458;-33.639;78.678;28.871;53.942;31.181;16.540;0.373;-5.476
6472657.466;-43.213;66.571;25.667;45.039;25.742;9.015;-9.164;-13.001
6472657.474;-53.942;53.607;12.852;36.471;16.317;6.445;-12.144;-18.515
6472657.482;-60.797;52.303;3.017;32.708;9.760;8.009;-11.362;-17.621
6472657.490;-71.935;35.726;-3.614;17.546;4.582;-1.751;-20.526;-24.512
6472657.498;-78.008;38.706;-18.775;16.950;-11.176;7.078;-10.282;-14.491
6472657.506;-85.942;26.226;-19.372;4.955;-6.445;12.629;-6.557;-7.227
6472657.514;-67.763;26.040;1.900;1.788;22.203;1.267;-16.950;-15.013
6472657.522;-84.005;2.347;-18.813;-31.255;7.786;-3.874;-22.575;-19.111
6472657.530;-97.081;-20.191;-35.278;-56.364;-1.937;-1.267;-21.867;-18.142
6472657.538;-103.563;-36.210;-45.113;-77.784;2.272;-2.347;-21.867;-21.532
6472657.546;-121.891;-63.777;-61.393;-107.065;1.080;-15.907;-32.336;-34.645
6472657.554;-143.312;-90.599;-80.168;-134.073;-8.196;-26.263;-42.878;-39.451
6472657.562;-144.392;-94.883;-83.186;-141.114;-2.831;-38.892;-57.258;-45.821
6472657.570;-147.447;-101.328;-89.407;-146.925;-4.470;-39.563;-60.461;-45.300
6472657.578;-148.378;-104.420;-87.768;-145.547;0.298;-38.184;-60.014;-45.337
6472657.586;-152.402;-108.853;-93.579;-142.343;-1.788;-40.419;-62.957;-47.497
6472657.594;-152.327;-102.259;-98.795;-134.557;-5.849;-37.663;-60.610;-45.635
6472657.602;-155.158;-104.718;-104.159;-135.303;-12.107;-35.912;-57.593;-44.033
6472657.610;-150.651;-100.024;-99.167;-127.107;-4.135;-31.330;-49.397;-40.792
6472657.618;-135.750;-82.441;-85.831;-110.157;12.964;-19.409;-36.471;-30.994
6472657.626;-132.695;-71.563;-84.676;-102.073;13.150;-18.924;-36.322;-30.734
6472657.634;-133.552;-66.385;-88.662;-95.256;12.927;-19.185;-37.700;-29.206
6472657.600;-145.473;-88.550;-98.236;-113.659;3.763;-24.401;-45.709;-31.516
6472657.608;-157.319;-91.046;-108.704;-116.639;-7.600;-34.496;-54.948;-39.265
6472657.616;-166.334;-86.762;-118.501;-106.394;-11.176;-38.780;-54.240;-42.804
6472657.624;-176.542;-98.161;-127.740;-117.831;-10.207;-40.680;-55.134;-42.841
6472657.632;-188.276;-106.879;-138.953;-127.479;-22.613;-42.692;-56.922;-43.884
6472657.640;-188.723;-98.646;-144.131;-114.962;-23.022;-33.341;-47.535;-35.577
6472657.648;-192.486;-101.179;-147.223;-110.827;-21.495;-30.138;-44.517;-30.734
6472657.656;-195.988;-106.692;-147.447;-114.925;-17.993;-31.106;-41.947;-36.061
6472657.664;-188.872;-94.995;-139.102;-105.388;-11.511;-18.440;-27.344;-25.928
6472657.672;-186.600;-80.280;-140.928;-94.436;-13.746;-13.411;-23.320;-19.036
6472657.680;-187.717;-81.398;-138.357;-95.181;-13.672;-13.560;-27.753;-16.764
6472657.688;-190.660;-90.897;-135.303;-105.500;-7.562;-25.295;-44.256;-26.487
6472657.696;-173.151;-70.818;-123.642;-82.552;5.364;-16.056;-36.210;-17.621
6472657.704;-168.569;-62.250;-121.072;-75.698;3.874;-13.225;-30.510;-15.460
6472657.712;-165.328;-53.346;-114.925;-63.963;9.462;-14.156;-24.922;-18.999
6472657.720;-164.770;-49.137;-111.908;-57.705;9.127;-14.752;-24.773;-19.781
6472657.728;-170.879;-60.685;-116.378;-63.814;0.820;-20.191;-30.622;-23.320
6472657.736;-158.548;-41.872;-105.128;-47.684;7.004;-10.505;-19.260;-14.156
6472657.744;-152.849;-28.983;-98.236;-41.984;13.225;-5.774;-15.274;-9.276
6472657.752;-149.831;-22.836;-91.866;-42.208;22.464;-5.215;-19.446;-11.511
6472657.760;-151.433;-24.736;-95.181;-47.497;18.477;-10.580;-27.977;-16.093
6472657.768;-154.227;-25.854;-99.204;-50.031;8.978;-13.784;-30.622;-16.578
6472657.776;-151.731;-20.191;-93.393;-49.993;11.623;-15.050;-31.032;-16.727
6472657.784;-161.678;-31.590;-99.093;-64.075;4.359;-23.544;-34.347;-25.034
6472657.764;-177.361;-44.592;-115.894;-77.114;-11.101;-30.063;-39.004;-32.224
6472657.772;-180.602;-44.443;-119.582;-82.403;-17.695;-30.994;-43.325;-32.932
6472657.780;-180.453;-47.013;-119.135;-88.252;-11.027;-29.281;-44.890;-30.175
6472657.788;-191.443;-55.730;-128.523;-98.012;-21.607;-28.908;-42.282;-29.318
6472657.796;-193.901;-55.730;-132.844;-98.906;-28.573;-29.877;-40.531;-30.175
6472657.804;-196.174;-59.046;-137.165;-102.445;-32.745;-35.465;-45.821;-34.459
6472657.812;-198.781;-61.356;-138.395;-103.675;-29.467;-35.278;-46.007;-32.671
6472657.820;-200.868;-63.702;-140.816;-103.675;-28.834;-36.880;-48.801;-34.720
6472657.828;-195.354;-54.352;-137.538;-99.614;-31.292;-37.290;-45.858;-37.476
6472657.836;-192.449;-55.321;-137.798;-96.858;-33.304;-41.164;-46.454;-42.729
6472657.844;-187.568;-46.939;-133.775;-92.015;-33.602;-37.067;-43.549;-39.376
6472657.852;-169.873;-30.324;-116.788;-83.111;-24.512;-29.691;-36.731;-32.745
6472657.860;-172.518;-35.241;-116.862;-84.378;-20.899;-31.888;-36.694;-33.192
6472657.868;-179.820;-40.829;-125.132;-85.980;-21.718;-36.135;-39.823;-39.041
6472657.876;-175.014;-36.247;-122.748;-79.200;-24.289;-32.075;-34.980;-36.880
6472657.884;-171.885;-28.089;-119.135;-69.104;-17.099;-24.512;-30.398;-27.195
6472657.892;-172.779;-25.481;-115.335;-71.377;-15.870;-24.289;-32.596;-26.189
6472657.900;-165.403;-23.767;-107.847;-65.155;-5.141;-22.203;-31.292;-22.352
6472657.908;-162.534;-24.736;-107.437;-62.026;-3.502;-17.881;-24.959;-18.366
6472657.916;-172.034;-33.155;-122.786;-70.147;-20.787;-17.807;-23.767;-20.713
6472657.924;-174.157;-29.616;-126.697;-68.992;-29.095;-14.156;-21.532;-16.205
6472657.932;-171.624;-32.634;-125.542;-68.508;-18.515;-19.930;-26.263;-22.054
6472657.940;-180.118;-44.107;-131.652;-75.102;-26.152;-32.745;-36.359;-36.322
6472657.948;-184.029;-43.362;-131.503;-75.437;-29.244;-32.261;-30.324;-34.980
6472657.917;-180.528;-35.949;-130.087;-71.079;-27.455;-29.244;-25.071;-30.659
6472657.925;-181.161;-41.015;-128.485;-70.035;-29.951;-28.349;-30.138;-29.020
6472657.933;-181.869;-43.474;-133.812;-73.314;-32.671;-27.381;-33.267;-28.200
6472657.941;-181.906;-34.682;-139.289;-73.798;-34.757;-34.310;-38.594;-34.645
6472657.949;-180.826;-36.955;-137.724;-74.171;-28.387;-35.763;-43.176;-32.634
6472657.957;-180.565;-36.657;-133.701;-72.159;-21.085;-32.634;-43.884;-26.599
6472657.965;-186.861;-49.062;-138.097;-78.678;-33.379;-33.677;-40.866;-28.498
6472657.973;-195.913;-56.885;-153.743;-87.991;-44.517;-40.121;-40.419;-34.943
6472657.981;-191.182;-54.501;-151.321;-80.056;-38.818;-36.955;-38.482;-30.696
6472657.989;-189.915;-54.501;-147.931;-77.263;-38.929;-36.098;-37.625;-32.261
6472657.997;-187.717;-54.352;-146.180;-75.400;-41.761;-28.200;-27.940;-28.536
6472658.005;-190.251;-48.056;-152.141;-73.053;-35.502;-29.765;-30.473;-30.100
6472658.013;-185.408;-50.366;-145.771;-76.815;-26.040;-34.459;-34.682;-33.341
6472658.021;-182.241;-50.254;-139.326;-69.886;-24.885;-33.863;-31.330;-32.485
6472658.029;-195.466;-64.149;-150.502;-78.157;-37.029;-35.129;-34.682;-32.559
6472658.037;-181.906;-43.176;-142.641;-74.059;-31.851;-35.316;-37.812;-30.994
6472658.045;-179.559;-44.256;-139.922;-71.973;-31.367;-37.700;-42.431;-30.808
6472658.053;-179.559;-51.297;-145.324;-69.477;-37.104;-35.092;-37.439;-27.008
6472658.061;-170.879;-51.521;-134.371;-62.399;-22.985;-35.092;-37.067;-28.722
6472658.069;-166.483;-50.999;-131.913;-62.324;-16.652;-34.831;-36.545;-29.765
6472658.077;-164.136;-37.998;-128.336;-57.332;-24.736;-30.734;-30.398;-28.126
6472658.085;-158.921;-28.200;-122.860;-49.099;-20.750;-28.647;-26.599;-27.046
6472658.093;-157.580;-32.708;-121.705;-48.429;-18.738;-31.553;-26.338;-32.112
6472658.101;-164.025;-46.380;-126.585;-55.879;-17.174;-39.041;-34.496;-35.241
6472658.185;-174.642;-58.562;-141.971;-67.949;-26.524;-48.168;-51.111;-35.949
6472658.193;-175.834;-59.120;-150.762;-70.147;-33.490;-49.807;-53.123;-35.278
6472658.201;-158.995;-41.798;-130.907;-54.911;-17.099;-45.113;-45.896;-34.012
6472658.209;-156.946;-51.484;-122.190;-53.272;-12.517;-43.437;-42.543;-32.894
6472658.217;-152.588;-37.178;-120.439;-50.478;-10.394;-42.133;-39.451;-30.808
6472658.225;-153.258;-40.047;-118.949;-53.532;-10.133;-41.127;-39.972;-31.665
6472658.233;-152.029;-38.482;-116.155;-50.217;-4.284;-37.886;-38.669;-30.324
6472658.241;-146.888;-32.559;-111.088;-47.460;1.267;-27.344;-28.461;-20.750
6472658.249;-150.204;-41.910;-118.166;-46.305;-2.719;-26.040;-25.779;-19.930
6472658.257;-149.831;-46.305;-117.123;-43.996;-4.061;-31.292;-30.845;-23.469
6472658.265;-150.055;-42.990;-113.063;-43.437;-12.778;-34.496;-32.522;-25.332
6472658.273;-144.392;-32.224;-111.759;-32.745;-0.037;-27.791;-29.281;-18.179
6472658.281;-141.151;-37.737;-106.841;-25.779;2.235;-26.040;-28.498;-16.913
6472658.289;-133.142;-30.920;-104.122;-26.897;4.135;-26.040;-23.879;-18.217
6472658.297;-133.999;-23.730;-108.145;-28.312;-1.900;-26.822;-20.005;-18.440
6472658.305;-141.039;-28.722;-109.188;-34.496;-11.027;-29.802;-24.326;-21.383
6472658.313;-132.248;-27.157;-102.855;-27.679;-8.531;-28.573;-25.034;-22.501
6472658.321;-120.886;-19.558;-92.760;-19.781;-0.484;-19.222;-17.174;-16.093
6472658.329;-126.772;-26.859;-99.204;-22.128;-1.043;-19.185;-18.887;-14.827
6472658.337;-133.812;-35.092;-108.294;-26.822;-13.635;-28.946;-28.163;-21.271
6472658.345;-124.276;-26.114;-96.224;-21.271;-5.774;-32.037;-27.269;-20.899
6472658.353;-112.578;-19.968;-85.644;-18.105;3.949;-25.034;-20.154;-12.890
6472658.361;-112.355;-13.746;-85.570;-16.242;-2.794;-22.873;-18.775;-12.107
6472658.369;-115.409;-28.424;-87.954;-16.205;-12.182;-24.587;-18.068;-17.881
6472658.364;-92.834;-7.898;-68.285;-4.247;9.350;-25.518;-26.375;-12.033
6472658.372;-81.211;4.917;-56.550;4.731;12.964;-13.709;-17.397;0.633
6472658.380;-85.607;-4.061;-62.548;-1.341;-1.863;-13.448;-13.486;-1.341
6472658.388;-95.181;-21.718;-72.345;-13.560;-12.405;-20.266;-17.099;-12.033
6472658.396;-97.714;-21.048;-72.084;-17.583;-11.250;-27.195;-24.587;-21.346
6472658.404;-92.834;-18.366;-64.038;-11.139;-2.608;-27.195;-24.028;-22.762
6472658.412;-81.249;-8.084;-57.109;5.104;8.978;-15.274;-11.660;-11.958
6472658.420;-85.421;-4.731;-63.777;0.596;-0.037;-18.887;-11.846;-15.274
6472658.428;-91.009;-18.775;-68.434;-10.915;-11.958;-28.238;-20.862;-22.128
6472658.436;-88.774;-21.234;-66.906;-10.729;-2.012;-32.224;-25.034;-22.501
6472658.444;-90.972;-24.699;-59.977;-11.846;-0.149;-33.602;-25.742;-21.793
6472658.452;-98.497;-31.404;-64.932;-18.515;-7.115;-30.063;-24.885;-16.429
6472658.460;-74.357;7.823;-44.554;9.276;2.794;-29.765;-24.289;-18.142
6472658.468;-38.333;39.488;-13.076;46.082;21.346;-21.048;-16.317;-14.938
6472658.476;-0.186;85.644;27.791;92.648;50.329;-7.786;-4.470;-5.513
6472658.484;47.870;150.986;84.043;153.780;80.578;1.490;4.172;0.857
6472658.492;90.227;192.150;117.980;201.911;86.017;3.539;6.333;3.204
6472658.500;116.751;229.701;145.100;242.516;91.642;11.735;15.795;10.580
6472658.508;125.021;247.397;155.494;264.347;111.163;21.346;27.791;20.489
6472658.516;118.539;235.550;150.949;260.212;100.993;20.303;31.441;20.452
6472658.524;104.234;210.777;146.888;246.875;96.411;19.856;34.980;17.360
6472658.532;95.777;210.926;128.932;243.075;89.966;27.940;42.766;24.065
6472658.540;96.895;209.436;125.803;241.622;84.974;35.018;47.237;31.255
6472658.548;76.070;176.653;115.931;220.537;69.849;24.475;33.900;21.532
6472658.544;64.149;161.529;98.869;211.485;62.212;30.063;35.949;27.604
6472658.552;70.371;167.750;105.426;224.970;64.075;46.305;50.887;40.978
6472658.560;77.933;176.206;112.876;223.964;71.339;52.936;62.138;47.386
6472658.568;66.832;164.770;92.760;209.436;51.893;50.627;63.814;45.896
6472658.576;52.489;142.641;89.929;188.835;52.862;40.159;49.658;35.763
6472658.584;48.466;139.363;88.699;191.517;54.426;35.353;44.815;32.745
6472658.592;50.142;148.304;78.455;197.329;44.517;30.324;45.188;30.883
6472658.600;50.105;134.446;84.527;191.107;48.019;22.948;37.216;25.965
6472658.608;40.159;110.976;79.423;173.151;40.010;19.819;31.777;22.575
6472658.616;40.643;110.529;78.902;171.661;48.093;26.226;33.900;27.418
6472658.624;57.332;137.687;85.570;189.617;55.507;34.012;39.898;34.049
6472658.632;58.897;131.875;82.105;187.643;43.437;27.828;36.061;27.120
6472658.640;57.295;123.754;77.374;179.112;38.855;29.691;34.980;30.771
6472658.648;44.331;104.867;57.444;167.675;24.997;35.800;40.345;37.029
6472658.656;40.382;90.599;75.623;147.112;42.543;28.536;33.826;30.622
6472658.664;54.613;105.090;93.915;148.565;56.326;31.814;36.284;33.043
6472658.672;71.153;118.837;92.462;158.474;58.152;42.878;48.317;41.686
6472658.680;69.514;110.976;87.991;152.327;47.795;36.769;42.357;34.720
6472658.688;58.711;95.032;82.590;139.922;41.462;28.685;29.281;28.610
6472658.696;58.971;94.958;80.205;137.761;42.431;32.224;33.937;32.745
6472658.704;74.059;107.288;90.040;135.452;49.509;33.006;36.322;35.614
6472658.712;83.148;114.366;94.399;141.002;44.070;29.467;35.465;33.453
6472658.720;79.535;103.153;93.319;130.087;45.300;24.512;31.292;29.765
6472658.728;79.907;103.600;94.101;125.132;49.956;33.975;42.804;36.657
6472658.710;78.566;99.726;100.695;114.553;52.378;28.312;31.516;32.932
6472658.718;80.615;94.250;98.534;117.086;54.389;25.034;27.567;30.585
6472658.726;78.529;92.238;89.854;110.976;53.234;27.344;34.235;30.175
6472658.734;71.712;89.407;89.109;97.416;51.707;23.693;29.579;29.542
6472658.742;68.769;76.145;91.009;81.100;40.270;16.689;22.762;21.122
6472658.750;67.279;76.443;83.037;75.325;32.783;11.511;15.870;13.597
6472658.758;71.712;68.620;82.217;73.947;41.015;12.964;17.025;15.162
6472658.766;82.739;74.245;93.207;81.472;47.870;22.389;31.628;24.550
6472658.774;93.430;84.676;100.732;70.073;44.554;15.460;24.214;19.334
6472658.782;87.619;78.715;90.711;56.252;45.262;2.049;12.591;5.178
6472658.790;87.395;73.910;95.740;53.793;46.790;2.868;11.660;4.880
6472658.798;96.187;79.572;95.069;48.093;40.047;4.768;12.927;7.302
6472658.806;82.105;61.579;89.444;38.110;34.124;6.184;11.027;12.368
6472658.814;79.647;55.730;87.768;39.116;35.726;14.231;17.881;20.713
6472658.822;76.666;50.217;78.231;34.980;17.397;11.474;13.225;17.546
6472658.830;79.945;55.954;79.721;31.479;30.547;9.499;10.096;17.658
6472658.838;87.433;71.712;92.648;33.267;33.788;9.649;12.554;16.615
6472658.846;99.428;79.684;97.379;39.414;34.869;10.878;16.429;17.136
6472658.854;92.722;64.112;92.946;39.339;33.714;14.044;21.420;20.303
6472658.862;97.230;51.931;94.511;40.345;39.600;17.583;27.157;24.065
6472658.870;106.469;66.236;94.548;43.511;40.531;15.572;26.226;19.446
6472658.878;105.239;74.096;97.565;37.551;35.726;9.909;18.068;13.448
6472658.886;104.047;76.741;100.657;40.457;32.485;8.382;14.380;13.448
6472658.894;102.893;61.356;95.628;40.643;33.528;9.090;15.013;15.832
6472658.908;106.357;57.518;98.683;41.351;23.209;14.007;20.564;20.862
6472658.916;117.235;76.033;109.896;46.156;34.645;22.240;29.095;29.393
6472658.924;119.992;69.477;105.612;47.646;44.741;24.326;31.739;30.696
6472658.932;116.527;71.265;107.698;47.907;30.361;23.805;30.920;26.636
6472658.940;125.431;76.331;115.447;53.085;38.370;23.991;31.553;25.779
6472658.948;123.419;71.488;116.304;56.066;46.045;31.404;39.376;33.453
6472658.956;119.545;67.614;109.635;57.556;40.270;41.351;49.360;42.245
6472658.964;125.691;77.859;112.653;57.518;33.379;40.680;46.641;43.660
6472658.972;136.681;86.650;114.925;60.238;37.253;40.382;44.554;44.443
6472658.980;129.193;70.669;117.756;58.822;37.067;43.884;48.392;46.790
6472658.988;116.341;54.948;109.263;51.968;32.708;39.190;43.288;43.958
6472658.996;113.398;50.329;95.479;52.080;19.334;30.436;35.055;36.694
6472659.004;120.401;61.914;90.227;46.678;7.674;19.073;24.363;25.481
6472659.012;112.094;53.309;96.560;41.984;18.589;12.815;19.819;20.489
6472659.020;111.312;50.850;101.104;46.454;23.022;20.936;29.914;26.859
6472659.028;113.733;48.950;106.879;50.701;27.232;20.154;28.536;25.742
6472659.036;114.627;43.251;89.519;50.403;-2.570;14.305;17.770;23.469
6472659.044;122.711;39.190;101.812;53.160;6.258;14.976;17.993;24.252
6472659.052;130.534;30.175;101.402;51.595;8.419;21.681;26.859;28.424
6472659.060;133.924;57.705;108.220;60.908;16.317;20.042;27.008;26.263
6472659.068;133.328;60.350;112.504;62.324;17.770;18.813;25.444;27.791
6472659.076;133.403;55.619;112.206;59.605;17.732;15.907;22.948;19.707
6472659.084;140.332;57.220;126.772;61.616;25.854;22.165;30.920;27.195
6472659.092;160.076;70.706;137.277;70.035;35.129;33.379;41.053;40.345
6472659.145;152.923;60.089;132.620;65.900;34.496;29.951;34.571;38.929
6472659.153;145.994;55.879;123.754;66.049;25.257;29.989;37.551;35.577
6472659.161;150.390;64.857;127.219;66.943;18.626;29.914;42.170;29.281
6472659.169;147.559;67.055;125.729;57.928;24.587;21.048;32.783;23.805
6472659.177;572.875;512.265;585.429;272.542;634.193;1.714;7.004;15.646
6472659.185;582.002;525.266;592.880;263.639;653.267;0.857;5.588;20.340
6472659.193;571.907;519.939;583.157;259.876;640.340;-2.198;3.092;20.191
6472659.201;525.638;467.338;535.659;229.776;600.219;-10.617;-5.215;7.302
6472659.209;450.462;368.431;458.956;171.475;521.317;-17.583;-13.597;-2.794
6472659.217;362.583;264.496;371.002;99.316;429.712;-28.089;-26.971;-9.909
6472659.225;287.518;178.702;293.441;38.631;343.509;-30.622;-24.363;-12.144
6472659.233;230.670;108.033;235.252;-11.027;280.738;-39.265;-31.739;-18.515
6472659.241;184.402;49.323;185.221;-47.684;228.137;-39.563;-29.504;-15.050
6472659.249;141.002;-3.949;141.598;-72.792;184.104;-37.178;-24.773;-12.144
6472659.257;102.259;-46.603;106.543;-100.918;156.760;-46.827;-38.743;-22.277
6472659.265;72.196;-74.022;73.314;-127.032;128.411;-52.787;-45.560;-26.301
6472659.273;11.027;-135.563;-0.708;-145.435;43.772;-24.736;-27.865;-7.823
6472659.281;13.150;-137.687;-2.347;-139.512;43.996;-23.991;-23.581;-3.129
6472659.289;5.327;-138.022;-9.052;-137.724;32.634;-25.444;-18.179;-5.029
6472659.297;-13.486;-152.402;-30.212;-158.697;7.451;-25.779;-22.091;-3.986
6472659.305;-29.616;-160.001;-46.641;-156.574;-13.597;-23.767;-20.526;-1.192
6472659.313;-25.369;-159.033;-51.260;-149.533;-13.709;-16.578;-7.711;1.937
6472659.321;-29.393;-158.064;-68.247;-150.613;-25.891;-28.536;-16.391;-11.362
6472659.329;-51.036;-184.663;-82.031;-175.908;-49.062;-38.221;-28.796;-17.174
6472659.384;-68.918;-202.619;-93.170;-183.620;-60.797;-40.233;-31.851;-18.254
6472659.392;-74.171;-201.836;-104.569;-184.849;-72.084;-39.339;-30.249;-12.964
6472659.400;-59.642;-184.290;-93.617;-169.054;-62.361;-24.289;-12.405;-0.596
6472659.408;-58.822;-187.680;-92.797;-159.331;-68.359;-15.646;-3.874;6.445
6472659.416;-45.635;-164.136;-82.403;-159.293;-70.333;-20.787;-18.775;0.186
6472659.424;-36.210;-151.917;-76.108;-146.218;-72.345;-15.795;-4.545;1.974
6472659.432;-33.602;-147.969;-72.420;-146.590;-69.700;-17.472;-2.123;0.335
6472659.440;-34.533;-142.343;-75.921;-142.194;-75.474;-26.338;-15.609;-7.227
6472659.448;-39.861;-152.178;-77.300;-158.511;-72.569;-28.610;-21.309;-10.878
6472659.456;-32.596;-145.659;-71.749;-156.015;-67.651;-19.595;-13.337;-0.075
6472659.464;-18.328;-127.926;-62.771;-137.202;-69.514;-2.496;7.302;18.924
6472659.472;-31.963;-142.828;-75.474;-154.115;-84.378;-13.374;-5.998;6.780
6472659.480;-34.980;-149.012;-72.233;-161.640;-76.033;-18.403;-10.394;1.937
6472659.488;-26.822;-145.696;-63.889;-160.038;-70.557;-20.117;-11.623;-0.894
6472659.496;-27.232;-138.581;-65.379;-165.403;-73.090;-20.713;-13.113;-3.688
6472659.504;-36.620;-141.002;-72.457;-174.008;-79.721;-23.842;-17.174;-5.923
6472659.512;-33.081;-129.752;-70.110;-169.277;-76.033;-20.266;-12.070;-2.831
6472659.520;-26.040;-128.597;-60.275;-167.824;-66.534;-11.697;-8.717;5.998
6472659.528;-27.567;-131.689;-63.367;-170.246;-68.024;-10.431;-8.456;7.786
6472659.536;-30.398;-131.801;-67.502;-176.132;-74.096;-11.548;-5.886;8.158
6472659.544;-36.508;-135.936;-73.798;-186.078;-85.197;-16.503;-6.333;6.519
6472659.552;-49.211;-145.175;-83.931;-197.291;-87.731;-16.727;-5.327;6.743
6472659.560;-56.364;-152.327;-91.828;-201.166;-90.413;-22.091;-10.654;-2.347
6472659.568;-53.644;-150.017;-91.493;-195.950;-87.805;-26.897;-11.325;-13.188
6472659.563;-52.452;-142.641;-87.172;-195.354;-86.948;-21.234;-6.445;-6.296
6472659.571;-65.193;-151.843;-97.901;-204.369;-99.391;-24.214;-17.881;-4.768
6472659.579;-55.358;-140.592;-88.848;-190.288;-90.413;-14.082;-10.729;4.917
6472659.587;-57.183;-142.939;-90.972;-188.388;-89.593;-15.162;-9.388;1.080
6472659.595;-66.981;-147.708;-100.993;-186.302;-96.597;-26.561;-15.162;-9.649
6472659.603;-68.992;-153.296;-103.079;-176.691;-100.136;-29.616;-21.532;-9.984
6472659.611;-68.061;-146.590;-99.167;-179.969;-90.487;-38.482;-30.138;-20.862
6472659.619;-62.771;-137.947;-91.605;-174.493;-76.368;-29.765;-20.005;-11.399
6472659.627;-45.858;-127.852;-75.586;-160.448;-67.316;-23.842;-12.964;0.298
6472659.635;-50.440;-135.601;-75.921;-163.615;-66.534;-38.669;-26.301;-14.193
6472659.643;-48.988;-127.405;-71.898;-158.735;-67.130;-45.598;-32.783;-21.346
6472659.651;-44.852;-113.286;-74.804;-150.427;-70.445;-43.251;-32.000;-18.030
6472659.659;-35.465;-111.088;-64.224;-144.579;-58.413;-36.396;-27.679;-14.007
6472659.667;-43.772;-120.997;-68.061;-156.574;-63.553;-37.886;-30.175;-21.309
6472659.675;-47.795;-120.886;-76.182;-155.158;-70.296;-33.602;-25.965;-18.664
6472659.683;-44.405;-112.429;-75.437;-145.771;-70.557;-26.524;-19.781;-9.052
6472659.691;-47.609;-120.476;-77.039;-150.800;-69.067;-31.851;-26.338;-8.941
6472659.699;-48.801;-123.344;-77.523;-157.915;-65.677;-39.339;-34.720;-12.890
6472659.707;-33.155;-104.532;-63.665;-144.020;-54.613;-33.043;-24.624;-9.798
6472659.715;-22.016;-91.195;-54.464;-131.540;-45.039;-19.483;-8.345;-0.633
6472659.723;-20.936;-87.954;-50.105;-136.681;-39.376;-15.236;-1.416;-0.224
