Timestamp,AFz,AF3,AF4,AF7,AF8,Pz,P3,P4,2024-05-08 11:55:38.670,fs=125
4754551.128;-39.823;-60.610;30.659;-117.421;58.934;-32.187;-34.310;-29.281
4754551.136;-42.133;-61.318;26.859;-118.613;55.246;-33.788;-33.453;-30.436
4754551.144;-37.253;-56.997;31.665;-112.168;61.579;-33.118;-30.547;-30.585
4754551.152;-32.745;-51.111;35.502;-105.165;65.342;-32.708;-28.424;-30.473
4754551.160;-28.834;-47.572;39.414;-103.153;70.371;-32.112;-27.902;-28.573
4754551.168;-26.301;-45.076;41.351;-100.918;75.586;-35.875;-32.969;-30.287
4754551.176;-28.312;-45.188;37.141;-100.210;64.149;-38.780;-37.774;-33.379
4754551.184;-26.040;-43.288;38.221;-97.565;68.620;-39.749;-39.376;-35.614
4754551.192;-26.934;-42.059;38.072;-95.703;71.190;-35.837;-35.428;-33.192
4754551.200;-30.510;-47.758;36.508;-102.334;72.494;-33.528;-34.086;-31.665
4754551.208;-33.230;-50.701;33.975;-104.681;72.047;-30.845;-31.590;-30.100
4754551.216;-35.428;-51.334;30.436;-104.941;68.471;-31.143;-30.883;-30.622
4754551.224;-37.849;-53.756;27.418;-106.804;64.820;-36.843;-35.912;-35.241
4754551.232;-38.892;-54.128;26.971;-107.512;63.702;-39.414;-38.110;-36.769
4754551.240;-35.800;-52.154;29.579;-104.420;66.906;-34.906;-34.310;-32.485
4754551.248;-35.204;-50.738;30.324;-101.849;69.961;-31.032;-33.267;-29.504
4754551.256;-36.545;-50.291;28.126;-100.434;68.285;-28.647;-30.436;-29.169
4754551.264;-40.047;-56.364;21.681;-107.847;59.530;-32.037;-30.808;-32.634
4754551.272;-38.780;-54.315;22.836;-107.288;63.181;-31.330;-29.020;-34.086
4754551.280;-36.247;-49.025;24.438;-100.434;65.044;-24.587;-22.277;-28.759
4754551.288;-39.116;-50.329;21.383;-100.955;62.473;-24.810;-24.587;-25.891
4754551.296;-40.010;-50.664;20.079;-101.887;61.765;-26.226;-28.647;-24.214
4754551.304;-40.755;-53.383;17.509;-102.706;61.803;-30.287;-33.602;-27.195
4754551.312;-39.898;-52.340;19.036;-102.706;63.442;-31.926;-33.937;-28.983
4754551.309;-37.961;-49.733;22.091;-100.993;69.179;-28.796;-29.318;-27.269
4754551.317;-39.749;-50.291;19.222;-101.589;65.155;-28.871;-29.765;-28.238
4754551.325;-36.992;-46.529;19.073;-97.044;64.075;-26.338;-24.475;-26.785
4754551.333;-35.428;-43.362;18.403;-95.218;61.803;-27.493;-21.905;-28.200
4754551.341;-32.634;-39.712;20.452;-92.126;63.293;-30.510;-26.561;-29.393
4754551.349;-23.954;-30.696;27.716;-82.403;74.022;-30.510;-26.710;-28.573
4754551.357;-15.348;-22.016;33.602;-74.357;77.970;-32.149;-29.020;-29.765
4754551.365;-7.339;-13.746;41.053;-66.869;85.384;-31.441;-29.728;-29.169
4754551.373;-2.719;-9.276;44.033;-63.628;87.284;-33.751;-31.926;-31.330
4754551.381;6.780;0.671;52.638;-53.421;97.081;-32.634;-30.473;-30.659
4754551.389;10.580;3.502;53.570;-50.627;95.963;-31.069;-29.616;-29.244
4754551.397;6.631;0.857;50.403;-54.166;92.536;-29.020;-29.393;-28.647
4754551.405;6.855;2.272;49.993;-53.346;91.940;-23.060;-23.283;-24.289
4754551.413;4.545;-2.086;47.609;-56.252;91.754;-26.971;-28.461;-25.555
4754551.421;4.880;-1.788;45.747;-55.544;87.284;-31.851;-32.559;-29.616
4754551.429;6.892;1.118;47.460;-52.564;89.221;-34.161;-33.565;-31.032
4754551.437;10.170;6.072;49.025;-47.460;89.742;-30.212;-29.318;-25.854
4754551.445;12.666;9.164;50.664;-44.368;91.344;-26.338;-25.965;-20.415
4754551.453;15.162;11.735;52.452;-39.749;94.585;-25.257;-26.114;-18.626
4754551.461;17.844;17.062;54.203;-34.608;95.554;-22.873;-23.991;-18.589
4754551.469;23.171;21.756;58.040;-28.759;99.875;-15.832;-15.311;-16.354
4754551.477;18.515;17.360;51.521;-33.118;91.530;-17.285;-16.727;-18.254
4754551.485;15.795;15.981;48.690;-36.024;90.376;-20.638;-21.458;-19.372
4754551.493;14.342;14.603;48.503;-37.439;94.026;-23.246;-27.418;-19.893
4754551.458;16.354;17.993;49.733;-33.714;95.628;-22.128;-25.593;-18.440
4754551.466;20.899;22.501;54.315;-27.083;98.906;-19.781;-22.128;-16.913
4754551.474;22.426;26.152;54.799;-24.103;101.104;-18.366;-22.873;-17.509
4754551.482;21.905;28.498;52.899;-23.954;96.783;-15.981;-19.781;-14.976
4754551.490;17.025;23.507;46.194;-27.418;90.078;-18.440;-20.973;-17.583
4754551.498;15.460;21.085;43.958;-30.473;89.221;-20.228;-21.122;-18.813
4754551.506;21.681;26.859;51.074;-21.271;99.912;-14.529;-16.019;-13.858
4754551.514;21.495;26.859;49.919;-20.862;97.752;-12.927;-16.280;-13.895
4754551.522;21.607;29.020;49.248;-19.781;95.814;-12.256;-15.199;-13.858
4754551.530;19.185;28.089;46.380;-19.483;94.138;-11.548;-15.795;-12.591
4754551.538;15.199;24.922;42.953;-23.432;91.642;-10.915;-17.695;-11.325
4754551.546;12.740;20.191;43.511;-30.063;95.442;-12.219;-19.968;-12.107
4754551.554;15.311;21.607;45.709;-28.424;98.683;-12.927;-20.303;-11.921
4754551.562;15.125;21.793;44.405;-30.063;99.912;-13.076;-19.893;-13.188
4754551.570;14.119;21.420;41.984;-29.914;95.926;-12.070;-17.881;-13.337
4754551.578;14.678;22.128;44.145;-28.647;102.967;-10.990;-18.291;-11.176
4754551.586;15.199;23.544;43.809;-27.269;104.420;-10.543;-17.248;-9.649
4754551.594;11.623;22.426;39.376;-29.244;104.830;-13.597;-19.856;-12.591
4754551.602;13.672;24.140;42.431;-28.610;112.914;-14.417;-19.222;-13.746
4754551.610;10.207;19.670;38.147;-35.949;111.125;-21.085;-24.997;-17.509
4754551.618;5.066;14.603;33.826;-44.294;111.312;-26.077;-29.355;-20.750
4754551.626;4.321;12.591;34.533;-47.274;116.080;-25.034;-26.524;-19.893
4754551.634;6.817;15.125;37.216;-45.598;118.725;-18.328;-21.532;-15.572
4754551.642;5.215;14.044;33.267;-47.907;110.939;-15.981;-20.787;-15.050
4754551.638;7.860;16.019;36.024;-46.119;115.857;-14.603;-19.521;-14.156
4754551.646;11.027;19.073;40.121;-42.766;121.333;-10.431;-14.901;-11.101
4754551.654;5.886;12.703;34.422;-48.727;111.200;-12.517;-20.601;-10.766
4754551.662;4.023;10.729;31.777;-49.658;106.283;-16.689;-24.028;-16.131
4754551.670;2.198;8.233;29.840;-50.291;106.543;-14.119;-19.260;-14.007
4754551.678;0.782;6.519;26.524;-52.266;101.738;-11.995;-16.764;-13.337
4754551.686;3.353;9.574;30.361;-48.131;104.718;-9.649;-14.044;-13.188
4754551.694;1.751;5.849;29.281;-50.776;105.985;-9.090;-15.683;-13.784
4754551.702;5.327;9.686;32.596;-45.821;109.337;-2.161;-9.909;-8.419
4754551.710;7.860;9.872;34.980;-45.337;108.294;-2.272;-9.052;-7.823
4754551.718;7.264;9.313;33.118;-45.784;104.867;-6.557;-13.821;-10.952
4754551.726;10.766;16.913;36.396;-37.029;107.996;-6.557;-12.182;-10.245
4754551.734;13.821;19.595;40.978;-35.092;114.329;-8.941;-13.374;-11.101
4754551.742;11.548;15.236;36.769;-39.935;104.196;-13.709;-19.036;-15.311
4754551.750;10.133;11.474;33.341;-43.958;100.210;-13.970;-20.526;-16.429
4754551.758;10.990;11.027;32.522;-43.474;97.565;-13.895;-22.650;-16.168
4754551.766;12.815;15.087;33.639;-36.173;98.683;-8.941;-18.403;-11.027
4754551.774;11.288;13.039;32.447;-38.631;98.981;-6.221;-16.242;-9.760
4754551.782;11.511;15.199;31.739;-34.720;95.442;-6.482;-14.938;-12.666
4754551.790;9.798;11.846;30.957;-40.941;92.909;-9.090;-17.397;-15.199
4754551.798;9.537;10.878;29.542;-39.525;89.370;-9.984;-20.005;-14.938
4754551.806;8.792;11.213;28.163;-36.061;86.129;-9.090;-20.154;-13.337
4754551.814;7.637;7.525;29.169;-38.370;87.991;-9.239;-20.154;-12.740
4754551.822;8.531;10.282;31.888;-36.657;90.748;-11.735;-21.644;-14.454
4754551.821;11.027;13.672;32.783;-29.653;87.619;-11.548;-19.334;-13.784
4754551.829;11.511;12.666;34.273;-31.404;89.519;-16.280;-22.128;-17.919
4754551.837;13.709;15.534;35.837;-28.498;91.605;-16.987;-22.873;-17.285
4754551.845;13.523;14.901;34.012;-25.816;89.146;-16.093;-22.203;-14.454
4754551.853;13.933;15.162;34.384;-24.661;90.115;-12.293;-20.303;-10.654
4754551.861;13.411;14.901;34.533;-27.344;91.456;-8.158;-17.360;-8.345
4754551.869;13.001;13.523;33.379;-29.765;89.109;-7.935;-16.727;-9.127
4754551.877;13.076;13.709;34.273;-28.051;93.915;-9.127;-16.466;-10.021
4754551.885;9.947;11.548;29.616;-28.387;88.476;-9.649;-17.360;-8.456
4754551.893;17.174;17.472;34.571;-22.911;87.731;-14.156;-20.973;-11.884
4754551.901;17.509;19.185;34.384;-20.042;87.880;-13.486;-19.409;-12.703
4754551.909;16.838;17.844;34.608;-19.707;88.513;-11.027;-18.291;-10.133
4754551.917;7.227;9.425;24.773;-29.057;79.274;-14.789;-24.103;-13.672
4754551.925;3.912;4.992;21.160;-34.235;76.629;-16.913;-25.705;-16.131
4754551.933;7.935;8.829;25.034;-28.759;82.888;-18.701;-26.971;-17.136
4754551.941;11.548;12.927;28.834;-25.034;87.507;-17.360;-24.661;-15.125
4754551.949;13.560;12.815;29.057;-26.301;85.570;-16.317;-25.220;-13.858
4754551.957;17.472;19.036;32.932;-17.546;88.364;-10.096;-18.626;-10.021
4754551.965;15.534;17.770;29.802;-16.578;81.472;-9.872;-14.044;-11.399
4754551.973;10.431;12.554;24.848;-23.358;76.033;-16.503;-19.185;-16.838
4754551.981;10.282;12.368;22.985;-20.787;74.655;-22.091;-24.512;-20.154
4754551.989;11.511;11.772;22.911;-21.458;75.251;-24.065;-27.902;-21.122
4754551.997;19.670;20.564;32.037;-12.517;85.905;-14.082;-19.521;-12.740
4754552.005;23.469;23.060;35.018;-9.686;86.538;-4.061;-11.772;-5.588
4754551.985;21.309;21.309;30.808;-9.015;83.186;-1.118;-8.009;-3.427
4754551.993;17.844;19.968;26.561;-9.798;80.578;0.969;-2.012;-4.061
4754552.001;13.262;14.231;23.358;-14.156;81.398;-3.800;-4.582;-8.382
4754552.009;3.316;4.210;14.566;-25.593;68.434;-9.201;-12.442;-11.884
4754552.017;1.378;2.831;11.921;-24.475;67.614;-9.798;-16.093;-11.101
4754552.025;3.837;4.172;14.007;-22.240;71.302;-8.382;-18.813;-9.201
4754552.033;8.121;7.823;18.105;-20.005;75.437;-5.998;-19.073;-7.227
4754552.041;12.554;10.654;22.091;-14.901;80.578;-7.562;-20.191;-7.823
4754552.049;14.752;11.697;20.526;-13.672;72.233;-10.990;-20.899;-9.835
4754552.057;14.640;11.288;20.452;-13.113;75.400;-14.491;-21.830;-14.566
4754552.065;11.697;9.835;18.552;-10.915;73.686;-15.125;-19.558;-15.348
4754552.073;9.649;8.531;17.732;-10.282;74.655;-14.938;-15.311;-15.460
4754552.081;7.153;4.321;13.746;-14.827;67.577;-14.715;-13.299;-14.976
4754552.089;8.866;7.227;15.646;-12.368;71.116;-13.858;-13.262;-15.423
4754552.097;11.511;10.282;17.248;-9.313;71.339;-9.462;-10.878;-13.150
4754552.105;12.778;11.660;18.179;-7.264;72.643;-5.178;-8.494;-9.872
4754552.113;13.784;13.225;19.148;-5.327;72.233;-0.931;-7.413;-5.253
4754552.121;12.219;11.921;16.876;-4.433;68.806;-3.763;-10.803;-5.849
4754552.129;8.643;7.078;15.050;-13.076;70.073;-8.568;-17.323;-9.649
4754552.137;7.488;5.811;12.740;-12.517;66.087;-11.772;-19.334;-10.990
4754552.145;8.345;6.296;11.437;-9.947;63.628;-12.815;-19.595;-11.809
4754552.153;9.760;8.680;10.841;-6.296;63.255;-12.927;-18.999;-13.001
4754552.161;16.354;17.099;15.125;4.657;64.895;-8.084;-11.995;-10.617
4754552.169;22.873;25.146;20.266;12.070;67.055;-4.768;-8.233;-8.792
4754552.179;26.785;27.232;24.959;10.878;72.904;-4.396;-7.674;-10.096
4754552.187;28.722;29.653;27.269;11.064;77.933;-3.129;-6.631;-8.829
4754552.195;30.920;33.490;28.424;17.807;77.970;-0.112;-3.539;-5.476
4754552.203;28.461;30.287;23.246;15.944;69.886;-1.304;-5.737;-5.141
4754552.211;20.601;23.097;15.758;10.990;65.155;-3.912;-9.127;-7.562
4754552.219;10.431;11.399;8.829;0.633;61.691;-7.004;-12.368;-8.419
4754552.227;3.651;6.482;2.831;-3.316;56.587;-10.692;-14.342;-10.952
4754552.235;2.943;6.482;0.112;-5.253;53.421;-11.884;-14.119;-12.964
4754552.243;2.049;4.806;0.261;-5.774;58.077;-10.878;-12.964;-10.952
4754552.251;-1.453;3.912;-4.023;-5.923;54.389;-10.990;-11.548;-9.872
4754552.259;-11.921;-9.611;-14.454;-16.913;42.282;-15.050;-15.311;-13.076
4754552.267;-13.337;-9.984;-13.039;-17.472;44.182;-14.082;-14.566;-12.144
4754552.275;-15.981;-11.399;-15.236;-17.919;43.213;-13.486;-14.044;-12.368
4754552.283;-18.291;-12.517;-18.813;-15.721;40.643;-12.666;-11.399;-13.113
4754552.291;-20.862;-14.603;-20.936;-19.819;32.783;-12.778;-11.288;-13.150
4754552.299;-22.426;-17.583;-22.650;-25.481;33.192;-12.219;-13.858;-11.586
4754552.307;-26.152;-21.830;-26.263;-30.138;31.218;-11.884;-16.727;-9.984
4754552.315;-21.607;-18.962;-21.160;-24.959;40.531;-5.104;-12.517;-4.023
4754552.323;-21.383;-19.483;-21.383;-22.873;36.992;-4.508;-13.001;-4.992
4754552.331;-19.595;-15.274;-22.762;-17.360;31.330;-1.006;-8.568;-3.912
4754552.339;-19.185;-15.795;-22.016;-19.819;32.261;2.682;-4.135;-0.820
4754552.347;-25.369;-22.054;-28.983;-25.667;21.495;-4.135;-8.605;-5.551
4754552.355;-30.063;-25.406;-32.000;-28.647;22.985;-6.035;-10.952;-5.141
4754552.363;-37.737;-34.310;-39.078;-38.333;14.827;-14.864;-21.495;-10.803
4754552.331;-39.823;-35.092;-41.761;-40.494;11.101;-19.521;-24.885;-15.385
4754552.339;-38.110;-34.310;-42.655;-37.216;9.090;-16.876;-20.228;-14.454
4754552.347;-36.955;-33.006;-40.196;-34.943;14.901;-12.405;-15.311;-10.431
4754552.355;-37.290;-30.883;-39.525;-32.708;19.483;-11.064;-15.683;-9.425
4754552.363;-40.382;-34.347;-40.606;-36.769;22.240;-14.231;-19.781;-11.176
4754552.371;-43.511;-36.098;-45.374;-38.743;17.732;-12.815;-18.589;-10.990
4754552.379;-50.329;-42.953;-55.693;-43.288;5.215;-16.876;-21.011;-15.087
4754552.387;-45.896;-40.494;-49.621;-40.568;13.262;-16.242;-18.999;-14.417
4754552.395;-42.953;-36.098;-48.615;-37.104;10.617;-16.317;-17.881;-14.603
4754552.403;-40.829;-34.496;-45.523;-36.024;17.546;-19.558;-20.638;-16.429
4754552.411;-42.692;-34.049;-47.423;-34.906;10.952;-19.483;-21.979;-15.981
4754552.419;-42.543;-34.608;-50.180;-33.602;6.445;-15.460;-20.377;-13.299
4754552.427;-40.717;-32.671;-49.174;-31.143;9.239;-14.268;-19.558;-12.629
4754552.435;-38.370;-30.957;-45.188;-31.032;14.715;-15.460;-21.495;-12.368
4754552.443;-36.843;-31.777;-44.033;-32.634;17.881;-20.079;-25.183;-16.727
4754552.451;-32.000;-25.146;-39.786;-26.710;22.165;-19.073;-21.905;-16.205
4754552.459;-31.777;-25.779;-39.339;-29.504;26.487;-19.446;-22.091;-17.062
4754552.467;-31.665;-25.593;-41.313;-30.063;22.538;-19.260;-24.810;-16.205
4754552.475;-34.943;-27.567;-44.592;-32.336;21.979;-19.073;-27.046;-15.348
4754552.483;-37.961;-31.143;-46.380;-37.365;23.693;-22.389;-30.138;-18.030
4754552.491;-37.365;-30.473;-47.125;-39.153;24.214;-25.555;-30.696;-20.228
4754552.499;-35.390;-29.616;-45.970;-40.084;27.493;-24.699;-28.461;-19.632
4754552.507;-34.831;-28.312;-46.790;-39.116;26.822;-24.848;-26.859;-19.372
4754552.515;-36.806;-28.461;-50.664;-40.419;22.389;-22.538;-25.779;-18.366
4754552.480;-35.837;-27.977;-50.776;-39.078;19.744;-16.876;-21.197;-15.050
4754552.488;-31.106;-23.469;-45.039;-34.720;25.705;-11.437;-15.534;-10.319
4754552.496;-30.473;-21.867;-44.480;-32.522;25.295;-10.058;-13.411;-8.866
4754552.504;-27.455;-17.770;-42.170;-27.865;25.406;-8.643;-11.697;-7.078
4754552.512;-20.340;-11.474;-35.018;-20.415;30.622;-5.141;-8.419;-3.763
4754552.520;-18.515;-12.107;-34.831;-19.483;29.542;-6.594;-9.537;-5.588
4754552.528;-19.781;-12.517;-36.061;-20.526;33.304;-7.637;-11.325;-6.594
4754552.536;-18.813;-11.511;-35.800;-20.862;30.398;-7.115;-11.958;-5.327
4754552.544;-18.813;-12.033;-35.129;-21.048;29.728;-7.413;-14.007;-5.253
4754552.552;-20.824;-16.354;-36.284;-26.710;25.481;-12.629;-20.750;-8.717
4754552.560;-23.693;-20.191;-41.574;-29.504;18.664;-17.211;-25.667;-12.703
4754552.568;-24.103;-20.415;-43.996;-27.791;15.609;-20.526;-28.014;-16.093
4754552.576;-19.185;-17.025;-37.104;-25.705;25.034;-15.721;-22.687;-13.746
4754552.584;-17.956;-14.193;-36.657;-22.165;23.060;-8.494;-14.938;-10.021
4754552.592;-19.670;-16.354;-39.525;-24.550;15.162;-3.390;-10.282;-7.004
4754552.600;-21.085;-19.334;-42.319;-27.567;15.013;-1.341;-9.462;-5.364
4754552.608;-27.753;-25.555;-48.243;-33.937;10.058;-4.880;-15.683;-7.711
4754552.616;-33.230;-32.522;-52.303;-38.557;5.253;-9.090;-21.569;-10.729
4754552.624;-32.037;-29.244;-51.484;-34.831;2.123;-8.047;-18.552;-9.052
4754552.632;-31.255;-27.902;-49.956;-35.726;2.719;-7.004;-14.566;-10.543
4754552.640;-31.702;-30.696;-49.174;-34.757;9.201;-6.147;-12.890;-10.133
4754552.648;-31.553;-30.473;-49.993;-33.081;4.508;-4.098;-10.654;-8.419
4754552.656;-30.249;-29.393;-49.435;-30.249;6.445;-1.974;-7.227;-5.700
4754552.664;-26.785;-23.916;-46.641;-24.848;7.488;-3.576;-7.786;-6.445
4754552.631;-26.003;-21.383;-46.492;-22.240;8.382;-7.004;-10.468;-9.276
4754552.639;-28.275;-25.779;-47.684;-27.195;13.039;-7.749;-10.319;-11.697
4754552.647;-26.934;-24.326;-48.205;-27.195;12.405;-1.341;-3.204;-9.313
4754552.655;-26.971;-25.742;-50.887;-26.301;7.339;1.639;-0.298;-8.643
4754552.663;-28.908;-28.126;-52.415;-29.206;8.531;-2.347;-7.041;-10.207
4754552.671;-27.679;-26.897;-52.750;-27.642;9.164;-2.198;-8.456;-6.780
4754552.679;-29.691;-31.069;-56.177;-31.330;5.960;-1.006;-8.158;-5.327
4754552.687;-29.206;-32.298;-55.134;-34.459;9.909;0.149;-5.551;-5.923
4754552.695;-31.181;-34.794;-56.252;-36.098;12.293;1.565;-3.092;-4.768
4754552.703;-28.424;-32.634;-55.060;-32.932;11.697;5.253;0.708;-0.522
4754552.711;-29.542;-33.863;-57.518;-34.869;6.780;2.235;-1.751;-1.006
4754552.719;-31.106;-35.167;-58.413;-38.221;7.078;-2.533;-5.923;-4.210
4754552.727;-33.006;-38.855;-58.487;-40.717;10.617;-2.719;-7.674;-2.608
4754552.735;-35.726;-41.611;-60.610;-41.090;9.499;-5.439;-10.841;-4.582
4754552.743;-32.820;-37.327;-57.258;-33.528;14.380;-7.376;-13.895;-4.657
4754552.751;-30.175;-34.571;-57.891;-31.926;10.692;-8.009;-15.236;-5.178
4754552.759;-27.195;-30.883;-55.358;-26.152;18.403;-5.327;-11.362;-2.682
4754552.767;-26.263;-27.046;-56.326;-22.426;13.597;-7.488;-12.778;-3.837
4754552.775;-23.805;-24.028;-55.097;-18.217;13.374;-10.505;-15.125;-8.307
4754552.783;-23.209;-23.767;-55.432;-16.354;12.703;-10.952;-14.976;-10.766
4754552.791;-23.432;-24.065;-56.922;-17.695;12.740;-8.754;-12.703;-8.978
4754552.799;-21.346;-22.352;-54.389;-14.305;15.497;-5.960;-8.345;-7.413
4754552.807;-23.991;-25.071;-55.134;-17.211;11.958;-5.551;-7.488;-8.307
4754552.815;-28.014;-31.032;-62.063;-21.569;1.192;-4.768;-7.451;-8.531
4754552.899;-27.902;-31.330;-60.871;-21.420;4.396;-4.806;-8.456;-8.829
4754552.907;-29.616;-32.373;-60.573;-23.656;9.164;-3.502;-7.115;-6.407
4754552.915;-30.622;-34.869;-60.685;-23.060;9.239;-5.364;-9.947;-5.364
4754552.923;-32.187;-37.141;-61.654;-23.544;8.196;-10.133;-14.007;-8.829
4754552.931;-34.682;-39.525;-68.173;-23.656;-3.614;-15.460;-17.136;-13.076
4754552.939;-31.441;-34.422;-65.714;-18.850;1.751;-16.578;-20.042;-13.150
4754552.947;-27.120;-29.989;-61.765;-16.056;5.774;-11.474;-15.385;-10.096
4754552.955;-23.730;-27.418;-59.754;-12.778;11.809;-7.972;-8.568;-9.537
4754552.963;-21.160;-21.979;-57.779;-7.264;11.064;-5.253;-5.439;-7.488
4754552.971;-20.228;-21.383;-56.699;-8.531;9.947;-8.084;-10.207;-7.413
4754552.979;-19.409;-18.105;-60.126;-4.023;5.625;-10.431;-13.895;-7.898
4754552.987;-16.503;-16.689;-55.544;1.304;11.139;-9.872;-13.560;-10.133
4754552.995;-20.377;-20.675;-60.052;-5.439;8.419;-9.984;-11.697;-11.437
4754553.003;-25.183;-23.618;-63.740;-7.376;7.004;-12.256;-13.746;-12.182
4754553.011;-25.295;-26.375;-64.671;-9.388;11.325;-11.101;-15.162;-9.090
4754553.019;-24.550;-26.003;-65.640;-8.121;19.968;-6.706;-10.692;-5.551
4754553.027;-26.785;-27.120;-70.184;-10.170;10.803;-5.066;-8.307;-6.817
4754553.035;-26.599;-26.636;-70.073;-10.394;13.709;-5.253;-6.743;-8.568
4754553.043;-28.573;-27.567;-67.204;-10.133;23.805;-6.631;-8.158;-9.239
4754553.051;-29.542;-27.642;-70.184;-10.356;16.801;-4.135;-6.817;-6.258
4754553.059;-30.994;-29.169;-71.935;-10.952;18.589;-3.986;-5.476;-6.892
4754553.067;-33.118;-30.026;-75.065;-9.462;12.591;-6.780;-7.004;-9.537
4754553.075;-31.926;-29.765;-71.935;-7.488;19.968;-7.078;-8.084;-9.239
4754553.083;-35.688;-32.894;-77.970;-10.021;17.248;-4.210;-4.955;-6.370
4754553.125;-40.680;-38.520;-82.664;-17.472;10.990;-6.258;-7.004;-6.221
4754553.133;-40.196;-37.514;-83.596;-16.689;7.264;-8.941;-9.425;-7.451
4754553.141;-35.204;-33.192;-75.512;-15.087;18.515;-8.121;-8.829;-4.657
4754553.149;-35.651;-32.894;-81.472;-15.013;5.178;-6.780;-8.009;-3.316
4754553.157;-37.067;-33.826;-82.366;-14.715;5.178;-6.221;-7.339;-4.619
4754553.165;-31.441;-28.796;-74.469;-10.915;16.950;-0.969;-2.310;-2.533
4754553.173;-31.032;-27.455;-78.119;-7.451;10.580;1.341;-2.272;-2.794
4754553.181;-31.404;-27.828;-78.231;-8.270;13.039;0.708;-5.327;-2.719
4754553.189;-32.447;-28.983;-81.062;-9.574;13.411;-4.843;-9.649;-7.041
4754553.197;-31.553;-28.275;-79.200;-10.841;17.174;-13.299;-16.242;-14.082
4754553.205;-29.244;-25.742;-75.139;-8.270;20.713;-17.099;-18.105;-13.895
4754553.213;-33.081;-27.083;-85.346;-8.680;10.319;-20.936;-23.805;-15.385
4754553.221;-31.292;-26.077;-86.986;-9.052;11.213;-18.217;-21.830;-14.082
4754553.229;-30.659;-26.077;-84.825;-8.717;16.615;-16.280;-18.962;-12.852
4754553.237;-33.975;-27.679;-89.593;-9.015;9.499;-17.770;-17.658;-15.162
4754553.245;-34.980;-29.095;-91.121;-9.350;13.895;-16.913;-16.429;-14.678
4754553.253;-31.590;-25.332;-85.533;-6.706;26.524;-16.876;-15.125;-15.758
4754553.261;-28.014;-20.154;-82.515;-1.043;25.816;-17.583;-12.405;-18.179
4754553.269;-31.255;-20.899;-95.591;0.037;5.513;-15.423;-7.972;-16.242
4754553.277;-26.375;-16.056;-87.246;3.912;19.744;-13.113;-3.874;-13.374
4754553.285;-23.805;-15.832;-83.596;5.215;22.762;-9.723;-2.235;-11.250
4754553.293;-24.326;-16.913;-86.352;6.445;19.856;-6.184;1.416;-9.760
4754553.301;-23.320;-14.901;-85.495;7.898;16.056;-2.496;6.966;-7.711
4754553.309;-32.037;-24.512;-93.542;-3.688;-0.708;-9.798;-0.149;-13.746
4754553.274;-37.178;-31.032;-101.253;-12.442;-13.597;-15.534;-7.972;-16.876
4754553.282;-34.720;-28.312;-98.497;-9.909;-8.680;-13.746;-9.388;-13.113
4754553.290;-35.278;-27.642;-97.863;-10.282;-6.221;-15.050;-12.368;-12.778
4754553.298;-33.341;-25.742;-95.107;-7.264;-7.376;-13.672;-11.884;-13.039
4754553.306;-36.508;-28.200;-101.179;-7.339;-8.084;-13.150;-9.350;-14.789
4754553.314;-34.720;-26.822;-97.118;-6.929;-2.906;-11.250;-8.456;-12.703
4754553.322;-32.410;-23.097;-96.336;-3.986;-5.960;-10.356;-9.276;-10.654
4754553.330;-28.424;-17.546;-93.207;2.123;0.075;-12.070;-8.158;-9.798
4754553.338;-25.108;-13.225;-91.866;6.221;-3.576;-10.692;-5.700;-8.196
4754553.346;-27.381;-15.460;-94.548;3.986;-4.247;-10.915;-7.637;-9.462
4754553.354;-23.134;-12.629;-87.842;4.657;6.184;-11.697;-8.568;-10.952
4754553.362;-20.452;-10.617;-83.633;6.557;10.841;-13.746;-11.772;-12.331
4754553.370;-25.667;-14.827;-92.275;3.427;-0.559;-15.460;-15.385;-11.586
4754553.378;-28.573;-17.956;-93.505;-0.596;0.745;-14.007;-15.460;-9.276
4754553.386;-30.063;-17.844;-94.995;-2.421;-2.943;-13.225;-16.093;-8.494
4754553.394;-31.665;-17.844;-94.511;-2.496;-3.204;-14.529;-17.621;-11.399
4754553.402;-31.851;-19.483;-91.270;-3.986;2.198;-12.964;-14.380;-11.772
4754553.410;-32.149;-21.458;-91.344;-7.935;5.625;-9.574;-11.288;-7.488
4754553.418;-38.333;-26.301;-100.657;-13.299;-2.980;-11.362;-14.678;-6.631
4754553.426;-43.362;-29.318;-107.437;-18.515;-11.176;-12.740;-14.901;-8.121
4754553.434;-44.294;-30.436;-108.518;-21.867;-12.219;-12.033;-13.448;-8.382
4754553.442;-43.288;-31.218;-106.581;-23.395;-4.023;-13.374;-15.236;-10.058
4754553.450;-37.663;-27.269;-101.738;-18.105;-0.894;-10.207;-11.399;-8.121
4754553.458;-36.806;-25.518;-102.110;-16.689;1.863;-7.711;-9.015;-5.960
4754553.469;-33.677;-22.426;-94.362;-14.156;4.843;-4.955;-7.562;-3.912
4754553.477;-33.751;-21.420;-95.069;-12.405;1.937;-1.714;-7.302;-0.261
4754553.485;-31.777;-20.936;-97.230;-12.144;-3.241;-2.496;-8.456;1.602
4754553.493;-28.126;-19.111;-92.797;-13.039;1.825;-6.519;-10.878;-1.602
4754553.501;-20.824;-13.299;-86.501;-7.972;6.892;-6.407;-8.605;-1.565
4754553.509;-16.801;-12.331;-81.472;-5.513;13.746;-9.649;-10.543;-4.806
4754553.517;-13.188;-10.803;-73.761;-3.837;19.595;-9.462;-9.499;-5.737
4754553.525;-16.540;-13.635;-82.962;-7.786;4.321;-11.101;-12.293;-8.009
4754553.533;-16.131;-11.921;-86.352;-4.619;-0.037;-12.107;-13.635;-9.164
4754553.541;-14.789;-11.809;-82.888;-3.353;4.359;-10.803;-14.491;-6.706
4754553.549;-14.566;-11.772;-79.311;-3.725;8.754;-9.164;-14.827;-3.949
4754553.557;-21.048;-18.105;-83.447;-13.188;11.064;-10.021;-16.093;-6.407
4754553.565;-23.618;-20.117;-88.625;-14.417;-7.786;-5.811;-12.554;-3.204
4754553.573;-24.699;-21.048;-90.711;-14.007;-21.793;-4.135;-13.299;-2.980
4754553.581;-31.590;-28.796;-95.181;-21.346;-31.851;-3.912;-14.268;-3.725
4754553.589;-37.774;-34.459;-102.073;-22.948;-32.298;-6.482;-14.119;-5.439
4754553.597;-22.501;-19.893;-88.029;-7.413;-23.767;-8.680;-16.540;-5.737
4754553.605;-19.893;-17.211;-90.934;-5.066;-27.418;-9.984;-18.291;-5.588
4754553.613;-21.122;-20.601;-88.699;-10.319;-25.891;-7.562;-15.236;-4.992
4754553.621;-25.108;-25.257;-93.877;-13.821;-35.204;-6.668;-13.746;-4.657
4754553.629;-18.738;-20.973;-84.341;-8.941;-29.430;-8.605;-13.299;-5.625
4754553.637;-16.727;-17.919;-83.745;-5.141;-41.910;-12.182;-15.944;-10.878
4754553.645;-15.385;-18.850;-82.850;-5.215;-44.703;-13.858;-17.248;-13.150
4754553.653;-12.256;-15.274;-79.237;0.000;-46.827;-11.846;-16.801;-10.952
4754553.710;-9.313;-10.617;-76.965;5.253;-48.131;-8.009;-15.162;-8.978
4754553.718;-5.811;-7.227;-70.818;6.519;-36.731;-9.090;-15.087;-9.760
4754553.726;-4.023;-4.806;-72.420;10.468;-48.541;-8.084;-11.548;-8.903
4754553.734;-5.737;-7.413;-75.139;9.798;-51.223;-6.706;-9.947;-6.668
4754553.742;-7.115;-10.319;-71.488;8.233;-45.747;-6.817;-9.350;-6.482
4754553.750;-9.686;-12.033;-73.500;5.476;-50.664;-11.511;-13.188;-10.170
4754553.758;-12.033;-12.405;-78.790;4.843;-53.979;-16.280;-16.242;-13.895
4754553.766;-7.451;-9.164;-69.030;8.419;-44.145;-14.678;-13.784;-13.784
4754553.774;-7.674;-8.754;-74.394;9.090;-58.971;-11.325;-12.107;-11.884
4754553.782;-9.462;-9.537;-77.449;8.270;-59.493;-14.156;-16.019;-14.491
4754553.790;-8.829;-11.064;-72.792;4.731;-51.819;-15.311;-19.483;-14.380
4754553.798;-10.766;-13.858;-77.039;2.533;-64.746;-15.609;-21.122;-13.188
4754553.806;-13.448;-15.907;-79.647;-0.037;-61.691;-16.764;-22.165;-12.703
4754553.814;-9.574;-13.411;-74.245;2.719;-53.495;-15.236;-19.968;-11.511
4754553.822;-11.548;-15.050;-77.263;2.161;-61.207;-16.801;-19.111;-11.697
4754553.830;-17.174;-19.670;-82.254;-3.017;-67.092;-16.093;-17.583;-11.176
4754553.838;-9.164;-14.417;-73.127;3.316;-58.487;-12.703;-16.764;-9.872
4754553.846;-7.115;-13.709;-69.439;2.719;-54.277;-10.803;-17.583;-9.649
4754553.854;-6.743;-13.486;-67.353;3.278;-54.687;-12.591;-16.578;-11.511
4754553.862;-7.860;-13.560;-68.471;3.390;-59.828;-12.107;-15.385;-12.554
4754553.870;-8.903;-13.709;-67.130;2.272;-58.748;-12.070;-17.993;-12.070
4754553.878;-10.021;-16.019;-67.577;-0.224;-61.728;-15.199;-21.532;-13.635
4754553.886;-7.935;-15.013;-64.485;-0.298;-61.095;-16.615;-21.607;-14.827
4754553.894;-6.706;-14.231;-63.367;-0.671;-51.856;-18.068;-23.507;-16.950
4754553.933;-5.886;-11.101;-61.132;1.192;-40.904;-16.280;-21.905;-13.597
4754553.941;-3.651;-6.780;-55.544;5.700;-38.035;-11.064;-16.727;-7.860
4754553.949;-5.253;-9.313;-56.624;6.221;-39.153;-8.233;-13.858;-6.072
4754553.957;-3.502;-8.531;-53.458;6.966;-38.706;-5.029;-8.978;-3.204
4754553.965;-7.078;-11.064;-56.885;2.198;-50.068;-9.537;-12.815;-8.084
4754553.973;-8.233;-11.139;-61.207;1.751;-51.558;-12.740;-14.566;-11.213
4754553.981;-8.084;-10.803;-57.630;2.943;-48.988;-6.370;-7.823;-6.817
4754553.989;-11.399;-16.391;-56.960;-2.868;-50.217;-1.900;-6.855;-3.465
4754553.997;-13.001;-17.732;-58.822;-4.321;-51.484;0.894;-4.359;-1.378
4754554.005;-14.752;-19.334;-60.312;-4.657;-49.807;-1.304;-5.700;-3.874
4754554.013;-17.136;-20.303;-60.201;-5.364;-48.131;-2.980;-6.370;-4.321
4754554.021;-17.062;-19.781;-61.095;-3.092;-53.830;-3.278;-3.837;-4.992
4754554.029;-14.864;-17.583;-59.791;-1.192;-53.942;-6.072;-4.172;-8.419
4754554.037;-8.792;-9.611;-52.489;6.855;-44.927;-5.141;-3.688;-7.860
4754554.045;-8.047;-8.568;-51.521;7.227;-45.113;-8.792;-9.239;-9.574
4754554.053;-8.307;-10.133;-52.229;4.992;-47.013;-12.033;-14.193;-11.474
4754554.061;-9.462;-12.815;-53.793;1.825;-46.827;-11.511;-15.385;-9.388
4754554.069;-11.884;-16.317;-54.836;-1.676;-44.890;-12.442;-16.876;-9.872
4754554.077;-6.221;-12.144;-45.970;-0.894;-32.783;-10.468;-13.411;-11.399
4754554.085;-9.425;-12.666;-52.564;-1.118;-50.217;-10.468;-11.586;-13.597
4754554.093;-12.144;-13.821;-55.097;-1.229;-46.715;-7.786;-9.425;-12.629
4754554.101;-7.823;-10.282;-47.199;0.820;-34.943;-3.502;-5.625;-8.270
4754554.109;-6.966;-9.835;-46.007;2.123;-34.682;-2.645;-4.768;-5.513
4754554.117;-12.219;-14.193;-52.340;-1.080;-40.457;-1.527;-4.880;-2.757
4754554.114;-12.740;-16.205;-52.340;-2.123;-41.537;2.012;-1.751;-0.410
4754554.122;-9.947;-13.858;-49.658;-2.049;-38.259;4.433;0.447;0.261
4754554.130;-6.519;-8.866;-43.958;1.900;-25.369;7.302;3.763;1.192
4754554.138;-10.580;-10.617;-49.621;1.527;-40.270;0.745;0.633;-4.433
4754554.146;-8.270;-6.817;-48.243;5.476;-40.457;-0.075;2.049;-4.694
4754554.154;-5.849;-5.998;-43.958;6.333;-32.522;-1.006;-0.037;-4.917
4754554.162;-4.321;-4.508;-40.755;6.370;-26.338;-1.639;-2.310;-2.980
4754554.170;-4.284;-2.868;-45.523;8.121;-36.173;-1.714;-3.017;-3.651
4754554.178;-9.090;-8.270;-49.621;3.353;-37.588;-7.041;-8.233;-7.823
4754554.186;-11.884;-10.096;-50.776;-0.447;-35.949;-8.531;-10.058;-5.290
4754554.194;-15.013;-15.832;-53.681;-7.339;-37.476;-12.964;-16.317;-5.588
4754554.202;-14.529;-16.280;-53.197;-7.451;-32.745;-14.454;-17.360;-8.047
4754554.210;-13.299;-13.895;-55.842;-6.407;-38.147;-10.282;-13.597;-7.786
4754554.218;-11.176;-12.591;-50.068;-3.017;-31.516;-9.798;-12.554;-7.972
4754554.226;-13.523;-14.156;-52.564;-4.359;-32.708;-11.399;-12.815;-8.680
4754554.234;-15.199;-16.503;-52.154;-7.749;-31.218;-14.454;-15.087;-12.107
4754554.242;-15.795;-17.695;-51.111;-9.574;-28.871;-14.044;-16.689;-12.890
4754554.250;-16.429;-18.291;-53.644;-10.021;-35.763;-10.356;-15.013;-9.201
4754554.258;-12.070;-12.442;-49.286;-3.166;-28.759;-6.258;-10.319;-5.998
4754554.266;-8.717;-8.456;-45.784;0.447;-24.214;-2.831;-5.923;-3.800
4754554.274;-10.803;-9.239;-49.323;-1.639;-27.716;-0.447;-3.688;-1.825
4754554.282;-8.941;-6.817;-45.449;0.596;-21.718;1.602;-1.192;-0.745
4754554.290;-12.964;-9.276;-49.435;-2.384;-29.393;2.123;0.708;-0.447
4754554.298;-21.420;-17.174;-59.567;-10.431;-34.422;-2.235;-5.960;-4.768
4754554.370;-27.455;-22.128;-64.149;-16.503;-38.557;-6.631;-13.188;-8.754
4754554.378;-29.020;-24.922;-63.367;-20.862;-36.210;-10.021;-16.876;-12.629
4754554.386;-25.593;-21.830;-61.281;-15.944;-33.453;-7.674;-14.342;-10.096
4754554.394;-23.767;-21.458;-58.003;-16.540;-26.487;-6.333;-13.895;-9.909
4754554.402;-24.624;-21.756;-61.728;-15.236;-32.596;-7.153;-15.981;-10.245
4754554.410;-26.710;-21.979;-64.038;-14.901;-35.018;-9.649;-18.515;-11.995
4754554.418;-24.438;-21.271;-57.817;-14.491;-21.085;-6.333;-15.907;-8.047
4754554.426;-25.928;-23.395;-57.071;-16.503;-19.781;-3.092;-12.331;-5.774
4754554.434;-26.040;-19.968;-57.630;-12.778;-19.111;1.714;-7.115;-2.943
4754554.442;-24.289;-17.770;-54.762;-12.629;-15.311;3.800;-7.004;-3.092
4754554.450;-20.228;-14.156;-50.068;-9.499;-10.282;3.502;-7.339;-4.098
4754554.458;-17.174;-9.127;-45.449;-3.502;-6.817;6.258;-4.135;-1.639
4754554.466;-16.764;-7.264;-46.305;-1.155;-8.643;3.204;-8.903;-2.794
4754554.474;-12.368;-4.284;-41.649;0.559;-0.037;0.186;-11.176;-4.992
4754554.482;-8.158;1.378;-35.577;5.215;8.047;0.224;-8.345;-4.731
4754554.490;-12.927;-2.794;-43.474;1.751;-3.651;-2.496;-9.649;-7.823
4754554.498;-14.789;-6.445;-41.723;-4.023;3.390;-3.129;-10.394;-9.239
4754554.506;-14.342;-5.960;-41.425;-4.657;12.703;0.447;-7.190;-4.433
4754554.514;-14.938;-6.184;-42.468;-7.637;44.927;3.092;-5.439;-1.267
4754554.522;-14.901;-4.917;-43.958;-6.743;62.063;5.476;-5.290;0.224
4754554.530;-9.649;1.155;-38.147;-1.900;73.761;8.233;-2.868;1.490
4754554.538;-10.915;0.931;-36.731;-5.700;80.504;7.562;-4.210;-0.931
4754554.546;-12.331;0.484;-40.084;-7.041;76.182;4.880;-6.184;-4.023
4754554.554;-15.013;-0.410;-43.958;-10.356;73.202;5.066;-6.929;-5.029
4754554.550;-12.554;-0.596;-43.847;-11.511;71.339;8.754;-6.519;-3.465
4754554.558;-5.364;4.321;-32.783;-6.482;87.768;12.033;-4.210;-0.857
4754554.566;-7.674;2.086;-32.969;-8.494;85.756;11.325;-5.849;-2.198
4754554.574;-14.752;-5.625;-43.362;-19.483;68.545;6.258;-10.841;-6.855
4754554.582;-13.523;-4.135;-40.270;-19.856;72.680;8.829;-8.754;-4.396
4754554.590;-10.952;-0.671;-37.961;-14.156;73.798;11.213;-6.147;-2.459
4754554.598;-8.792;1.565;-34.459;-10.654;75.884;9.872;-6.258;-4.172
4754554.606;-9.052;-0.782;-34.273;-12.033;77.412;9.276;-6.594;-3.986
4754554.614;-6.147;1.639;-31.404;-9.425;77.188;5.811;-9.201;-5.402
4754554.622;-2.421;4.023;-23.209;-6.631;89.072;4.694;-10.841;-6.743
4754554.630;-6.407;-0.410;-32.932;-10.245;71.898;4.508;-11.064;-6.966
4754554.638;-2.608;2.310;-28.647;-6.780;75.884;9.201;-5.849;-4.396
4754554.646;2.123;7.115;-22.314;-0.782;82.478;14.491;-1.341;-1.565
4754554.654;-2.310;4.023;-25.965;-8.792;78.604;8.531;-7.711;-6.668
4754554.662;-4.955;0.112;-26.338;-13.299;78.380;5.066;-13.039;-7.674
4754554.670;-0.931;2.272;-24.103;-6.072;79.721;9.537;-11.325;-2.906
4754554.678;1.304;5.439;-23.134;-3.427;80.429;10.841;-8.978;-2.086
4754554.686;2.719;7.115;-19.856;-1.751;86.352;8.605;-8.792;-3.949
4754554.694;-4.955;0.373;-28.014;-8.382;77.225;4.359;-10.990;-8.903
4754554.702;-7.823;-3.725;-30.510;-15.125;71.824;3.800;-11.325;-9.835
4754554.710;-2.757;-0.820;-21.197;-10.543;81.807;4.880;-9.947;-7.488
4754554.718;-1.416;0.894;-20.899;-7.749;75.512;5.551;-9.164;-7.190
4754554.726;-2.570;0.969;-20.750;-4.657;78.008;2.235;-12.666;-11.548
4754554.734;-0.782;1.937;-15.050;-4.433;80.131;2.012;-11.884;-12.107
4754554.760;-5.811;-2.086;-23.693;-8.494;63.851;0.447;-10.468;-13.895
4754554.768;-2.570;1.639;-15.125;-3.390;68.285;0.149;-9.462;-13.039
4754554.776;-2.198;2.757;-16.019;-1.229;63.851;1.118;-9.276;-10.841
4754554.784;-4.470;-0.298;-16.429;-2.086;67.055;1.229;-8.605;-11.250
4754554.792;-1.043;2.719;-13.448;0.373;66.347;4.470;-5.774;-9.462
4754554.800;2.161;6.296;-8.494;3.651;72.010;6.519;-5.923;-8.270
4754554.808;3.166;6.035;-7.860;2.943;74.431;3.166;-9.425;-9.164
4754554.816;1.527;4.061;-7.972;-0.112;74.767;-0.186;-12.554;-9.388
4754554.824;-2.421;-0.745;-13.411;-4.768;62.436;-2.757;-14.417;-11.362
4754554.832;1.937;2.459;-5.662;-1.080;73.165;-3.129;-14.193;-11.511
4754554.840;1.714;2.384;-9.201;0.149;65.677;-2.496;-14.044;-11.250
4754554.848;-1.676;-1.490;-12.182;-1.527;67.540;-6.296;-17.583;-14.715
4754554.856;-1.341;-0.373;-12.219;-1.825;66.236;-5.215;-16.913;-14.901
4754554.864;-4.694;-2.608;-16.876;-1.900;62.548;-7.972;-19.334;-18.515
4754554.872;-3.353;-2.272;-13.188;-2.198;65.491;-7.935;-18.850;-17.919
4754554.880;-3.576;-3.949;-12.144;-5.960;62.846;-6.668;-18.105;-16.317
4754554.888;0.708;-0.410;-6.929;-2.123;68.620;-3.725;-16.950;-13.635
4754554.896;3.427;5.178;-7.376;3.912;64.820;1.565;-13.374;-10.319
4754554.904;10.356;11.697;2.459;11.399;76.592;6.147;-8.792;-6.333
4754554.912;7.525;9.052;-4.061;8.643;68.210;3.129;-8.605;-10.617
4754554.920;2.682;4.731;-10.729;4.359;63.516;3.017;-9.909;-9.649
4754554.928;2.235;3.725;-10.356;3.725;63.255;1.490;-11.697;-9.723
4754554.936;5.662;7.562;-8.047;6.221;62.808;1.863;-10.319;-8.792
4754554.944;5.662;5.700;-8.419;5.849;60.126;-0.373;-13.374;-9.574
4754554.954;3.204;2.235;-9.090;4.508;58.636;-4.694;-17.881;-11.437
4754554.962;6.370;6.631;-5.886;9.909;63.255;-2.608;-14.976;-8.233
4754554.970;3.688;2.645;-7.972;4.619;61.318;-5.737;-17.360;-11.660
4754554.978;4.694;4.657;-3.837;7.078;65.006;-5.178;-16.019;-12.405
4754554.986;-1.490;1.527;-14.566;5.588;47.348;-8.568;-18.589;-15.646
4754554.994;-4.284;-3.166;-16.950;-1.043;47.982;-9.090;-20.675;-16.131
4754555.002;-3.614;-1.453;-12.964;1.229;53.719;-5.960;-18.291;-11.809
4754555.010;-5.923;-3.353;-10.431;-1.229;58.115;-5.700;-18.589;-11.958
4754555.018;-9.798;-5.215;-20.154;-3.688;47.907;-8.382;-20.154;-16.727
4754555.026;-10.468;-7.451;-25.295;-6.035;35.651;-8.382;-19.409;-18.291
4754555.034;-5.811;-2.570;-17.211;1.043;48.317;-4.433;-14.044;-13.076
4754555.042;-1.900;1.863;-13.188;5.849;50.701;-0.335;-11.027;-7.004
4754555.050;-5.215;-2.645;-19.372;0.261;41.015;-2.421;-12.890;-8.419
4754555.058;-2.496;-0.596;-17.174;3.390;46.603;-0.298;-9.499;-6.631
4754555.066;-1.267;-1.490;-16.987;4.880;49.695;2.049;-7.004;-3.502
4754555.074;-2.123;-2.794;-16.987;4.806;46.268;3.763;-4.321;-1.751
4754555.082;-1.155;-0.820;-16.429;3.614;49.286;7.413;0.373;-0.857
4754555.090;3.092;1.341;-10.654;5.513;56.885;7.264;-1.006;-2.533
4754555.098;3.278;4.545;-15.907;9.425;39.823;5.849;-2.533;-4.210
4754555.106;5.178;5.066;-16.056;11.288;43.660;8.047;0.149;-2.384
4754555.114;10.394;8.680;-9.574;15.050;55.246;11.064;2.868;2.980
4754555.122;8.941;8.047;-11.660;13.225;51.670;9.052;-0.037;2.421
4754555.130;4.694;5.029;-19.781;11.511;43.064;6.221;-3.204;-1.714
4754555.138;5.625;4.843;-18.440;8.792;42.655;4.619;-4.694;-4.247
4754555.133;7.823;5.625;-15.572;9.984;47.535;3.614;-4.433;-5.625
4754555.141;10.580;7.600;-11.772;10.952;50.999;2.794;-4.694;-7.413
4754555.149;7.972;6.072;-19.483;9.798;38.445;3.278;-3.129;-7.227
4754555.157;2.943;-0.522;-23.171;4.172;43.921;0.000;-8.605;-8.121
4754555.165;0.224;-2.421;-23.767;1.751;41.835;-1.229;-11.399;-7.004
4754555.173;-5.998;-7.190;-34.124;-1.527;24.624;-4.247;-12.629;-10.580
4754555.181;-5.960;-7.972;-35.614;-0.596;23.544;-4.545;-11.213;-11.697
4754555.189;-3.204;-5.662;-28.685;0.671;34.235;-1.751;-6.855;-10.021
4754555.197;-0.559;-4.098;-27.828;2.757;31.181;2.012;-4.172;-6.855
4754555.205;0.671;-2.272;-28.275;5.141;31.106;5.886;-2.086;-4.657
4754555.213;1.714;-0.931;-26.003;6.892;34.682;7.562;-2.533;-2.235
4754555.221;7.004;3.129;-18.217;9.350;43.139;6.743;-3.539;-1.341
4754555.229;8.754;4.955;-13.672;10.952;48.578;4.955;-6.892;-1.043
4754555.237;2.421;-0.484;-25.369;4.247;32.000;0.000;-12.927;-3.949
4754555.245;8.903;5.066;-18.515;10.580;42.580;1.937;-8.456;-2.980
4754555.253;7.153;3.204;-22.836;12.927;32.745;5.215;-3.353;-2.906
4754555.261;8.345;7.451;-21.346;16.727;35.726;10.803;2.682;-0.149
4754555.269;6.594;6.743;-22.799;15.385;35.316;12.666;5.439;0.782
4754555.277;-0.075;0.335;-30.845;8.345;27.828;8.009;0.261;-2.198
4754555.285;0.075;-0.745;-28.014;7.674;32.149;5.439;-1.751;-3.390
4754555.293;0.298;0.745;-29.206;7.674;29.318;4.135;-2.086;-4.023
4754555.301;-2.757;-0.298;-34.720;7.674;18.999;-0.112;-5.923;-5.178
4754555.309;-2.757;-0.708;-32.671;8.196;23.618;-0.931;-8.494;-3.316
4754555.317;-7.376;-5.327;-39.265;3.725;13.448;-0.484;-10.803;-1.863
4754555.268;-5.998;-4.657;-38.743;4.582;17.285;0.410;-9.686;-1.043
4754555.276;-5.253;-4.657;-39.004;5.476;12.480;-0.671;-8.978;-2.868
4754555.284;-0.261;1.639;-33.267;9.462;15.162;0.037;-5.402;-2.123
4754555.292;2.272;3.465;-28.312;12.442;21.793;0.261;-3.278;-1.974
4754555.300;2.012;4.694;-28.685;13.746;21.495;-0.410;-3.614;-2.198
4754555.308;2.310;6.147;-28.349;15.087;21.271;0.335;-2.272;-1.639
4754555.316;4.582;7.264;-23.693;13.784;29.616;0.447;-3.204;-1.080
4754555.324;7.041;9.574;-21.495;15.199;25.816;2.235;-3.129;1.192
4754555.332;11.250;14.342;-16.913;19.372;31.516;7.525;2.272;5.513
4754555.340;8.009;11.623;-19.893;16.727;23.395;5.662;0.708;4.247
4754555.348;-0.373;4.992;-26.636;7.972;17.732;0.149;-5.513;0.075
4754555.356;-0.484;2.719;-23.879;6.706;27.120;1.639;-5.029;1.788
4754555.364;2.198;5.513;-21.681;10.021;27.418;6.333;-0.149;5.029
4754555.372;0.261;6.296;-27.269;7.972;22.948;6.370;1.378;4.582
4754555.380;1.788;7.600;-24.177;10.617;32.485;6.445;2.012;5.104
4754555.388;2.347;8.047;-25.257;11.027;29.504;5.551;-0.522;3.092
4754555.396;1.639;6.855;-24.214;5.104;33.602;6.855;-1.229;3.129
4754555.404;0.149;5.923;-23.693;2.198;32.261;8.568;-1.192;4.433
4754555.412;-1.602;5.774;-25.816;0.708;29.355;10.096;0.596;4.731
4754555.420;-0.633;6.445;-24.661;1.788;32.447;11.474;1.863;6.966
4754555.428;0.745;8.754;-23.358;4.880;29.802;11.139;4.210;5.811
4754555.436;4.508;10.133;-19.707;4.210;31.292;13.225;8.605;6.594
4754555.444;4.992;11.474;-19.148;3.688;32.298;15.497;10.394;9.127
4754555.452;7.786;15.274;-13.374;8.084;40.084;20.079;15.981;11.846
4754555.391;7.227;13.001;-15.609;4.321;33.602;17.807;14.864;9.574
4754555.399;7.190;13.523;-18.179;6.557;26.338;14.789;12.256;8.233
4754555.407;11.586;15.981;-9.909;9.872;36.471;15.609;11.027;10.356
4754555.415;13.448;16.429;-7.749;11.846;38.035;15.423;8.829;8.903
4754555.423;11.995;13.895;-7.786;9.015;36.545;17.285;10.915;8.941
4754555.431;12.219;15.944;-8.009;10.803;34.608;20.266;14.491;10.580
4754555.439;17.211;20.191;-1.602;12.927;37.961;22.948;17.732;13.597
4754555.447;21.979;22.314;4.098;14.268;43.809;21.234;15.870;12.591
4754555.455;20.191;22.762;0.000;15.385;34.645;16.242;11.511;9.313
4754555.463;21.085;23.507;4.768;15.609;45.002;13.970;10.133;7.227
4754555.471;23.171;22.762;8.605;16.727;47.497;12.219;10.133;4.582
4754555.479;24.624;24.848;11.064;16.354;44.852;11.697;10.170;4.247
4754555.487;19.558;19.297;6.445;10.692;43.921;7.972;5.998;0.820
4754555.495;16.131;16.205;3.017;9.276;37.588;8.345;5.290;2.347
4754555.503;13.970;11.772;4.619;5.327;38.929;15.050;11.809;9.052
4754555.511;-2.608;-5.029;-10.468;-8.754;28.871;20.936;17.807;13.374
4754555.519;8.754;13.374;-4.657;16.913;24.959;19.334;19.185;10.692
4754555.527;18.738;25.705;-6.333;36.769;6.147;18.217;19.111;7.190
4754555.535;28.722;39.376;-5.886;57.630;0.708;17.174;16.876;6.817
4754555.543;41.015;54.836;-2.719;82.515;-5.886;18.366;18.552;9.499
4754555.551;39.972;54.650;-11.958;88.774;-19.372;12.256;15.236;4.582
4754555.559;39.004;56.401;-22.128;98.459;-35.167;13.895;19.744;5.066
4754555.567;38.370;59.269;-28.946;105.426;-46.752;16.578;23.283;8.121
4754555.575;37.402;58.115;-32.149;106.692;-50.478;14.417;21.569;6.258
4754555.600;36.284;57.295;-31.032;105.128;-47.907;15.348;21.271;5.923
4754555.608;33.863;54.687;-30.324;101.961;-43.996;16.838;20.638;8.456
4754555.616;33.788;55.097;-26.748;103.377;-33.602;19.260;24.140;11.325
4754555.624;29.467;49.546;-31.739;98.124;-43.400;21.458;27.828;12.368
4754555.632;21.383;42.617;-43.809;91.270;-57.593;21.122;27.642;10.319
4754555.640;19.073;39.339;-42.245;87.135;-49.956;22.538;26.524;10.096
4754555.648;18.477;38.408;-41.537;84.043;-49.174;22.613;24.587;9.313
4754555.656;17.546;37.588;-41.761;83.148;-52.825;23.060;23.097;9.425
4754555.664;15.646;34.384;-40.866;80.690;-46.566;22.762;21.644;11.511
4754555.672;8.196;27.977;-46.864;76.480;-53.048;20.489;21.271;11.288
4754555.680;6.258;25.742;-47.646;74.953;-52.564;21.830;26.934;8.903
4754555.688;6.557;25.891;-46.194;75.586;-55.656;23.581;31.888;6.296
4754555.696;13.299;34.049;-39.600;83.856;-46.417;26.226;36.508;7.488
4754555.704;22.799;43.400;-30.138;92.648;-37.998;26.599;38.706;9.201
4754555.712;25.071;47.907;-27.940;96.560;-38.333;23.432;35.726;7.711
4754555.720;19.968;42.245;-33.788;92.201;-42.804;21.085;32.857;6.482
4754555.728;16.354;36.247;-33.230;85.980;-35.241;19.073;30.473;5.439
4754555.736;14.380;35.539;-34.943;82.403;-43.288;17.434;29.169;4.806
4754555.744;9.611;31.851;-42.319;79.013;-53.756;18.142;29.020;5.588
4754555.752;11.325;33.192;-37.961;80.392;-47.013;16.689;28.238;4.619
4754555.760;12.219;33.006;-34.757;81.360;-40.568;13.523;22.054;2.943
4754555.768;12.219;32.932;-32.932;81.323;-38.706;10.915;13.523;4.470
4754555.776;12.070;34.086;-34.794;80.764;-47.386;11.288;12.740;6.892
4754555.784;8.456;28.685;-38.035;74.469;-49.472;13.299;16.019;7.413
4754555.748;1.490;23.469;-43.586;70.110;-51.670;13.821;18.291;5.700
4754555.756;-0.857;21.718;-42.766;69.365;-50.962;12.442;19.036;4.880
4754555.764;1.751;23.693;-41.947;71.675;-56.066;10.617;18.254;5.439
4754555.772;5.066;26.971;-37.439;73.276;-48.541;9.350;15.907;3.614
4754555.780;4.806;26.524;-33.863;72.047;-41.686;9.574;15.013;2.198
4754555.788;3.129;26.189;-35.875;72.159;-48.280;10.692;16.652;3.129
4754555.796;-0.708;23.581;-37.290;68.694;-48.019;12.107;19.036;3.837
4754555.804;-1.974;21.309;-38.221;66.012;-51.111;14.901;21.607;7.786
4754555.812;-0.745;21.234;-35.949;65.230;-48.093;16.391;22.277;8.754
4754555.820;1.788;21.718;-32.485;64.857;-43.213;14.529;21.234;6.780
4754555.828;1.714;22.203;-33.565;65.640;-44.741;13.225;20.564;6.296
4754555.836;2.421;30.175;-32.037;66.757;-42.282;14.007;22.687;7.823
4754555.844;-0.671;64.746;-33.341;64.634;-45.560;11.027;18.701;3.725
4754555.852;-0.969;93.132;-32.447;63.255;-48.131;10.133;17.062;3.353
4754555.860;1.900;105.351;-27.455;64.969;-41.313;11.921;19.185;6.072
4754555.868;1.937;111.759;-27.232;66.161;-40.792;8.307;16.205;4.545
4754555.876;1.751;116.080;-26.040;67.614;-39.116;6.109;14.715;1.639
4754555.884;-1.751;113.882;-28.871;63.181;-45.411;4.582;12.778;0.037
4754555.892;-1.453;116.378;-27.381;65.193;-41.090;7.600;15.423;2.868
4754555.900;-1.639;117.496;-26.859;64.187;-38.370;9.425;17.285;4.098
4754555.908;1.080;121.295;-23.842;66.794;-38.669;9.723;17.434;3.949
4754555.916;6.333;126.995;-18.366;73.016;-29.951;9.276;18.217;4.061
4754555.924;3.055;123.531;-21.346;66.794;-35.390;1.974;11.027;-1.565
4754555.932;3.204;125.319;-18.515;67.391;-30.398;4.023;12.405;-0.335
4754555.928;1.974;125.617;-18.850;66.310;-26.114;7.600;15.236;2.049
4754555.936;-2.980;121.035;-26.487;60.461;-40.717;2.794;9.127;-0.782
4754555.944;-2.310;121.035;-26.301;59.791;-38.669;1.341;7.413;0.782
4754555.952;1.043;123.493;-21.793;64.783;-30.026;2.384;9.611;1.751
4754555.960;3.427;126.660;-17.993;67.055;-26.710;5.513;14.640;2.533
4754555.968;2.906;126.287;-19.446;65.677;-26.524;8.866;19.781;3.763
4754555.976;0.782;124.387;-22.426;63.926;-29.504;6.743;19.185;1.304
4754555.984;-3.874;120.103;-28.722;60.424;-37.737;3.278;17.248;-2.272
4754555.992;-7.935;115.782;-33.267;56.997;-42.394;3.017;16.876;-2.608
4754556.000;-8.903;116.378;-32.932;54.464;-39.674;4.396;15.758;-1.863
4754556.008;-7.451;118.092;-32.187;57.966;-38.147;9.686;20.191;2.794
4754556.016;-18.030;108.853;-44.405;48.876;-47.125;12.964;24.959;5.364
4754556.024;-7.302;120.699;-29.728;60.238;-25.257;13.523;26.412;4.917
4754556.032;-24.773;105.090;-49.956;47.386;-52.266;8.084;19.334;0.335
4754556.040;-51.744;82.217;-78.864;26.710;-72.122;-2.757;8.978;-9.015
4754556.048;-68.955;63.814;-91.232;6.407;-71.228;-10.803;0.261;-15.385
4754556.056;-78.306;54.687;-100.210;-1.825;-72.233;-13.858;-1.676;-18.813
4754556.064;-88.289;46.939;-108.927;-9.537;-73.239;-12.927;-0.894;-19.819
4754556.072;-97.156;39.935;-116.415;-14.640;-80.615;-11.511;-0.559;-17.919
4754556.080;-98.981;40.717;-115.186;-12.368;-76.406;-4.917;5.215;-10.021
4754556.088;-104.941;33.341;-118.800;-19.670;-77.449;0.112;10.021;-3.763
4754556.096;-108.294;30.659;-125.840;-20.638;-89.854;-1.341;7.525;-4.657
4754556.104;-109.524;27.977;-122.972;-23.320;-77.747;-3.465;4.470;-6.706
4754556.112;-112.541;23.507;-125.803;-25.891;-82.850;-6.445;4.359;-9.574
4754556.079;-112.057;24.773;-126.623;-23.320;-85.086;-4.694;6.929;-9.164
4754556.087;-108.518;29.355;-121.929;-18.701;-78.306;2.310;11.437;-3.912
4754556.095;-104.308;34.571;-117.682;-13.001;-72.196;4.768;11.623;-0.745
4754556.103;-104.569;34.720;-119.843;-12.480;-78.641;4.843;10.207;0.298
4754556.111;-105.016;32.224;-119.209;-14.231;-73.127;3.688;8.047;0.224
4754556.119;-102.669;32.596;-111.610;-16.317;-58.971;5.551;9.611;3.241
4754556.127;-109.933;27.977;-125.617;-20.899;-82.403;5.253;11.511;5.178
4754556.135;-113.845;23.916;-131.018;-24.326;-83.111;1.043;9.425;0.782
4754556.143;-111.610;24.624;-127.032;-23.246;-73.165;1.006;8.792;-0.224
4754556.151;-108.406;26.040;-125.095;-22.240;-69.365;1.490;9.425;-0.298
4754556.159;-102.334;30.436;-119.507;-19.036;-62.361;8.419;16.019;5.737
4754556.167;-100.732;30.883;-118.911;-19.744;-57.109;12.666;19.595;9.127
4754556.175;-95.442;35.502;-115.037;-15.870;-49.919;13.150;21.160;8.009
4754556.183;-96.783;34.273;-120.439;-16.913;-62.846;13.411;20.638;7.488
4754556.191;-97.230;31.479;-121.035;-21.644;-58.040;14.715;19.893;8.978
4754556.199;-98.310;31.516;-121.705;-22.426;-57.742;14.827;19.819;8.643
4754556.207;-99.652;29.281;-122.674;-24.289;-56.103;14.901;19.781;10.319
4754556.215;-99.912;27.567;-124.946;-25.630;-58.599;16.466;21.458;14.827
4754556.223;-99.577;27.604;-124.164;-26.561;-58.897;18.552;23.842;17.062
4754556.231;-92.573;29.877;-116.713;-22.724;-51.670;21.756;27.232;18.403
4754556.239;-87.060;35.763;-114.925;-17.062;-56.140;25.295;29.653;20.899
4754556.247;-89.258;32.783;-116.229;-19.409;-55.842;24.550;27.455;20.377
4754556.255;-91.381;28.796;-115.409;-24.252;-50.552;22.724;25.593;19.111
4754556.263;-92.611;25.332;-116.900;-27.195;-51.372;19.707;23.097;17.174
4754556.185;-91.940;22.054;-116.266;-28.051;-57.593;18.999;21.495;16.131
4754556.193;-95.069;17.323;-119.694;-33.230;-58.413;16.950;17.993;14.082
4754556.201;-94.324;16.838;-119.172;-33.304;-56.997;13.672;14.268;11.846
4754556.209;-95.330;16.019;-120.960;-35.241;-60.312;9.537;11.399;8.531
4754556.217;-88.885;20.415;-112.876;-30.510;-49.248;13.113;15.646;12.442
4754556.225;-83.148;22.240;-109.412;-25.779;-51.334;16.354;19.707;14.640
4754556.233;-79.945;23.432;-107.102;-22.985;-51.409;19.483;21.495;15.683
4754556.241;-69.439;31.255;-95.926;-12.964;-38.743;30.324;30.100;23.544
4754556.249;-68.061;31.069;-96.634;-12.070;-41.872;32.373;33.081;24.922
4754556.257;-68.881;30.771;-98.571;-11.586;-45.821;32.894;34.980;25.295
4754556.265;-70.632;27.604;-98.236;-13.560;-46.007;26.152;28.089;18.664
4754556.273;-73.127;26.189;-102.483;-14.566;-53.234;19.558;24.140;12.368
4754556.281;-73.388;25.295;-103.712;-15.460;-55.134;15.013;19.781;7.786
4754556.289;-71.637;26.077;-101.104;-14.864;-56.848;13.784;17.062;6.892
4754556.297;-69.961;25.928;-98.348;-14.529;-48.801;15.609;18.775;9.164
4754556.305;-72.718;21.793;-104.271;-17.174;-65.230;15.274;18.738;9.127
4754556.313;-69.700;25.108;-100.061;-12.778;-57.779;16.391;20.824;11.288
4754556.321;-68.322;25.854;-96.112;-10.394;-52.750;15.795;21.793;11.064
4754556.329;-72.047;23.246;-100.657;-10.654;-56.848;14.268;20.117;9.015
4754556.337;-73.239;21.234;-101.775;-13.337;-57.779;13.709;16.913;9.537
4754556.345;-67.689;23.171;-95.628;-10.952;-54.874;10.729;13.523;8.643
4754556.353;-64.969;25.518;-92.871;-9.127;-53.346;11.958;13.821;10.133
4754556.361;-63.553;26.450;-92.126;-8.270;-53.681;15.311;17.621;12.517
4754556.369;-64.373;25.406;-92.089;-7.711;-54.128;17.025;19.483;13.709
4754556.438;-62.101;26.450;-87.991;-5.923;-49.546;17.509;21.011;13.895
4754556.446;-60.722;26.524;-89.481;-3.725;-61.058;13.858;17.397;10.990
4754556.454;-61.244;25.705;-88.625;-6.631;-60.797;7.153;11.586;5.923
4754556.462;-55.730;27.828;-79.349;-6.407;-49.882;6.221;9.984;5.141
4754556.470;-55.730;27.828;-82.254;-3.465;-51.633;6.557;10.803;3.912
4754556.478;-50.515;33.118;-76.480;1.825;-44.890;11.213;16.764;6.147
4754556.486;-43.064;39.451;-71.339;9.499;-48.168;13.560;21.383;8.047
4754556.494;-40.792;40.606;-65.938;9.798;-40.047;13.858;22.873;9.649
4754556.502;-45.709;36.359;-72.978;6.184;-54.725;9.686;16.764;8.084
4754556.510;-47.050;35.055;-73.649;6.184;-55.246;3.614;7.637;4.023
4754556.518;-44.852;35.800;-69.290;6.706;-45.076;5.104;9.462;6.035
4754556.526;-40.717;38.333;-65.155;10.058;-41.872;8.531;14.417;7.488
4754556.534;-38.520;42.096;-66.385;14.901;-44.517;10.654;18.403;6.445
4754556.542;-36.098;41.686;-62.995;14.082;-42.394;11.697;20.713;5.439
4754556.550;-32.783;43.772;-57.071;16.503;-31.032;14.305;22.985;6.817
4754556.558;-33.155;43.996;-58.152;16.615;-35.502;14.156;22.352;7.674
4754556.566;-39.078;36.620;-65.379;10.729;-45.300;7.749;15.013;3.465
4754556.574;-39.004;36.582;-64.783;10.431;-44.852;6.445;13.746;2.086
4754556.582;-39.376;37.141;-66.645;11.660;-46.603;7.525;16.540;3.092
4754556.590;-36.731;38.370;-63.106;13.746;-41.164;6.743;17.732;2.570
4754556.598;-34.682;37.625;-59.605;13.225;-37.812;7.600;18.924;2.645
4754556.606;-32.187;38.818;-55.283;14.454;-30.361;13.523;23.171;6.668
4754556.614;-35.763;36.173;-62.250;14.044;-45.486;14.976;24.289;6.743
4754556.622;-35.278;35.204;-58.524;13.933;-40.196;12.629;20.787;6.072
4754556.710;-33.863;36.508;-59.456;15.907;-40.792;11.250;20.415;7.823
4754556.718;-34.869;34.384;-61.505;14.752;-42.133;12.480;22.389;9.164
4754556.726;-37.104;31.479;-61.244;13.225;-42.282;10.319;20.079;7.600
4754556.734;-36.061;34.533;-62.808;16.615;-50.403;9.611;19.185;5.998
4754556.742;-28.834;41.351;-54.725;25.034;-37.439;10.021;18.515;4.768
4754556.750;-25.779;44.405;-53.458;28.126;-39.153;9.015;16.652;2.906
4754556.758;-21.122;48.131;-46.939;34.645;-30.771;16.876;23.507;10.729
4754556.766;-27.306;41.425;-54.725;30.547;-40.606;18.217;25.295;13.076
4754556.774;-29.728;35.614;-54.725;20.601;-39.712;15.348;21.942;11.995
4754556.782;-33.453;31.441;-60.610;17.956;-48.876;11.399;17.025;11.772
4754556.790;-34.049;30.063;-60.461;15.981;-46.790;6.370;11.213;7.451
4754556.798;-34.831;28.834;-63.144;14.342;-49.174;4.247;7.562;3.725
4754556.806;-36.657;26.152;-65.640;12.778;-50.142;2.608;6.258;2.198
4754556.814;-35.241;25.444;-64.075;12.219;-49.248;1.192;6.892;2.198
4754556.822;-33.900;26.561;-62.622;14.380;-50.291;0.186;5.811;2.049
4754556.830;-31.106;30.361;-57.332;16.913;-42.617;6.966;11.288;7.786
4754556.838;-25.481;34.235;-51.297;21.197;-40.680;16.913;20.824;15.423
4754556.846;-26.859;31.628;-54.501;20.005;-47.199;19.670;22.016;16.391
4754556.854;-26.375;33.081;-54.166;21.011;-50.999;18.179;20.340;15.646
4754556.862;-26.897;31.963;-53.570;18.328;-50.627;9.537;11.101;9.798
4754556.870;-25.406;34.161;-51.334;17.807;-51.670;3.353;4.284;5.066
4754556.878;-22.613;36.582;-46.566;18.887;-48.727;1.974;3.800;3.539
4754556.886;-23.134;33.341;-44.592;14.901;-45.486;1.639;5.551;4.433
4754556.894;-29.169;28.610;-48.429;10.915;-51.036;-0.037;7.190;2.496
4754556.919;-37.588;21.495;-57.295;6.035;-65.975;-0.112;9.201;1.229
4754556.927;-42.133;17.993;-60.201;2.496;-72.047;0.149;9.127;3.241
4754556.935;-37.178;22.203;-52.266;4.657;-65.826;6.594;13.672;10.170
4754556.943;-36.024;22.724;-50.701;4.694;-67.353;8.978;13.858;12.107
4754556.951;-33.677;24.959;-44.443;4.917;-63.367;11.176;13.299;14.342
4754556.959;-29.504;26.412;-38.333;6.631;-60.797;13.448;13.486;16.056
4754556.967;-26.524;27.940;-34.496;7.711;-56.773;15.423;15.572;18.515
4754556.975;-31.553;25.108;-39.414;6.035;-61.654;17.397;20.303;19.260
4754556.983;-40.792;12.964;-46.492;-4.880;-70.669;6.817;11.399;8.345
4754556.991;-38.818;14.976;-44.256;-2.086;-71.637;2.943;10.617;3.129
4754556.999;-30.994;22.277;-35.949;3.353;-66.161;7.972;15.274;7.525
4754557.007;-24.214;28.238;-26.040;8.084;-56.848;12.182;19.148;12.256
4754557.015;-19.297;31.516;-18.589;11.437;-49.174;13.076;18.775;13.895
4754557.023;-22.724;26.673;-21.793;5.923;-55.209;9.164;11.586;11.139
4754557.031;-27.642;22.165;-24.401;-0.894;-59.716;6.296;8.233;9.052
4754557.039;-30.659;18.999;-25.257;-2.980;-60.312;5.662;7.786;8.196
4754557.047;-31.181;19.744;-24.140;-2.794;-57.146;9.499;11.064;10.692
4754557.055;-31.032;23.171;-23.656;1.192;-62.101;13.635;14.342;12.442
4754557.063;-29.765;25.295;-20.191;3.055;-60.946;13.672;18.366;11.101
4754557.071;-20.266;36.992;-8.829;15.609;-50.999;17.025;27.567;13.746
4754557.079;-14.454;42.282;-3.166;21.346;-49.174;22.203;33.304;18.403
4754557.087;-11.213;45.300;0.149;25.555;-48.243;25.220;34.757;22.352
4754557.095;-14.156;39.861;-0.261;19.930;-44.182;21.011;28.275;19.781
4754557.103;-21.085;31.367;-4.545;10.580;-44.480;12.666;17.136;12.778
4754557.083;-24.773;26.599;-6.892;5.327;-41.127;6.594;10.021;7.451
4754557.091;-27.679;23.097;-9.388;2.347;-39.339;0.633;5.439;3.166
4754557.099;-33.379;17.174;-15.981;-3.316;-44.852;-2.198;0.931;0.857
4754557.107;-33.341;18.552;-15.311;-2.272;-41.313;1.490;4.172;4.023
4754557.115;-30.100;21.867;-10.245;-0.410;-34.012;7.562;9.872;9.909
4754557.123;-24.103;28.946;-5.066;4.210;-26.189;17.323;19.297;15.348
4754557.131;-14.752;39.041;2.310;14.231;-14.305;29.765;31.888;23.954
4754557.139;-10.319;42.506;7.525;14.752;-4.284;35.055;35.651;27.567
4754557.147;-9.499;43.847;8.047;15.125;-3.092;34.384;33.937;26.599
4754557.155;-13.150;39.227;5.476;8.680;-2.682;26.934;28.610;20.340
4754557.163;-19.483;29.802;2.719;-4.135;0.857;14.789;16.205;10.617
4754557.171;-29.728;17.583;-5.774;-20.117;-4.210;3.502;3.576;1.229
4754557.179;-33.677;13.076;-9.723;-24.252;-6.631;1.080;2.421;-0.894
4754557.187;-36.694;10.096;-11.958;-27.828;-6.557;1.229;2.831;-0.112
4754557.195;-30.510;15.795;-5.625;-20.824;-0.112;5.066;6.519;3.874
4754557.203;-22.054;23.767;4.098;-13.262;8.456;9.798;11.139;7.562
4754557.211;-14.640;30.287;12.070;-6.929;17.323;12.293;13.560;10.133
4754557.219;-14.417;32.485;11.362;-2.906;17.248;13.188;14.417;11.399
4754557.227;-16.876;30.994;11.735;-5.141;20.005;13.821;13.672;11.958
4754557.235;-20.489;25.183;11.139;-11.995;22.948;9.499;8.903;7.860
4754557.243;-15.385;32.187;13.709;-3.353;26.748;9.090;11.772;7.115
4754557.251;-13.262;32.075;14.864;-3.390;29.318;9.239;11.399;7.413
4754557.259;-12.256;31.665;15.423;-3.166;32.149;8.754;11.325;7.860
4754557.267;-12.293;32.373;14.715;-1.639;30.957;10.468;14.491;7.153
4754557.222;-11.884;30.771;16.540;-3.763;33.751;11.772;16.391;6.445
4754557.230;-6.519;37.625;21.830;2.384;39.116;20.564;24.661;13.858
4754557.238;-6.445;36.247;21.607;1.639;38.855;23.097;23.842;15.274
4754557.246;-13.225;29.430;15.609;-5.402;33.937;15.981;14.603;10.505
4754557.254;-17.397;25.146;11.735;-11.548;31.032;9.798;7.078;6.557
4754557.262;-19.632;22.501;10.803;-15.050;30.734;6.519;4.992;3.800
4754557.270;-17.099;24.885;13.672;-11.325;35.316;4.359;3.055;2.533
4754557.278;-15.460;26.263;14.976;-7.488;36.471;4.694;6.184;3.800
4754557.286;-11.995;31.404;15.944;0.522;35.875;9.574;14.268;6.631
4754557.294;-8.009;30.696;24.065;-2.421;47.088;13.895;17.434;8.941
4754557.302;-5.662;33.565;26.375;0.373;52.005;18.328;21.234;10.654
4754557.310;-4.098;36.173;27.530;2.645;53.123;20.191;22.762;12.293
4754557.318;-7.451;30.920;23.507;-1.527;49.919;16.764;16.466;11.437
4754557.326;-3.837;33.863;27.716;3.166;54.836;14.938;15.758;10.319
4754557.334;2.943;39.749;34.831;10.170;63.665;13.486;15.534;9.090
4754557.342;-3.539;29.951;28.573;-0.633;59.828;5.737;6.929;3.763
4754557.350;-4.657;30.510;26.524;-0.037;59.679;5.625;6.966;5.029
4754557.358;-5.551;28.759;25.705;-1.416;59.530;6.743;8.009;4.470
4754557.366;-1.788;34.049;29.840;7.749;65.863;8.270;12.890;3.614
4754557.374;-2.719;31.143;31.963;4.843;70.781;5.849;12.442;0.745
4754557.382;-6.258;26.263;26.301;-1.155;62.548;0.708;8.792;-2.831
4754557.390;-0.857;33.714;30.473;6.482;66.534;1.863;13.299;-0.820
4754557.398;0.633;36.135;32.708;9.201;69.812;3.427;15.907;1.788
4754557.406;-0.261;32.298;33.416;6.370;73.649;-0.298;9.090;0.708
4754557.403;-1.155;31.143;33.677;6.445;74.841;-2.012;5.327;2.123
4754557.411;-3.651;30.063;29.095;5.625;68.396;-2.980;3.912;3.055
4754557.419;-2.310;31.032;30.957;5.960;72.345;-2.123;6.072;2.012
4754557.427;-2.310;28.238;33.528;2.049;77.039;-3.986;6.370;-1.863
4754557.435;0.000;32.671;31.702;9.760;72.271;-1.676;12.144;-2.235
4754557.443;-0.820;30.324;28.946;6.855;71.675;-3.912;9.574;-3.837
4754557.451;-1.788;27.753;28.126;2.719;70.632;-5.774;7.600;-4.768
4754557.459;1.974;30.585;34.161;4.619;76.257;-3.166;8.456;-3.465
4754557.467;9.164;37.365;40.196;14.752;82.515;1.416;11.064;0.186
4754557.475;9.909;34.422;42.096;11.101;85.011;-4.806;4.098;-3.129
4754557.483;6.892;31.367;39.488;7.376;80.690;-8.717;-0.596;-4.545
4754557.491;9.239;34.310;40.233;11.735;82.925;-7.525;1.341;-2.421
4754557.499;7.264;30.920;39.525;6.817;84.713;-7.488;0.447;-2.794
4754557.507;4.843;29.095;35.539;7.451;79.088;-2.421;5.513;-0.075
4754557.515;1.974;26.152;30.994;5.960;75.325;-2.310;5.774;-0.484
4754557.523;2.496;26.785;32.037;6.706;75.437;-3.055;5.700;-0.186
4754557.531;5.625;27.418;35.688;8.270;79.684;-4.545;5.774;-0.559
4754557.539;8.345;31.143;40.606;12.554;87.358;-3.837;5.513;0.708
4754557.547;4.135;28.163;34.422;10.692;77.821;-6.780;0.522;-1.229
4754557.555;4.955;26.934;36.098;9.835;79.907;-8.978;-1.118;-2.645
4754557.563;4.992;25.071;37.551;9.723;84.415;-11.623;-4.396;-4.806
4754557.571;-0.261;20.340;31.926;7.488;79.423;-15.050;-7.823;-7.711
4754557.579;1.527;21.830;35.055;8.009;80.839;-17.621;-9.201;-9.127
4754557.587;0.149;20.452;32.037;6.743;78.455;-15.348;-7.227;-6.892
4754557.654;0.261;20.377;31.404;6.258;76.033;-12.591;-6.780;-5.551
4754557.662;8.754;28.498;40.755;15.907;86.315;-10.505;-4.396;-5.849
4754557.670;11.064;30.324;41.090;17.770;86.315;-7.562;-0.671;-4.098
4754557.678;18.030;37.551;47.535;22.389;91.977;-1.900;5.849;2.384
4754557.686;15.832;34.682;45.598;21.793;89.593;-2.868;4.806;3.576
4754557.694;8.754;28.014;37.923;16.317;82.143;-4.508;2.570;1.565
4754557.702;11.176;27.604;41.798;14.827;88.513;-4.396;2.496;1.490
4754557.710;9.425;26.226;39.227;16.727;86.837;-7.004;1.043;-1.900
4754557.718;7.972;24.512;37.067;15.274;82.441;-7.935;-0.298;-3.539
4754557.726;8.047;21.979;36.582;13.784;84.229;-10.282;-4.359;-5.327
4754557.734;6.706;20.005;35.986;12.331;82.664;-14.491;-9.164;-7.749
4754557.742;3.874;16.205;34.533;8.903;81.137;-12.070;-7.339;-7.451
4754557.750;1.006;11.474;31.032;5.141;78.082;-11.623;-7.339;-7.153
4754557.758;5.178;17.732;32.485;12.890;77.263;-8.456;-2.757;-3.017
4754557.766;2.980;16.876;30.696;14.082;78.082;-6.631;-1.155;-1.416
4754557.774;4.470;17.919;35.241;14.044;87.619;-4.508;-0.149;0.373
4754557.782;6.743;20.117;35.278;16.652;82.366;-5.215;0.000;-0.820
4754557.790;6.147;18.664;35.390;16.168;81.919;-10.319;-4.433;-4.508
4754557.798;3.874;19.111;31.590;16.913;78.566;-10.133;-3.316;-4.023
4754557.806;0.633;14.603;27.195;13.039;73.574;-8.680;0.335;-2.310
4754557.814;3.092;15.348;29.430;13.672;75.661;-8.643;0.671;-3.204
4754557.822;7.413;20.415;32.820;17.136;80.355;-6.258;3.539;-1.453
4754557.830;8.047;19.968;32.037;18.142;78.492;-4.247;4.098;-0.261
4754557.838;1.006;11.176;23.544;9.760;67.502;-3.725;-0.186;0.186
4754557.881;-5.849;2.272;17.658;-0.037;62.697;-7.376;-6.109;-2.272
4754557.889;-3.688;4.768;18.179;4.172;63.106;-9.537;-7.227;-2.608
4754557.897;-1.080;5.066;22.426;3.166;64.336;-11.325;-9.462;-4.135
4754557.905;4.508;10.543;27.865;9.499;69.663;-10.878;-9.388;-4.135
4754557.913;11.250;18.068;33.639;17.993;74.767;-10.058;-6.482;-3.614
4754557.921;14.380;18.217;36.210;18.440;76.517;-5.923;-0.484;-1.490
4754557.929;21.420;24.959;43.549;25.295;84.974;1.267;6.706;3.465
4754557.937;22.538;28.834;44.703;29.877;85.793;4.470;10.021;6.370
4754557.945;15.758;21.867;35.502;22.762;75.810;0.931;7.153;4.135
4754557.953;14.901;18.775;34.608;19.372;76.741;-0.484;4.247;3.055
4754557.961;18.738;21.160;38.520;21.048;77.374;-1.490;0.782;3.614
4754557.969;17.434;19.670;37.439;18.217;75.847;-2.347;-1.080;4.172
4754557.977;14.044;16.242;35.390;14.380;74.320;-3.539;-0.671;3.390
4754557.985;6.594;8.158;27.530;8.121;66.496;-8.233;-4.433;0.745
4754557.993;5.625;7.898;25.444;9.499;64.075;-7.525;-4.061;0.931
4754558.001;3.986;4.992;22.873;7.451;60.163;-8.829;-5.849;-0.745
4754558.009;5.960;5.737;25.146;8.680;63.293;-6.035;-3.427;0.596
4754558.017;11.474;11.399;29.579;15.236;69.812;0.484;4.359;4.061
4754558.025;12.517;12.144;29.206;15.162;71.116;4.694;7.860;6.035
4754558.033;14.491;13.858;32.261;14.715;76.965;6.631;10.505;7.898
4754558.041;12.293;11.176;29.616;10.282;75.437;4.321;9.947;6.519
4754558.049;13.337;13.709;29.244;11.437;75.139;1.565;7.190;6.333
4754558.057;15.348;14.603;30.659;11.511;79.349;-1.043;2.980;4.806
4754558.065;19.260;15.236;34.273;10.841;86.911;-2.533;0.857;2.645
4754558.043;17.658;17.136;31.628;9.686;80.690;-2.794;1.788;2.235
4754558.051;14.901;15.646;29.542;6.855;82.031;-3.017;2.421;1.416
4754558.059;11.064;10.915;26.152;0.037;77.970;-4.657;1.192;-0.969
4754558.067;10.319;11.288;24.922;-0.671;75.176;-4.917;0.782;-1.527
4754558.075;14.231;14.268;28.610;1.639;76.778;-4.210;-0.335;0.969
4754558.083;16.689;16.056;31.441;1.788;79.833;-1.080;-0.410;4.210
4754558.091;22.613;19.781;38.184;5.811;88.364;2.757;3.204;5.625
4754558.099;25.369;22.687;39.451;8.903;85.272;6.258;9.090;6.333
4754558.107;22.575;20.191;35.763;5.737;81.845;9.686;11.325;9.015
4754558.115;1.937;0.373;14.454;-13.635;59.642;11.846;12.517;11.921
4754558.123;12.890;6.594;32.075;-11.027;71.675;7.153;8.531;8.643
4754558.131;47.460;34.608;70.594;10.729;102.744;7.339;7.004;8.978
4754558.139;77.970;57.630;106.208;22.650;129.603;9.686;7.451;12.368
4754558.147;109.002;82.590;141.524;37.253;158.399;12.778;11.474;14.193
4754558.155;127.554;96.187;163.950;42.878;176.355;9.649;8.717;11.958
4754558.163;139.214;103.079;180.341;41.798;188.164;5.178;3.166;8.643
4754558.171;149.794;107.177;195.280;39.600;200.346;3.017;-2.049;8.941
4754558.179;154.749;107.735;203.550;34.608;208.691;4.694;-2.868;11.958
4754558.187;156.723;109.673;206.083;32.634;209.846;8.605;1.192;15.497
4754558.195;153.147;106.096;205.599;27.977;213.347;7.749;2.533;13.523
4754558.203;149.570;103.824;204.816;25.816;215.657;4.098;1.453;7.227
4754558.211;147.857;102.185;203.364;25.108;216.030;0.484;0.894;1.788
4754558.219;143.312;98.720;198.819;22.277;210.442;0.186;0.298;0.410
4754558.227;135.638;93.691;192.411;17.621;204.518;6.631;4.545;4.433
4754558.314;126.399;83.782;185.184;10.692;195.988;11.846;7.860;7.898
4754558.322;117.235;74.804;175.685;3.874;185.445;11.921;9.984;10.096
4754558.330;107.661;64.485;166.371;-3.353;176.094;8.680;7.115;10.766
4754558.338;105.910;60.946;165.813;-7.004;176.504;6.035;2.049;11.660
4754558.346;102.594;56.103;164.472;-11.399;176.467;3.763;-0.894;9.313
4754558.354;97.789;51.036;160.560;-14.640;172.816;4.992;-0.969;7.264
4754558.362;95.442;51.148;158.809;-14.417;171.736;7.041;2.831;7.190
4754558.370;96.634;52.787;160.635;-13.001;173.524;8.792;8.456;10.468
4754558.378;96.448;54.128;160.523;-10.729;173.151;9.499;9.909;13.299
4754558.386;96.150;54.277;159.778;-8.605;171.363;7.898;7.935;15.311
4754558.394;100.806;56.699;164.099;-5.215;176.877;6.892;8.009;17.211
4754558.402;102.893;57.742;165.775;-4.135;178.106;9.574;10.058;16.615
4754558.410;105.910;59.493;168.085;-1.602;178.814;17.323;16.652;18.403
4754558.418;111.349;65.304;174.008;3.204;184.551;23.283;22.464;20.824
4754558.426;107.884;61.989;171.922;0.298;182.502;24.438;23.358;22.836
4754558.434;101.477;52.825;166.111;-7.339;178.814;22.016;18.701;22.873
4754558.442;95.889;45.896;159.182;-15.050;172.406;16.391;9.537;21.458
4754558.450;94.995;44.405;157.654;-16.056;171.997;14.789;6.519;23.730
4754558.458;87.544;39.488;149.570;-19.260;165.850;15.274;5.178;23.358
4754558.466;77.449;32.149;139.251;-25.071;153.370;16.913;7.413;23.544
4754558.474;92.089;44.256;153.780;-12.442;163.130;10.356;2.310;18.254
4754558.482;99.167;49.025;162.385;-11.809;173.859;9.015;1.639;17.136
4754558.490;105.537;55.209;169.724;-5.029;183.806;10.505;5.066;19.148
4754558.498;108.890;60.014;171.997;1.192;180.341;12.256;9.425;20.489
4754558.554;97.603;48.950;161.007;-7.711;173.636;8.233;6.035;15.385
4754558.562;90.860;40.196;153.929;-13.635;168.830;8.456;5.551;13.076
4754558.570;87.805;37.812;150.055;-15.870;160.299;7.339;4.172;10.766
4754558.578;84.788;36.508;147.223;-14.827;159.033;5.625;1.751;11.288
4754558.586;81.658;34.831;143.386;-16.429;156.462;4.619;1.900;13.262
4754558.594;82.925;35.539;144.169;-15.311;157.245;7.041;4.172;14.640
4754558.602;81.807;34.049;141.785;-16.280;154.190;7.786;4.843;15.497
4754558.610;78.566;30.659;139.773;-19.073;151.843;7.972;4.806;17.211
4754558.618;77.561;28.871;139.028;-20.266;151.284;6.594;1.229;17.695
4754558.626;79.349;30.212;139.549;-19.148;150.837;8.233;2.347;19.111
4754558.634;83.074;34.533;141.412;-15.125;146.963;8.494;3.241;17.211
4754558.642;84.005;35.502;143.051;-12.256;151.768;5.849;0.708;12.554
4754558.650;81.286;33.639;139.847;-12.033;147.894;-0.671;-2.161;7.823
4754558.658;79.796;31.106;138.432;-12.442;146.627;-1.155;-2.235;8.680
4754558.666;80.727;32.410;139.140;-12.442;147.857;0.373;-2.682;10.543
4754558.674;80.541;32.559;136.979;-11.437;145.026;-0.037;-4.023;11.809
4754558.682;78.380;29.989;133.179;-12.554;139.102;-3.166;-6.445;10.617
4754558.690;79.498;30.398;133.924;-12.182;141.487;1.863;-2.086;11.697
4754558.698;80.168;31.032;133.030;-9.909;140.332;9.611;9.052;15.758
4754558.706;81.062;33.081;133.254;-5.960;139.922;11.139;13.225;15.609
4754558.714;80.951;34.869;133.365;-3.427;138.320;8.605;10.282;15.385
4754558.722;84.527;37.365;136.904;-0.186;142.194;6.258;6.221;17.621
4754558.730;84.601;38.408;137.016;0.559;144.951;4.061;2.161;16.950
4754558.738;79.982;33.565;132.807;-3.912;139.996;3.725;3.204;12.927
4754558.720;75.996;28.610;127.666;-9.090;134.185;1.229;2.719;7.600
4754558.728;75.437;26.822;126.660;-9.984;132.173;-0.261;2.719;3.614
4754558.736;69.290;20.936;120.550;-14.044;125.132;-1.453;0.484;1.043
4754558.744;66.012;19.632;117.011;-14.491;122.860;0.298;-0.708;4.806
4754558.752;65.640;19.185;114.404;-13.150;121.072;1.974;0.298;10.505
4754558.760;72.643;24.475;119.694;-7.562;123.195;5.290;4.210;15.162
4754558.768;75.325;26.375;122.748;-7.227;126.660;5.960;6.780;17.807
4754558.776;74.767;25.108;121.556;-9.499;125.542;3.800;5.439;16.652
4754558.784;75.102;26.226;122.897;-9.574;125.356;1.341;2.868;12.703
4754558.792;68.583;18.589;117.496;-15.721;121.854;-0.298;-0.410;8.009
4754558.800;60.014;9.350;110.455;-22.799;116.229;-1.825;-4.247;5.625
4754558.808;59.567;13.672;106.357;-16.205;110.120;-0.820;-3.912;6.780
4754558.816;94.958;54.538;133.403;30.771;119.619;1.825;0.037;9.611
4754558.824;130.497;96.373;159.703;85.570;122.748;5.178;6.557;12.331
4754558.832;169.203;140.108;181.980;141.487;122.562;15.907;19.111;20.862
4754558.840;212.565;186.972;211.224;199.378;130.646;20.377;26.487;22.128
4754558.848;240.058;219.606;226.013;242.703;127.517;21.681;28.573;19.968
4754558.856;259.764;244.752;233.687;279.024;119.172;21.234;31.181;16.540
4754558.864;269.786;261.441;235.625;303.015;110.157;22.203;34.235;16.801
4754558.872;276.603;270.866;238.009;317.693;108.816;23.432;33.267;20.191
4754558.880;280.626;275.970;240.766;322.722;112.727;23.656;31.777;23.060
4754558.888;275.820;271.350;233.725;317.693;108.965;22.650;29.169;24.438
4754558.896;255.704;249.892;212.230;297.762;96.411;19.446;26.003;23.730
4754558.904;232.495;227.168;191.107;273.734;87.023;15.758;22.389;22.799
4754558.866;214.875;210.255;174.418;254.102;75.586;16.354;19.968;23.693
4754558.874;206.009;200.123;166.781;241.213;73.463;16.689;18.403;20.638
4754558.882;196.062;186.823;158.139;224.039;72.308;20.191;24.661;19.707
4754558.890;184.663;175.387;147.931;211.745;67.949;25.518;34.943;22.389
4754558.898;173.636;163.428;139.922;197.589;68.471;24.848;37.588;23.097
4754558.906;165.999;153.445;133.887;185.408;66.943;23.767;35.875;24.289
4754558.914;155.047;140.667;124.983;172.704;60.834;20.303;31.963;21.644
4754558.922;144.951;128.262;115.521;158.586;55.656;13.262;25.444;14.119
4754558.930;135.824;119.209;107.177;146.031;54.277;9.425;22.687;9.350
4754558.938;129.901;114.441;103.079;140.481;57.518;15.497;26.040;13.635
4754558.946;114.776;99.093;88.587;124.015;49.770;14.454;18.105;15.125
4754558.954;102.408;85.644;76.219;107.177;43.213;12.927;9.015;18.179
4754558.962;101.961;83.633;75.772;100.508;47.907;15.385;8.456;21.346
4754558.970;103.116;83.297;77.859;97.230;54.315;15.162;9.760;20.154
4754558.978;107.773;86.762;81.286;97.677;61.244;16.578;14.864;20.042
4754558.986;110.343;89.332;83.894;97.528;65.602;20.042;22.314;19.930
4754558.994;107.586;87.097;83.335;92.685;68.098;21.905;24.773;18.701
4754559.002;105.128;85.160;79.907;91.158;65.416;24.587;27.791;19.595
4754559.010;99.204;78.864;72.904;84.341;59.009;23.358;27.381;16.429
4754559.018;98.497;80.280;72.606;86.389;59.791;23.805;29.616;16.019
4754559.026;100.583;82.403;74.580;88.811;65.044;25.332;30.845;16.317
4754559.034;101.030;82.254;75.884;86.464;71.265;22.538;26.710;14.938
4754559.042;102.408;82.999;76.294;87.358;68.620;24.959;27.567;16.131
4754559.050;106.245;85.644;79.572;89.593;69.551;29.765;31.516;19.297
4754559.058;109.971;89.332;83.633;91.828;77.002;33.192;33.975;22.799
4754559.066;110.865;88.736;84.788;92.462;82.403;34.906;35.167;26.375
4754559.074;108.667;85.868;82.627;89.481;74.953;34.869;34.645;28.014
4754559.082;102.408;79.200;79.349;81.994;71.898;31.590;30.622;26.040
4754559.079;96.820;71.079;75.400;72.904;68.508;26.003;23.544;22.650
4754559.087;97.305;71.712;77.188;71.973;69.775;26.859;22.352;25.071
4754559.095;93.393;66.608;75.400;65.751;68.918;26.114;19.334;25.444
4754559.103;89.295;63.181;70.333;62.436;61.579;25.667;19.632;25.034
4754559.111;86.166;60.163;68.434;60.238;59.195;24.885;18.999;22.613
4754559.119;92.387;64.932;74.767;67.316;64.038;23.916;21.122;19.856
4754559.127;98.571;69.663;79.423;71.339;67.912;21.011;19.595;16.280
4754559.135;101.775;72.531;82.403;72.569;70.296;19.409;17.434;14.640
4754559.143;100.881;72.792;82.180;73.537;68.955;14.789;12.517;11.809
4754559.151;99.763;70.482;82.217;71.488;68.247;11.101;7.674;8.158
4754559.159;103.377;71.637;85.235;73.165;71.339;10.543;6.631;5.960
4754559.167;100.993;68.136;82.180;69.737;66.496;9.835;8.605;4.023
4754559.175;98.571;65.230;81.025;70.110;62.808;9.201;11.586;3.166
4754559.183;100.248;68.955;84.676;74.878;62.324;13.188;17.844;6.221
4754559.191;103.153;70.482;86.091;75.847;62.473;18.962;20.936;12.107
4754559.199;103.600;68.620;86.389;76.629;61.840;22.426;19.781;17.621
4754559.207;104.681;69.663;90.376;80.056;68.583;25.555;20.303;22.538
4754559.215;102.483;65.230;89.891;75.363;68.732;22.538;17.397;21.309
4754559.223;99.726;62.138;85.980;74.729;62.846;15.162;11.884;16.019
4754559.231;101.700;65.044;86.837;79.013;63.926;13.039;11.511;13.784
4754559.239;103.973;65.938;88.140;81.472;63.516;14.715;16.950;13.970
4754559.247;102.371;64.671;84.601;82.143;55.656;14.938;20.824;13.374
4754559.255;99.130;59.046;82.031;77.300;55.991;12.815;20.638;12.852
4754559.263;101.253;59.828;86.464;78.380;59.940;11.809;20.489;13.262
4754559.273;100.099;59.977;85.719;79.088;58.189;14.603;23.507;15.497
4754559.281;97.491;55.432;84.005;75.772;56.997;11.250;20.117;12.293
4754559.289;95.181;53.011;79.125;75.698;45.523;7.041;17.025;7.637
4754559.297;96.634;52.862;80.951;73.798;46.864;7.562;17.211;7.674
4754559.305;100.955;56.736;85.533;77.151;51.446;7.637;14.566;8.494
4754559.313;101.700;58.971;86.278;81.584;50.217;9.090;15.572;10.617
4754559.321;100.955;57.295;86.464;82.329;49.695;7.600;13.560;10.170
4754559.329;100.955;55.805;89.183;81.547;54.501;9.686;15.832;9.611
4754559.337;96.299;50.329;84.750;77.114;46.417;11.921;17.099;10.729
4754559.345;90.748;43.474;80.205;70.594;41.127;11.586;19.595;11.511
4754559.353;86.650;39.265;76.443;67.353;38.221;11.548;22.016;12.778
4754559.361;82.441;36.210;72.941;67.912;33.602;9.015;21.607;10.282
4754559.369;84.527;37.588;77.151;69.104;34.533;8.121;23.507;9.015
4754559.377;89.481;42.282;82.664;74.990;36.731;9.574;25.555;8.792
4754559.385;88.774;42.357;82.776;75.996;33.341;7.637;23.320;5.178
4754559.393;91.456;45.523;87.023;79.088;37.849;8.345;22.724;3.576
4754559.401;87.060;40.829;81.137;74.655;27.791;5.960;19.334;1.192
4754559.409;85.644;39.749;78.678;75.176;22.948;9.686;21.122;4.321
4754559.417;84.676;37.588;78.641;76.070;21.681;12.591;21.309;8.792
4754559.425;84.192;36.843;78.455;76.257;24.326;12.033;19.893;9.835
4754559.433;81.360;33.565;75.735;71.973;22.687;10.543;18.701;9.052
4754559.441;80.168;30.845;76.033;68.918;26.748;7.972;15.162;4.247
4754559.449;76.033;27.865;68.322;68.210;9.835;4.768;12.442;0.745
4754559.457;73.984;25.891;66.943;66.906;6.631;2.533;11.474;-0.782
4754559.498;68.434;21.160;62.808;63.106;6.407;2.086;11.399;0.037
4754559.506;63.591;18.477;56.699;61.765;3.539;1.900;9.425;1.267
4754559.514;59.232;13.299;52.042;56.662;-5.104;1.155;7.339;2.198
4754559.522;55.581;9.835;49.137;52.862;-7.637;0.447;6.109;1.304
4754559.530;56.736;9.537;48.131;54.613;-5.886;3.688;8.531;2.719
4754559.538;58.673;11.288;49.509;57.220;-6.557;6.370;10.580;5.066
4754559.546;61.877;13.746;53.719;59.195;0.335;8.121;13.560;6.445
4754559.554;58.636;10.133;48.541;56.252;-10.431;6.743;13.076;6.035
4754559.562;55.991;7.823;46.343;53.532;-9.984;2.645;8.270;4.210
4754559.570;56.103;7.227;44.331;55.470;-18.179;2.794;8.680;5.439
4754559.578;52.303;5.029;39.935;54.054;-23.469;4.061;9.909;6.445
4754559.586;52.340;7.004;39.004;55.619;-22.836;11.176;16.615;10.431
4754559.594;53.979;7.302;40.270;55.507;-23.171;14.417;19.707;11.772
4754559.602;50.291;4.396;35.949;53.383;-28.163;13.448;17.583;11.623
4754559.610;47.795;1.378;32.745;51.484;-32.373;11.213;16.056;10.245
4754559.618;47.870;2.086;32.485;52.676;-32.708;10.245;15.199;9.313
4754559.626;43.847;0.522;27.046;51.185;-35.763;10.841;16.391;7.898
4754559.634;44.145;-0.224;27.269;52.080;-33.751;9.798;18.626;6.072
4754559.642;44.107;0.633;25.891;50.440;-42.841;6.072;18.030;3.166
4754559.650;43.549;-0.335;25.779;47.795;-43.958;4.657;15.199;1.714
4754559.658;47.162;4.023;29.877;52.191;-42.468;7.674;14.156;4.210
4754559.666;47.721;6.072;30.845;55.395;-43.809;11.101;14.938;6.557
4754559.674;45.635;3.055;28.200;53.383;-47.386;9.313;10.692;5.141
4754559.682;40.270;-1.714;21.793;49.919;-55.432;5.029;5.178;1.751
4754559.662;36.657;-7.600;19.595;42.692;-59.493;2.980;3.986;-0.298
4754559.670;35.912;-8.158;19.073;41.202;-60.648;1.229;2.496;0.149
4754559.678;40.419;-3.912;22.314;45.262;-61.393;3.800;5.253;2.831
4754559.686;42.953;-2.682;23.544;48.056;-61.691;4.172;8.605;1.863
4754559.694;44.592;-0.782;26.599;48.876;-58.189;10.133;15.795;5.439
4754559.702;43.958;-0.410;25.928;48.243;-57.667;15.460;20.787;10.654
4754559.710;37.476;-6.743;14.789;42.506;-78.417;7.190;12.815;4.657
4754559.718;34.161;-12.629;12.256;35.875;-78.604;-2.123;0.633;-2.198
4754559.726;33.490;-12.852;12.070;36.582;-77.896;-4.806;-4.545;-4.768
4754559.734;35.390;-9.723;13.858;40.270;-79.125;-2.980;-3.092;-3.688
4754559.742;35.167;-12.405;14.454;37.029;-77.710;-3.837;-3.055;-3.539
4754559.750;32.037;-13.262;11.995;35.428;-79.982;-8.643;-4.694;-6.258
4754559.758;34.496;-8.717;15.460;40.419;-76.033;-9.052;-2.570;-8.121
4754559.766;35.129;-10.394;17.732;38.296;-75.586;-12.852;-6.817;-11.623
4754559.774;32.596;-12.964;15.758;34.720;-79.647;-17.807;-12.033;-16.019
4754559.782;34.645;-11.176;18.552;37.588;-72.569;-16.019;-10.505;-14.454
4754559.790;36.731;-7.786;20.042;41.723;-75.772;-11.995;-5.923;-10.766
4754559.798;40.010;-4.955;22.836;45.262;-75.437;-7.860;-1.714;-7.823
4754559.806;41.015;-3.651;23.320;47.535;-74.804;-7.264;-2.943;-7.488
4754559.814;42.729;0.447;26.859;51.036;-65.267;-7.190;-3.241;-5.811
4754559.822;44.778;1.974;27.381;51.223;-69.141;-7.823;-2.645;-6.706
4754559.830;46.045;3.912;28.946;54.315;-67.763;-6.072;0.708;-7.115
4754559.838;42.655;-0.298;26.561;47.982;-70.669;-8.121;-1.751;-10.021
4754559.846;42.208;-1.490;25.332;47.833;-70.371;-2.496;1.900;-6.147
4754559.815;47.013;4.806;30.398;54.389;-63.367;3.316;7.004;-0.149
4754559.823;47.423;3.614;30.808;52.042;-60.797;1.676;5.588;-1.453
4754559.831;47.646;4.545;32.336;51.521;-60.014;2.384;5.811;-1.453
4754559.839;43.027;-1.229;30.845;41.984;-61.169;5.104;8.196;-0.559
4754559.847;36.843;-6.333;23.246;36.918;-68.955;1.900;5.700;-4.433
4754559.855;48.280;9.388;29.802;58.226;-66.236;-1.639;3.539;-7.264
4754559.863;56.662;19.073;30.324;74.096;-71.004;0.335;5.290;-5.364
4754559.871;61.244;27.083;25.295;87.619;-83.745;1.155;7.339;-4.955
4754559.879;68.396;38.780;22.426;105.910;-94.734;5.737;13.001;-1.043
4754559.887;68.322;39.227;14.976;110.827;-105.947;7.562;15.125;1.639
4754559.895;68.247;41.202;8.978;116.676;-114.478;13.821;20.154;5.066
4754559.903;68.396;40.531;5.364;118.725;-119.470;17.248;21.681;6.519
4754559.911;62.995;36.508;-2.161;115.633;-125.840;18.068;22.314;5.811
4754559.919;60.312;36.061;-5.439;113.808;-126.772;23.991;28.275;8.978
4754559.927;60.014;36.806;-5.886;114.366;-125.058;29.244;32.745;11.884
4754559.935;57.667;35.763;-8.382;111.796;-123.978;31.181;37.551;15.050
4754559.943;50.999;27.195;-13.411;102.967;-127.293;28.424;37.961;12.480
4754559.951;43.362;21.458;-20.452;97.938;-137.649;28.126;38.147;12.890
4754559.959;34.310;14.044;-27.604;89.183;-141.710;33.043;38.333;19.670
4754559.967;23.581;2.161;-35.763;76.182;-145.733;33.565;33.304;21.644
4754559.975;15.534;-6.370;-42.357;65.304;-149.831;29.542;25.295;17.807
4754559.983;14.007;-10.692;-42.096;60.797;-146.255;26.412;21.569;14.380
4754559.991;11.064;-14.678;-46.194;55.768;-154.637;23.209;20.191;10.729
4754559.999;12.144;-15.162;-42.729;54.874;-147.484;21.346;21.495;7.600
4754559.983;11.548;-15.795;-42.357;55.842;-147.410;22.613;26.785;7.488
4754559.991;10.431;-15.013;-42.841;56.773;-145.249;24.810;30.324;7.451
4754559.999;10.766;-15.274;-44.182;57.220;-152.327;23.805;29.095;6.445
4754560.007;14.417;-12.368;-38.482;58.003;-143.908;25.742;30.808;7.898
4754560.015;13.001;-11.511;-39.078;59.977;-143.796;30.808;32.596;11.958
4754560.023;10.543;-12.890;-41.202;59.605;-143.088;32.783;33.937;12.778
4754560.031;12.629;-12.554;-38.072;58.822;-141.002;30.734;30.436;11.921
4754560.039;11.958;-13.076;-38.333;58.003;-144.392;31.739;31.330;13.374
4754560.047;8.307;-16.429;-39.488;54.091;-146.106;29.467;27.865;12.554
4754560.055;7.078;-16.280;-40.531;54.725;-145.659;26.189;24.848;11.623
4754560.063;7.823;-16.317;-39.525;56.326;-143.386;21.681;22.389;10.058
4754560.071;6.147;-17.993;-39.972;54.948;-138.320;21.681;22.538;10.021
4754560.079;4.843;-21.346;-42.431;50.589;-142.604;21.905;22.389;11.250
4754560.087;2.831;-24.848;-43.027;46.343;-143.275;21.197;21.867;12.405
4754560.095;-7.711;-32.373;-54.762;39.600;-152.215;21.048;24.363;13.225
4754560.103;-17.099;-42.804;-64.224;28.647;-163.093;21.011;24.959;12.144
4754560.111;-1.751;-34.124;-39.712;31.292;-133.216;10.356;12.740;1.714
4754560.119;-16.876;-52.378;-46.305;4.955;-128.672;1.863;3.390;-5.737
4754560.127;-28.946;-68.322;-50.589;-17.211;-119.582;-4.731;-1.527;-10.282
4754560.135;-43.139;-83.335;-60.052;-37.067;-121.184;-7.451;-3.539;-12.182
4754560.143;-54.874;-95.330;-65.416;-54.426;-112.019;-11.176;-7.600;-14.082
4754560.151;-65.826;-106.245;-70.371;-69.849;-114.515;-16.838;-11.772;-17.248
4754560.159;-76.070;-118.576;-73.574;-85.570;-108.257;-17.881;-13.970;-17.434
4754560.167;-84.601;-126.064;-76.480;-93.766;-103.414;-17.397;-13.150;-17.583
4754560.190;-92.573;-133.626;-85.011;-101.067;-114.925;-18.962;-13.597;-19.707
4754560.198;-94.771;-136.457;-87.507;-102.744;-116.490;-19.744;-14.342;-22.016
4754560.206;-95.591;-136.904;-87.731;-104.941;-114.925;-14.789;-11.139;-18.738
4754560.214;-95.293;-135.042;-87.097;-103.712;-115.782;-8.307;-7.749;-11.846
4754560.222;-92.946;-131.913;-84.229;-99.801;-113.323;-7.339;-9.388;-8.941
4754560.230;-87.842;-127.926;-79.051;-95.591;-107.549;-11.399;-13.001;-12.144
4754560.238;-81.509;-123.270;-73.239;-90.823;-101.961;-13.486;-15.907;-13.560
4754560.246;-81.547;-123.419;-72.755;-90.227;-99.093;-17.099;-19.148;-14.566
4754560.254;-86.166;-126.772;-79.572;-90.115;-112.765;-21.234;-21.681;-16.429
4754560.262;-86.427;-127.256;-76.965;-91.158;-103.042;-21.607;-20.415;-18.403
4754560.270;-82.180;-124.276;-72.643;-88.513;-96.187;-16.093;-16.354;-14.231
4754560.278;-84.117;-126.176;-76.778;-88.848;-105.277;-15.721;-16.205;-16.093
4754560.286;-80.839;-122.152;-73.537;-85.533;-104.345;-16.317;-15.125;-19.148
4754560.294;-79.796;-120.699;-72.084;-84.080;-101.812;-17.285;-15.348;-19.372
4754560.302;-75.474;-116.974;-66.124;-80.019;-92.089;-20.042;-15.646;-19.446
4754560.310;-74.841;-117.049;-66.049;-80.653;-91.977;-21.718;-16.689;-20.973
4754560.318;-73.574;-116.341;-66.198;-80.876;-92.946;-22.613;-18.887;-21.607
4754560.326;-75.325;-116.676;-69.775;-79.609;-96.858;-19.744;-16.205;-20.489
4754560.334;-76.965;-120.141;-71.935;-81.472;-99.950;-17.621;-15.944;-20.042
4754560.342;-76.555;-119.656;-69.663;-83.297;-93.430;-17.136;-15.236;-18.440
4754560.350;-76.294;-116.304;-69.216;-78.715;-93.840;-15.423;-10.915;-16.391
4754560.358;-79.833;-118.949;-73.425;-80.988;-102.408;-15.721;-12.591;-16.280
4754560.366;-79.907;-119.433;-73.239;-82.217;-101.961;-14.491;-13.113;-14.156
4754560.374;-77.672;-118.352;-70.259;-80.131;-98.571;-13.337;-10.580;-13.337
4754560.340;-75.959;-117.421;-67.763;-79.311;-90.562;-14.491;-9.462;-15.199
4754560.348;-79.423;-120.029;-72.382;-83.782;-97.677;-15.460;-11.809;-16.615
4754560.356;-75.735;-117.905;-69.067;-80.876;-93.915;-14.044;-13.374;-16.019
4754560.364;-69.179;-111.610;-63.144;-73.835;-86.650;-11.586;-13.039;-12.554
4754560.372;-71.339;-111.237;-66.608;-72.718;-90.115;-11.586;-15.125;-10.841
4754560.380;-70.930;-108.927;-65.193;-70.557;-88.327;-9.947;-13.411;-10.505
4754560.388;-71.526;-109.524;-65.938;-73.239;-88.289;-10.170;-12.182;-11.176
4754560.396;-70.669;-109.822;-64.597;-73.910;-85.421;-12.591;-12.927;-12.554
4754560.404;-69.924;-108.182;-65.006;-72.420;-88.736;-11.958;-11.697;-13.076
4754560.412;-70.855;-110.939;-67.092;-73.798;-89.891;-14.827;-15.907;-15.683
4754560.420;-73.612;-112.951;-68.434;-75.065;-92.015;-19.260;-20.415;-19.222
4754560.428;-74.059;-113.063;-66.385;-76.257;-89.034;-21.569;-21.979;-21.122
4754560.436;-69.775;-108.704;-62.399;-72.680;-84.527;-19.670;-19.856;-20.117
4754560.444;-69.253;-107.549;-62.697;-71.861;-85.309;-20.638;-20.154;-21.718
4754560.452;-73.314;-111.237;-67.949;-73.463;-91.493;-24.997;-23.581;-26.263
4754560.460;-77.225;-115.559;-70.333;-78.678;-91.344;-27.195;-26.040;-25.555
4754560.468;-79.460;-116.862;-73.500;-79.870;-94.026;-27.157;-26.561;-24.587
4754560.476;-76.406;-114.366;-70.669;-77.784;-88.103;-24.438;-24.736;-23.134
4754560.484;-73.686;-110.790;-68.061;-77.114;-87.582;-23.171;-22.613;-21.681
4754560.492;-73.537;-110.641;-68.247;-77.449;-89.109;-26.189;-26.114;-24.326
4754560.500;-70.259;-107.475;-65.789;-75.065;-86.538;-24.103;-24.028;-23.320
4754560.508;-70.073;-106.432;-67.241;-73.500;-90.785;-21.756;-19.819;-22.724
4754560.516;-67.391;-103.898;-63.591;-69.737;-83.186;-18.589;-17.397;-22.426
4754560.524;-66.943;-102.110;-63.591;-68.285;-85.980;-18.440;-18.254;-22.613
4754560.504;-64.299;-100.099;-60.983;-64.410;-85.421;-15.646;-14.864;-19.893
4754560.512;-66.385;-103.712;-61.989;-68.247;-85.123;-18.291;-15.348;-21.495
4754560.520;-72.718;-111.200;-67.167;-75.921;-88.587;-24.624;-22.277;-25.444
4754560.528;-74.506;-112.876;-69.216;-77.784;-92.685;-28.387;-26.822;-27.828
4754560.536;-72.494;-110.045;-66.608;-74.878;-91.679;-26.897;-26.748;-26.710
4754560.544;-71.377;-108.592;-64.448;-72.047;-87.991;-26.524;-27.120;-26.673
4754560.552;-68.918;-104.159;-59.120;-69.775;-83.074;-26.003;-28.238;-26.599
4754560.560;-67.875;-103.600;-56.364;-71.265;-82.441;-30.026;-31.441;-29.095
4754560.568;-69.253;-107.512;-56.773;-74.431;-81.286;-34.235;-35.055;-30.696
4754560.576;-74.133;-110.045;-62.399;-76.443;-92.722;-34.161;-34.906;-30.547
4754560.584;-71.190;-106.394;-58.599;-71.675;-82.664;-29.616;-31.516;-27.008
4754560.592;-68.396;-104.345;-56.215;-71.526;-82.217;-25.705;-28.685;-23.246
4754560.600;-65.789;-101.030;-54.874;-68.322;-82.701;-24.401;-25.146;-22.650
4754560.608;-66.198;-101.402;-55.991;-68.992;-80.802;-27.083;-27.381;-25.332
4754560.616;-64.187;-99.689;-54.389;-67.540;-82.403;-27.269;-28.908;-25.220
4754560.624;-61.318;-97.044;-50.925;-66.832;-76.070;-27.642;-29.914;-24.214
4754560.632;-59.903;-93.132;-47.721;-63.553;-71.414;-26.859;-29.393;-23.693
4754560.640;-61.467;-93.319;-50.887;-64.187;-80.019;-24.848;-26.785;-23.320
4754560.648;-62.101;-94.511;-51.744;-66.049;-77.561;-22.165;-26.003;-21.346
4754560.656;-68.992;-99.242;-58.226;-70.296;-81.435;-22.464;-25.928;-21.346
4754560.664;-69.551;-96.373;-59.865;-62.883;-84.378;-29.691;-30.249;-28.163
4754560.672;-75.623;-103.749;-65.304;-71.451;-82.925;-27.269;-28.610;-26.412
4754560.680;-70.967;-99.465;-60.648;-68.806;-76.406;-21.160;-23.805;-21.458
4754560.688;-69.477;-99.242;-59.307;-70.222;-70.445;-20.079;-22.762;-19.558
4754560.701;-74.804;-102.706;-67.167;-75.102;-76.965;-18.664;-21.309;-19.409
4754560.709;-74.953;-101.663;-66.906;-75.586;-73.723;-19.893;-22.203;-21.346
4754560.717;-77.561;-103.340;-68.769;-79.311;-74.282;-23.507;-24.550;-24.959
4754560.725;-81.658;-106.394;-74.133;-82.143;-82.254;-25.332;-23.395;-26.375
4754560.733;-83.074;-108.629;-76.108;-84.341;-81.696;-26.152;-24.103;-26.710
4754560.741;-79.200;-104.159;-71.749;-81.658;-75.623;-21.532;-20.489;-21.905
4754560.749;-77.486;-104.681;-70.892;-82.850;-76.629;-23.246;-22.799;-22.240
4754560.757;-74.133;-102.334;-66.049;-82.590;-71.079;-26.375;-28.871;-23.283
4754560.765;-76.480;-103.898;-68.732;-84.192;-74.953;-29.467;-34.086;-23.283
4754560.773;-80.205;-108.369;-73.537;-88.662;-80.280;-30.510;-37.104;-23.544
4754560.781;-76.070;-104.941;-68.843;-85.533;-71.339;-25.220;-31.553;-19.930
4754560.789;-74.245;-103.712;-68.024;-83.782;-71.302;-20.117;-24.363;-15.795
4754560.797;-74.431;-102.408;-68.918;-82.850;-74.096;-16.764;-20.005;-13.523
4754560.805;-69.886;-99.689;-61.952;-82.590;-63.889;-15.013;-19.222;-14.119
4754560.813;-72.531;-102.557;-64.820;-84.043;-68.359;-19.744;-21.644;-19.446
4754560.821;-70.967;-101.998;-63.106;-83.558;-68.247;-24.103;-22.985;-23.395
4754560.829;-65.565;-98.199;-54.948;-80.019;-57.928;-26.673;-24.065;-25.071
4754560.837;-65.565;-97.938;-55.470;-81.062;-64.597;-27.083;-25.295;-25.481
4754560.845;-68.322;-100.322;-56.475;-83.260;-62.287;-23.432;-23.991;-22.054
4754560.853;-69.030;-100.918;-56.066;-84.415;-62.920;-23.097;-25.183;-21.756
4754560.861;-65.565;-95.554;-53.309;-78.864;-59.754;-20.489;-23.842;-19.483
4754560.869;-61.654;-92.201;-49.397;-74.543;-55.619;-16.801;-21.011;-14.678
4754560.877;-67.428;-98.459;-52.638;-82.627;-58.189;-20.750;-24.140;-17.919
4754560.885;-70.632;-102.557;-55.805;-84.639;-63.144;-21.830;-27.157;-19.185
4754560.909;-74.320;-105.798;-58.338;-85.942;-68.173;-19.856;-26.152;-18.887
4754560.917;-74.469;-106.096;-56.587;-86.725;-66.087;-19.260;-26.673;-19.930
4754560.925;-69.663;-103.526;-51.595;-82.627;-59.754;-19.222;-27.046;-20.340
4754560.933;-73.463;-106.283;-57.183;-84.974;-71.488;-22.799;-29.355;-23.358
4754560.941;-75.363;-107.922;-57.854;-86.389;-69.216;-24.624;-29.132;-23.171
4754560.949;-76.629;-110.157;-58.152;-89.705;-68.359;-29.765;-33.341;-25.705
4754560.957;-74.543;-108.406;-56.326;-87.246;-65.975;-31.441;-35.018;-27.008
4754560.965;-78.082;-113.994;-59.940;-93.170;-66.757;-34.608;-38.967;-29.542
4754560.973;-74.543;-110.082;-56.885;-88.960;-62.026;-33.900;-37.663;-29.281
4754560.981;-71.041;-105.612;-54.128;-85.086;-59.046;-29.616;-32.373;-27.642
4754560.989;-72.010;-106.692;-55.544;-85.719;-62.436;-31.814;-32.634;-29.355
4754560.997;-69.663;-103.675;-53.383;-82.515;-59.195;-31.292;-28.946;-28.796
4754561.005;-65.565;-100.657;-49.584;-79.051;-55.321;-30.585;-27.083;-28.200
4754561.013;-67.726;-102.483;-52.191;-80.131;-57.481;-27.418;-22.203;-26.301
4754561.021;-71.377;-105.612;-58.524;-81.472;-65.677;-24.401;-19.073;-24.550
4754561.029;-71.526;-105.724;-59.865;-80.951;-66.310;-24.587;-19.334;-25.183
4754561.037;-68.694;-101.142;-55.879;-77.896;-56.513;-24.214;-19.111;-23.730
4754561.045;-69.402;-103.302;-55.321;-79.572;-53.011;-24.848;-20.489;-23.842
4754561.053;-70.632;-103.824;-59.642;-78.790;-64.261;-26.822;-23.097;-25.518
4754561.061;-63.889;-95.852;-54.948;-70.445;-61.058;-27.642;-22.873;-25.705
4754561.069;-60.722;-94.250;-49.509;-69.402;-53.495;-28.536;-22.948;-25.705
4754561.077;-62.659;-95.107;-50.329;-71.414;-52.042;-26.897;-21.197;-25.481
4754561.085;-65.453;-97.565;-53.793;-74.022;-56.326;-28.424;-21.793;-26.561
4754561.093;-65.938;-97.379;-54.762;-74.431;-59.716;-29.057;-21.793;-27.716
4754561.058;-63.740;-97.156;-52.713;-74.543;-57.966;-29.579;-22.538;-28.312
4754561.066;-60.573;-95.554;-49.882;-73.127;-51.819;-32.037;-26.114;-28.834
4754561.074;-59.232;-91.009;-48.392;-68.210;-48.839;-29.095;-22.389;-26.636
4754561.082;-57.183;-88.736;-47.609;-65.267;-49.472;-26.189;-21.569;-25.257
4754561.090;-54.128;-85.831;-46.119;-63.777;-49.472;-27.120;-23.581;-25.854
4754561.098;-53.681;-84.415;-46.119;-62.510;-49.844;-28.796;-24.885;-26.003
4754561.106;-57.742;-89.630;-49.658;-65.900;-49.509;-31.218;-26.375;-27.195
4754561.114;-59.642;-92.909;-50.254;-68.322;-52.154;-29.951;-24.214;-27.046
4754561.122;-59.716;-93.952;-48.578;-68.732;-48.019;-31.628;-24.550;-29.840
4754561.130;-59.083;-92.611;-50.254;-68.322;-50.664;-33.937;-27.083;-31.069
4754561.138;-63.926;-95.814;-56.438;-71.824;-54.725;-33.155;-26.934;-30.883
4754561.146;-63.255;-95.554;-56.475;-69.924;-55.693;-30.287;-24.438;-29.840
4754561.154;-61.393;-94.101;-55.097;-68.098;-55.060;-27.344;-20.862;-27.455
4754561.162;-61.281;-95.442;-53.979;-70.781;-51.446;-27.567;-21.011;-25.667
4754561.170;-61.952;-93.915;-54.091;-68.620;-54.650;-28.387;-22.128;-26.710
4754561.178;-63.516;-92.909;-55.507;-67.800;-54.650;-30.808;-23.283;-29.169
4754561.186;-67.689;-95.703;-61.207;-69.328;-59.679;-35.539;-26.599;-31.441
4754561.194;-69.030;-96.932;-63.181;-72.122;-65.081;-35.167;-26.450;-33.416
4754561.202;-67.465;-95.591;-62.026;-71.451;-58.748;-29.318;-20.787;-28.796
4754561.210;-70.818;-99.465;-66.273;-74.618;-64.336;-27.046;-20.005;-26.226
4754561.218;-70.296;-100.024;-65.379;-76.145;-63.367;-23.469;-18.030;-22.203
4754561.226;-67.316;-98.571;-61.542;-75.623;-57.369;-24.699;-19.073;-22.277
4754561.234;-66.794;-96.112;-61.989;-71.898;-60.946;-24.252;-18.477;-20.489
4754561.242;-67.204;-96.262;-62.808;-71.414;-61.356;-22.538;-17.732;-19.781
4754561.268;-67.428;-94.958;-62.399;-71.041;-62.175;-21.607;-16.168;-19.670
4754561.276;-64.783;-90.823;-60.387;-66.906;-60.499;-20.266;-12.480;-18.477
4754561.284;-62.287;-90.078;-58.971;-65.565;-57.854;-21.271;-13.597;-19.632
4754561.292;-62.287;-89.295;-58.636;-66.236;-55.693;-23.767;-16.093;-22.762
4754561.300;-66.422;-93.319;-62.808;-69.365;-59.865;-25.555;-19.409;-24.103
4754561.308;-69.030;-97.267;-65.640;-72.755;-63.628;-23.842;-19.670;-23.991
4754561.316;-65.640;-93.244;-62.920;-68.583;-60.275;-21.756;-18.291;-22.538
4754561.324;-62.548;-90.487;-57.183;-65.975;-51.893;-23.022;-19.930;-23.246
4754561.332;-67.353;-93.132;-62.138;-71.004;-60.350;-23.991;-21.197;-23.358
4754561.340;-64.895;-91.195;-60.126;-69.365;-54.203;-21.383;-17.919;-22.091
4754561.348;-65.938;-91.605;-62.399;-70.035;-58.152;-22.948;-20.154;-24.512
4754561.356;-66.273;-90.785;-61.803;-68.955;-55.283;-24.624;-24.065;-24.028
4754561.364;-67.987;-93.170;-64.485;-71.451;-60.461;-25.108;-25.146;-23.991
4754561.372;-64.746;-90.040;-61.281;-68.173;-56.997;-21.607;-19.073;-19.744
4754561.380;-64.261;-89.295;-60.312;-66.720;-58.189;-20.228;-17.695;-17.285
4754561.388;-67.651;-92.313;-64.634;-70.408;-61.281;-20.079;-19.483;-17.695
4754561.396;-66.943;-91.046;-64.373;-67.689;-57.705;-16.764;-16.615;-15.795
4754561.404;-68.173;-91.456;-66.049;-69.477;-59.754;-16.727;-14.827;-15.721
4754561.412;-64.746;-85.570;-63.479;-62.473;-58.822;-11.660;-8.494;-10.096
4754561.420;-61.728;-82.776;-60.759;-60.238;-56.699;-9.872;-6.184;-7.935
4754561.428;-65.267;-87.805;-63.144;-66.943;-59.642;-15.832;-13.411;-13.076
4754561.436;-66.534;-89.630;-63.516;-67.689;-57.779;-21.979;-20.824;-18.999
4754561.444;-60.350;-84.043;-55.805;-62.808;-49.137;-26.412;-25.183;-23.320
4754561.452;-53.756;-76.294;-51.521;-56.587;-49.360;-27.046;-23.507;-23.320
4754561.421;-45.635;-68.955;-44.331;-49.472;-41.574;-22.762;-19.372;-18.962
4754561.429;-40.717;-63.106;-39.116;-43.213;-32.857;-15.646;-14.044;-13.448
4754561.437;-41.910;-63.404;-39.563;-43.437;-35.465;-15.683;-14.417;-14.156
4754561.445;-48.280;-68.955;-47.162;-47.386;-44.703;-20.079;-17.844;-17.993
4754561.453;-46.045;-66.943;-43.064;-46.194;-38.594;-15.497;-11.623;-14.976
4754561.461;-45.933;-66.981;-43.325;-46.454;-38.408;-14.678;-10.654;-14.752
4754561.469;-44.629;-64.783;-41.798;-44.517;-36.918;-15.609;-12.405;-14.640
4754561.477;-46.939;-66.906;-42.506;-49.658;-37.923;-16.913;-16.838;-12.890
4754561.485;-50.999;-70.967;-46.566;-53.793;-42.543;-20.675;-21.644;-12.964
4754561.493;-52.787;-70.967;-48.429;-52.825;-42.021;-19.632;-21.756;-12.890
4754561.501;-53.495;-71.414;-50.850;-51.297;-45.374;-16.876;-20.079;-11.846
4754561.509;-47.870;-65.193;-45.262;-47.460;-37.178;-11.958;-14.752;-7.786
4754561.517;-45.002;-63.144;-42.915;-45.337;-32.708;-11.437;-13.150;-7.674
4754561.525;-45.709;-62.995;-43.772;-45.821;-30.883;-12.778;-13.225;-8.009
4754561.533;-49.807;-66.124;-46.939;-51.297;-29.393;-16.354;-15.683;-12.740
4754561.541;-52.787;-70.594;-49.099;-56.699;-27.195;-18.328;-17.732;-16.131
4754561.549;-53.011;-69.961;-49.509;-57.779;-26.636;-18.775;-17.658;-16.131
4754561.557;-46.194;-63.591;-40.941;-55.060;-14.678;-16.131;-16.391;-15.236
4754561.565;-45.821;-63.032;-42.915;-58.264;-19.073;-15.721;-18.552;-16.429
4754561.573;-43.996;-60.834;-42.245;-57.667;-17.583;-14.566;-18.999;-16.168
4754561.581;-38.110;-57.779;-37.365;-56.550;-11.399;-13.150;-18.291;-13.933
4754561.589;-39.451;-57.332;-38.482;-57.071;-11.437;-12.368;-16.615;-12.964
4754561.597;-41.053;-57.928;-38.296;-58.189;-7.749;-9.425;-12.182;-9.798
4754561.605;-41.649;-58.189;-40.382;-58.934;-14.529;-10.692;-11.735;-11.660
4754561.630;-40.159;-56.773;-39.674;-57.817;-13.150;-8.233;-9.649;-11.213
4754561.638;-36.061;-52.899;-35.614;-53.793;-10.058;-4.098;-8.121;-8.941
4754561.646;-33.081;-49.546;-30.808;-52.564;-4.992;-3.427;-8.196;-7.264
4754561.654;-32.410;-48.503;-31.143;-53.197;-7.600;-3.912;-8.754;-6.557
4754561.662;-33.081;-51.595;-31.665;-56.475;-8.009;-6.482;-11.399;-8.754
4754561.670;-29.914;-48.801;-27.381;-53.793;-2.943;-9.462;-13.299;-10.990
4754561.678;-27.344;-46.119;-24.885;-48.876;-2.682;-11.288;-13.970;-11.101
4754561.686;-22.613;-41.090;-17.770;-43.288;6.557;-9.462;-12.331;-9.276
4754561.694;-23.618;-42.468;-18.813;-45.449;0.149;-9.388;-12.219;-9.201
4754561.702;-28.536;-47.386;-24.848;-51.484;-5.327;-11.399;-14.342;-10.878
4754561.710;-29.951;-48.280;-25.369;-53.160;-5.141;-10.356;-14.305;-10.729
4754561.718;-28.685;-47.982;-23.283;-53.458;-2.533;-10.580;-13.672;-12.517
4754561.726;-24.252;-42.953;-20.713;-49.546;-0.261;-8.978;-11.027;-12.070
4754561.734;-19.819;-39.898;-14.268;-47.162;10.915;-7.786;-11.437;-9.686
4754561.742;-20.452;-42.059;-15.199;-47.125;8.419;-8.754;-16.242;-9.499
4754561.750;-20.452;-41.202;-15.125;-46.343;6.035;-10.356;-17.360;-10.096
4754561.758;-20.452;-40.978;-15.832;-46.045;3.837;-10.617;-18.068;-10.170
4754561.766;-21.569;-41.053;-16.242;-45.560;4.470;-9.947;-18.030;-10.394
4754561.774;-20.191;-40.904;-13.374;-44.815;7.860;-8.792;-16.391;-9.499
4754561.782;-19.521;-40.568;-13.113;-42.878;1.974;-10.915;-18.366;-9.835
4754561.790;-20.936;-41.127;-14.044;-43.213;1.863;-12.666;-19.446;-10.841
4754561.798;-24.363;-45.374;-17.285;-46.827;-2.198;-15.497;-19.930;-13.411
4754561.806;-29.355;-49.397;-21.644;-50.105;-5.998;-19.856;-23.767;-16.801
4754561.814;-32.708;-52.974;-24.624;-53.421;-10.841;-22.575;-26.152;-19.558
4754561.825;-24.326;-45.300;-16.056;-45.039;-0.149;-20.415;-22.948;-18.068
4754561.833;-9.909;-31.888;-0.373;-31.069;15.423;-7.600;-9.798;-6.929
4754561.841;-8.419;-33.267;-0.708;-31.702;14.082;-4.023;-7.190;-4.768
4754561.849;-6.519;-31.181;-0.484;-27.232;14.231;-5.141;-6.445;-7.115
4754561.857;-6.258;-29.765;-0.782;-23.879;12.591;-8.009;-5.960;-9.909
4754561.865;-11.921;-37.104;-5.737;-30.510;6.221;-14.380;-10.133;-14.938
4754561.873;-15.423;-40.866;-7.264;-33.751;5.364;-13.486;-7.935;-13.523
4754561.881;-16.652;-43.474;-6.184;-34.906;9.127;-7.786;-5.737;-7.674
4754561.889;-13.746;-40.494;-3.725;-29.579;9.090;-0.671;-0.596;-0.373
4754561.897;-14.342;-42.170;-5.513;-30.324;1.043;-0.075;-2.123;0.969
4754561.905;-11.809;-41.686;-3.502;-30.510;4.992;-4.955;-7.488;-4.321
4754561.913;-6.631;-36.918;0.671;-24.736;6.407;-5.141;-4.731;-7.562
4754561.921;-1.602;-33.341;5.364;-18.477;8.419;-5.960;-3.539;-8.754
4754561.929;6.966;-25.481;13.635;-9.537;15.534;-5.588;-2.235;-8.643
4754561.937;11.548;-20.154;17.658;-2.272;18.291;-3.912;-1.565;-8.643
4754561.945;12.666;-19.148;17.844;-0.410;15.013;-0.373;-0.335;-4.582
4754561.953;7.264;-22.575;12.107;-4.359;10.245;6.258;4.843;3.316
4754561.961;7.115;-24.587;14.640;-4.694;15.125;1.341;0.186;0.894
4754561.969;7.302;-27.642;20.154;-8.643;25.518;-10.245;-9.872;-9.686
4754561.977;-11.176;-49.062;4.508;-32.932;14.752;-16.801;-16.280;-15.087
4754561.985;-15.795;-55.395;2.906;-38.110;17.099;-21.495;-21.048;-18.552
4754561.993;-22.165;-60.685;-0.969;-42.617;17.732;-23.283;-22.464;-20.377
4754562.001;-31.032;-69.365;-8.941;-50.440;11.772;-23.879;-23.693;-19.744
4754562.009;-40.717;-76.666;-18.813;-55.656;1.043;-24.810;-21.979;-22.165
4754562.004;-37.961;-73.686;-15.646;-49.099;4.619;-24.512;-19.558;-21.309
4754562.012;-34.794;-72.159;-11.660;-46.156;7.786;-26.599;-23.134;-18.887
4754562.020;-35.241;-72.606;-11.548;-48.205;4.470;-26.114;-26.003;-15.087
4754562.028;-41.276;-80.802;-16.019;-55.283;-1.416;-34.198;-31.441;-26.561
4754562.036;-40.308;-80.504;-13.039;-52.266;0.894;-34.533;-32.485;-24.475
4754562.044;-39.861;-81.398;-10.617;-50.291;2.198;-37.178;-38.557;-24.810
4754562.052;-42.804;-86.538;-13.448;-54.166;-5.625;-40.866;-42.990;-28.126
4754562.060;-39.563;-83.931;-10.692;-50.329;-5.513;-38.147;-39.227;-23.693
4754562.068;-33.081;-80.131;-4.359;-43.884;3.092;-32.596;-33.490;-19.297
4754562.076;-34.049;-84.043;-4.917;-45.225;2.086;-26.412;-29.467;-10.878
4754562.084;-39.637;-91.344;-10.468;-48.354;-5.253;-14.715;-20.862;3.427
4754562.092;-37.290;-89.705;-9.164;-42.878;-4.172;-14.156;-17.993;0.708
4754562.100;-23.320;-77.710;5.513;-29.877;10.431;-16.838;-13.597;-9.984
4754562.108;-21.495;-77.337;4.880;-27.642;8.233;-27.157;-23.283;-25.146
4754562.116;-7.264;-64.746;16.652;-14.789;17.211;-23.358;-21.532;-18.179
4754562.124;14.193;-45.933;38.221;4.470;38.147;-9.127;-5.923;-0.373
4754562.132;33.155;-28.536;56.140;22.836;56.811;12.293;14.566;21.979
4754562.140;35.949;-24.475;57.593;26.897;55.805;26.822;25.779;41.351
4754562.148;50.962;-10.803;74.357;40.270;73.947;27.940;26.375;46.156
4754562.156;33.528;-24.028;53.644;29.020;57.742;22.314;23.954;40.755
4754562.164;16.205;-37.923;35.465;15.870;42.245;11.884;17.434;30.324
4754562.172;12.927;-42.506;35.055;9.164;47.646;9.052;18.589;27.008
4754562.180;11.213;-42.543;34.831;6.668;52.601;-3.502;9.090;17.770
4754562.188;9.649;-43.251;32.634;4.768;52.191;-16.652;4.470;13.597
4754562.365;4.023;-46.566;26.487;-0.969;45.821;-22.762;3.316;5.886
4754562.373;2.310;-48.541;24.140;-5.104;41.015;-23.060;1.192;4.470
4754562.381;9.462;-42.059;31.479;-0.708;46.492;-18.328;8.084;4.843
4754562.389;25.146;-25.183;46.007;11.995;58.413;-14.827;13.001;0.261
4754562.397;33.118;-18.701;51.409;17.099;64.261;-16.503;11.325;-3.017
4754562.405;37.476;-13.635;53.011;20.377;64.000;-24.289;2.533;-12.182
4754562.413;46.603;-4.694;61.579;26.338;71.041;-23.395;2.272;-14.193
4754562.421;53.197;2.347;67.540;30.920;76.592;-18.850;5.551;-12.070
4754562.429;59.009;11.027;72.271;37.625;79.684;-14.827;11.437;-9.723
4754562.437;64.000;15.981;75.512;43.884;84.303;-13.746;8.419;-8.903
4754562.445;66.347;19.446;76.443;47.125;86.762;-13.113;6.557;-5.253
4754562.453;69.141;23.432;77.523;50.031;87.507;-11.735;14.715;-7.041
4754562.461;73.090;27.493;78.566;54.613;87.209;-17.919;7.711;-12.964
4754562.469;80.727;35.353;85.570;62.175;91.866;-14.603;10.133;-10.207
4754562.477;82.552;35.428;85.905;61.765;92.313;-15.832;9.798;-13.262
4754562.485;75.661;27.493;78.790;52.899;86.613;-26.301;0.112;-24.401
4754562.493;78.194;29.579;81.360;55.395;90.227;-28.275;-1.602;-20.973
4754562.501;78.045;29.206;80.094;55.060;90.972;-31.739;-5.364;-26.450
4754562.509;83.819;35.875;85.868;61.467;98.050;-24.922;2.608;-21.942
4754562.517;87.135;37.514;87.768;63.665;99.801;-19.521;9.164;-15.795
4754562.525;92.350;41.611;91.530;69.290;103.191;-13.560;18.068;-9.723
4754562.533;93.691;43.102;91.940;71.749;102.259;-19.930;10.766;-15.944
4754562.541;87.544;37.439;83.521;67.651;95.628;-33.937;-1.192;-27.604
4754562.549;84.378;33.975;79.162;63.628;92.164;-33.788;1.490;-24.661
4754562.588;86.688;35.502;81.435;63.963;95.665;-38.892;-2.831;-30.436
4754562.596;87.619;37.476;81.472;64.187;98.124;-42.915;-7.488;-34.049
4754562.604;89.668;38.482;81.621;66.496;96.187;-36.657;-1.006;-28.014
4754562.612;88.997;36.694;80.094;65.304;97.342;-33.304;1.453;-21.979
4754562.620;84.974;35.167;74.580;61.467;95.293;-35.204;0.075;-23.134
4754562.628;83.223;34.198;71.526;59.418;94.175;-32.708;4.992;-23.022
4754562.636;87.172;38.445;74.282;61.132;97.603;-22.054;12.927;-13.709
4754562.644;89.929;39.823;76.070;60.797;100.546;-17.174;14.417;-5.700
4754562.652;92.424;41.537;77.672;64.149;107.437;-21.271;8.680;-8.903
4754562.660;95.218;46.529;77.635;69.067;111.237;-25.183;6.594;-15.423
4754562.668;94.771;47.423;73.873;69.402;111.014;-22.464;10.617;-13.709
4754562.676;98.348;52.638;75.847;70.967;116.564;-15.013;20.750;-9.015
4754562.684;97.789;53.532;74.394;68.098;117.831;-21.793;16.168;-15.981
4754562.692;98.795;55.693;73.947;65.789;118.017;-25.816;6.817;-17.397
4754562.700;100.359;61.132;76.443;66.869;125.132;-14.380;16.056;-6.407
4754562.708;94.958;56.624;70.557;59.195;121.817;-4.545;27.008;2.794
4754562.716;98.534;61.579;72.122;58.338;119.433;-9.127;22.426;-0.931
4754562.724;102.669;68.024;74.692;61.728;125.244;-18.775;13.374;-9.798
4754562.732;98.795;65.789;69.588;57.220;124.201;-21.532;16.056;-14.454
4754562.740;97.081;65.044;67.018;51.670;120.513;-20.824;18.887;-15.013
4754562.748;98.199;67.912;67.167;51.111;121.035;-20.862;13.523;-11.735
4754562.756;104.420;77.561;74.767;57.556;129.603;-9.723;19.409;1.676
4754562.764;106.506;79.721;76.741;58.450;133.142;-6.407;26.226;-1.565
4754562.772;104.420;79.051;73.574;56.773;131.913;-6.966;25.891;-1.490
4754562.769;100.844;78.343;69.477;53.607;130.497;-7.339;27.753;-3.353
4754562.777;99.242;77.821;66.422;51.260;124.276;-11.139;20.899;-5.960
4754562.785;92.573;73.686;58.822;45.076;118.278;-18.477;9.872;-12.144
4754562.793;84.043;66.608;50.105;36.396;108.853;-18.105;10.356;-11.213
4754562.801;79.311;63.628;45.039;33.453;106.394;-8.978;20.526;-2.272
4754562.809;75.400;61.765;42.133;28.796;106.581;-15.795;15.832;-11.623
4754562.817;73.239;61.654;41.127;27.046;109.337;-16.987;17.695;-10.282
4754562.825;68.508;59.493;35.800;21.830;103.861;-17.919;22.352;-10.952
4754562.833;74.357;67.651;42.021;26.710;110.269;-9.015;31.143;-0.522
4754562.841;64.522;61.691;33.043;16.242;102.036;-15.423;20.862;-7.376
4754562.849;59.567;59.381;29.616;7.786;98.236;-18.068;17.323;-9.388
4754562.857;49.137;49.248;20.452;-3.837;90.525;-30.324;1.676;-21.495
4754562.865;48.690;50.217;20.266;-4.955;92.238;-33.826;1.453;-29.877
4754562.873;56.960;61.765;26.822;4.843;98.422;-17.658;16.354;-17.062
4754562.881;51.484;58.562;20.862;-0.447;91.493;-20.340;7.004;-17.472
4754562.889;49.919;60.014;20.079;-2.012;91.903;-17.807;10.356;-14.640
4754562.897;44.182;55.991;15.385;-7.227;90.711;-18.850;12.740;-13.001
4754562.905;36.955;53.048;7.674;-11.958;81.770;-21.234;12.331;-13.039
4754562.913;29.504;50.478;2.049;-17.919;78.157;-24.326;10.952;-19.558
4754562.921;30.324;51.558;2.757;-17.136;79.870;-21.756;8.307;-14.640
4754562.929;29.616;53.570;2.757;-15.721;80.056;-19.968;6.184;-12.033
4754562.937;36.731;62.399;10.990;-7.674;93.915;-15.087;17.546;-11.325
4754562.945;37.253;63.851;10.505;-8.307;94.250;-25.444;4.843;-18.589
4754562.953;30.287;57.556;1.267;-16.131;83.484;-27.418;0.633;-22.054
4754562.935;24.103;52.452;-4.023;-20.489;81.360;-27.046;-1.974;-23.469
4754562.943;18.552;51.036;-7.711;-22.277;81.994;-24.401;1.825;-21.905
4754562.951;22.985;54.985;-1.453;-18.440;93.989;-20.750;4.582;-20.154
4754562.959;22.575;55.768;-3.837;-21.607;85.570;-12.405;11.809;-9.537
4754562.967;12.405;46.715;-14.752;-30.436;73.574;-16.056;12.256;-15.013
4754562.975;-0.335;33.379;-28.461;-42.841;60.759;-30.100;5.364;-30.622
4754562.983;7.041;41.723;-21.011;-37.961;70.445;-36.359;-6.780;-33.230
4754562.991;10.915;45.411;-16.354;-36.433;77.188;-34.235;-10.096;-27.344
4754562.999;9.313;46.454;-15.199;-38.333;84.341;-32.298;-9.276;-23.320
4754563.007;-0.186;39.861;-27.344;-46.976;61.505;-35.986;-9.574;-33.304
4754563.015;-0.037;40.494;-28.759;-44.517;59.232;-31.404;-1.118;-27.530
4754563.023;-4.955;39.227;-32.894;-48.093;58.189;-24.773;4.731;-22.501
4754563.031;1.192;45.560;-25.667;-40.755;67.651;-15.944;15.236;-13.039
4754563.039;-7.823;38.892;-34.012;-48.690;59.567;-25.630;4.657;-24.512
4754563.047;-23.656;24.885;-47.237;-63.926;47.795;-31.143;-5.849;-32.298
4754563.055;-35.278;9.760;-56.736;-78.529;40.047;-30.920;-8.792;-30.249
4754563.063;-32.894;7.153;-50.813;-80.764;44.815;-34.198;-11.772;-33.304
4754563.071;-9.462;24.289;-26.524;-63.367;65.565;-27.269;-1.900;-22.091
4754563.079;14.640;42.729;0.745;-47.721;91.866;-16.727;4.508;3.055
4754563.087;15.758;39.898;1.974;-50.962;88.513;-37.104;-20.340;-28.051
4754563.095;12.666;33.416;-1.006;-57.407;81.249;-55.693;-34.645;-60.163
4754563.103;24.214;43.847;11.027;-47.833;90.152;-39.637;-20.638;-39.376
4754563.111;14.566;30.100;2.868;-57.705;81.956;-36.396;-13.225;-41.425
4754563.119;19.036;32.522;8.717;-48.950;89.258;-17.434;11.809;-19.521
4754563.160;16.354;23.507;5.998;-51.595;86.650;-16.987;-2.310;-15.348
4754563.168;10.058;10.058;-2.086;-57.220;77.300;-26.003;-8.494;-34.571
4754563.176;16.876;11.884;6.296;-49.397;86.613;-18.887;-4.172;-20.899
4754563.184;0.745;-12.480;-9.723;-66.757;71.190;-36.992;-28.536;-44.517
4754563.192;-0.745;-21.085;-11.288;-69.737;68.359;-36.173;-29.616;-39.972
4754563.200;0.410;-25.593;-9.276;-68.471;70.781;-32.037;-28.238;-35.167
4754563.208;-1.676;-37.029;-10.245;-71.861;69.439;-29.057;-21.942;-34.682
4754563.216;-4.917;-47.982;-12.666;-76.108;66.906;-29.542;-22.240;-34.645
4754563.224;-9.649;-60.312;-17.881;-80.317;62.734;-33.416;-26.338;-40.084
4754563.232;-3.166;-59.307;-11.884;-71.190;68.061;-26.710;-18.477;-33.565
4754563.240;7.674;-53.458;-2.161;-58.226;77.933;-17.323;-5.066;-23.991
4754563.248;8.345;-58.189;-4.172;-57.854;74.804;-20.415;-8.233;-32.224
4754563.256;15.721;-56.513;2.496;-52.825;84.490;-14.044;-11.735;-23.320
4754563.264;8.419;-70.557;-8.084;-59.530;72.084;-26.263;-20.191;-46.007
4754563.272;14.789;-67.167;-4.210;-51.484;74.767;-23.730;-15.944;-40.606
4754563.280;22.948;-66.496;1.453;-45.896;80.876;-18.179;-14.603;-29.504
4754563.288;10.729;-87.284;-12.666;-59.940;68.210;-32.037;-31.181;-40.866
4754563.296;-0.298;-96.485;-25.891;-67.949;54.762;-32.485;-30.845;-39.898
4754563.304;23.097;-76.219;-5.588;-43.623;68.396;-11.660;-14.529;-23.581
4754563.312;38.594;-59.418;0.484;-24.922;62.883;-8.307;-32.336;-31.367
4754563.320;49.993;-49.770;3.688;-13.597;55.134;-19.409;-47.684;-50.142
4754563.328;79.088;-23.805;25.928;15.721;68.955;-18.440;-44.554;-49.993
4754563.336;102.520;-1.527;44.033;38.780;78.082;-4.917;-30.547;-33.490
4754563.344;100.769;-6.966;38.594;37.588;70.147;-6.966;-32.783;-32.447
4754563.427;83.111;-26.450;20.489;22.016;54.874;-20.266;-48.243;-44.927
4754563.435;84.937;-27.046;21.197;27.418;57.742;-19.670;-47.460;-45.821
4754563.443;86.837;-29.691;21.942;32.820;58.748;-13.597;-39.265;-44.070
4754563.451;88.215;-30.845;23.022;35.316;58.003;-7.562;-36.880;-41.537
4754563.459;79.349;-43.809;15.385;27.269;52.117;-14.268;-47.237;-54.948
4754563.467;76.778;-46.417;13.858;28.461;52.638;-11.101;-47.050;-53.570
4754563.475;74.692;-50.105;11.474;30.622;52.899;-10.841;-53.570;-49.919
4754563.483;65.900;-62.697;3.241;21.793;42.617;-14.752;-61.467;-52.452
4754563.491;69.700;-61.244;7.115;23.618;43.474;-8.792;-53.607;-47.013
4754563.499;66.534;-67.614;2.794;22.091;37.551;-12.703;-55.693;-50.962
4754563.507;59.754;-73.202;-3.837;18.589;32.447;-18.515;-61.691;-54.874
4754563.515;67.055;-66.869;4.992;27.977;39.153;-11.586;-50.850;-48.988
4754563.523;67.540;-67.987;6.147;30.585;36.843;-12.964;-52.340;-48.652
4754563.531;72.308;-63.144;14.603;33.304;51.521;-16.466;-57.481;-48.839
4754563.539;60.052;-74.506;-4.061;22.240;16.540;-37.178;-73.276;-68.620
4754563.547;60.014;-74.059;-5.849;21.197;12.890;-45.784;-77.747;-76.443
4754563.555;73.574;-63.181;8.084;30.771;31.032;-40.643;-71.004;-66.683
4754563.563;83.782;-49.807;17.323;44.666;41.313;-37.700;-70.743;-62.771
4754563.571;79.647;-45.300;14.417;41.798;36.955;-33.006;-66.534;-58.636
4754563.579;81.249;-39.265;17.546;41.425;37.886;-27.753;-65.081;-46.901
4754563.587;73.090;-41.910;6.929;33.975;16.429;-35.390;-71.116;-58.524
4754563.595;61.877;-48.801;-3.763;20.638;6.221;-41.649;-68.881;-70.632
4754563.603;61.281;-45.672;-2.682;21.122;11.660;-32.596;-60.834;-61.207
4754563.611;93.430;-9.052;28.498;57.444;37.961;-21.383;-42.021;-46.678
4754563.550;114.702;12.107;43.362;74.655;39.861;-15.311;-35.800;-33.267
4754563.558;120.737;21.085;44.294;83.670;33.081;-28.051;-63.889;-48.876
4754563.566;143.871;43.325;65.491;106.692;47.423;-13.262;-41.500;-31.441
4754563.574;131.987;28.871;51.074;93.728;28.610;-38.296;-49.323;-60.722
4754563.582;125.766;22.352;42.878;87.209;10.058;-45.486;-67.949;-61.840
4754563.590;110.678;4.247;28.610;71.563;-1.863;-53.160;-86.874;-71.824
4754563.598;104.569;-2.310;23.805;66.422;-2.123;-45.151;-80.355;-59.195
4754563.606;99.093;-9.164;21.718;63.591;-0.186;-41.649;-64.708;-57.407
4754563.614;104.234;-10.878;29.914;69.514;13.784;-36.098;-56.736;-47.050
4754563.622;88.587;-26.077;10.096;60.387;-26.412;-45.076;-64.522;-59.530
4754563.630;84.825;-34.645;6.221;54.277;-37.588;-46.752;-67.987;-62.101
4754563.638;98.683;-23.916;21.458;68.992;-19.260;-35.800;-40.568;-53.160
4754563.646;86.427;-41.276;9.611;54.538;-34.161;-50.180;-78.306;-63.367
4754563.654;76.517;-54.948;-0.261;47.348;-44.964;-54.948;-90.636;-67.726
4754563.662;79.535;-58.934;4.098;51.558;-39.451;-48.503;-76.853;-61.244
4754563.670;89.034;-66.534;14.193;59.269;-26.897;-34.571;-63.963;-31.739
4754563.678;63.442;-101.291;-12.480;34.720;-55.730;-64.857;-90.487;-79.274
4754563.686;66.720;-105.835;-8.494;38.370;-55.060;-60.610;-76.294;-82.850
4754563.694;86.986;-99.316;12.107;57.071;-40.382;-50.291;-76.368;-64.857
4754563.702;89.444;-109.747;11.772;60.759;-44.368;-54.576;-86.874;-69.067
4754563.710;106.059;-106.506;18.291;83.260;-18.291;-47.795;-81.435;-62.436
4754563.718;115.223;-106.990;16.987;93.281;-19.409;-36.880;-61.579;-53.644
4754563.726;120.662;-107.065;9.127;103.340;-58.003;-40.345;-54.762;-57.332
4754563.734;148.006;-90.823;31.218;131.987;-3.502;-24.997;-37.476;-41.090
4754563.713;138.730;-110.157;9.686;116.676;-33.192;-43.288;-77.337;-50.440
4754563.721;131.875;-131.093;-4.619;103.936;-52.750;-73.537;-98.944;-93.095
4754563.729;153.258;-116.751;15.609;125.542;-22.240;-43.251;-63.628;-56.550
4754563.737;158.213;-124.201;14.491;121.705;-28.685;-44.107;-79.609;-53.272
4754563.745;166.073;-137.016;15.236;121.780;-21.569;-54.836;-87.321;-68.769
4754563.753;169.463;-149.943;10.282;114.813;-26.785;-53.644;-88.029;-66.683
4754563.761;147.708;-181.943;-9.872;94.585;-43.400;-50.515;-77.076;-60.983
4754563.769;130.162;-203.848;-27.083;77.561;-73.835;-58.413;-87.060;-66.087
4754563.777;131.018;-209.212;-29.467;74.618;-89.332;-64.448;-88.066;-72.531
4754563.785;137.798;-210.144;-20.564;75.661;-78.194;-64.373;-92.573;-71.488
4754563.793;128.224;-214.726;-27.418;70.333;-99.540;-64.969;-88.625;-74.916
4754563.801;123.046;-220.202;-33.081;65.900;-114.255;-73.053;-98.459;-82.329
4754563.809;135.787;-208.579;-16.801;79.274;-99.167;-65.230;-89.966;-74.171
4754563.817;146.702;-200.681;-3.278;92.313;-88.923;-56.550;-82.068;-66.087
4754563.825;148.080;-202.991;0.782;93.840;-88.438;-59.046;-86.203;-66.273
4754563.833;144.131;-206.642;-1.490;90.562;-95.293;-58.040;-81.174;-65.900
4754563.841;137.910;-209.399;-0.373;88.848;-96.373;-57.034;-78.827;-65.565
4754563.849;143.759;-196.993;12.033;98.832;-88.662;-51.334;-73.351;-60.052
4754563.857;148.229;-191.294;17.770;101.589;-89.556;-46.380;-68.210;-56.252
4754563.865;150.874;-190.139;21.756;102.147;-84.303;-50.627;-77.039;-56.550
4754563.873;169.016;-170.842;40.308;118.166;-52.750;-45.672;-72.345;-50.291
4754563.881;173.785;-166.222;41.649;121.295;-54.501;-47.162;-73.276;-51.446
4754563.889;182.241;-158.623;51.819;126.213;-43.772;-42.953;-69.141;-47.199
4754563.897;195.988;-141.561;66.459;143.275;-26.301;-28.759;-53.830;-30.398
4754563.866;184.551;-150.278;48.093;132.658;-60.685;-43.176;-63.069;-45.635
4754563.874;202.954;-129.715;67.614;149.868;-41.537;-28.461;-45.858;-31.590
4754563.882;218.190;-114.441;83.447;165.105;-24.326;-14.864;-29.504;-16.242
4754563.890;217.780;-109.896;83.707;163.428;-24.401;-13.188;-30.920;-14.268
4754563.898;194.125;-129.081;60.871;140.145;-51.111;-36.247;-58.562;-42.915
4754563.906;210.740;-109.263;77.747;159.107;-31.665;-28.796;-51.633;-34.086
4754563.914;214.092;-100.210;82.813;162.385;-24.736;-23.507;-38.929;-29.095
4754563.922;216.924;-98.348;87.619;160.523;-17.136;-23.432;-37.514;-21.048
4754563.930;219.494;-91.530;88.289;163.689;-20.601;-28.387;-44.145;-21.942
4754563.938;221.655;-87.172;92.052;164.509;-15.870;-30.287;-52.676;-22.352
4754563.946;233.538;-71.377;103.191;179.484;-5.625;-19.558;-33.863;-16.950
4754563.954;227.056;-72.941;97.901;174.083;-9.052;-27.232;-43.586;-29.057
4754563.962;235.476;-65.677;108.778;181.124;5.849;-17.360;-38.333;-16.503
4754563.970;244.565;-54.725;116.490;194.460;14.640;-7.376;-20.564;-6.557
4754563.978;259.802;-40.308;131.279;201.911;32.037;17.136;6.557;23.358
4754563.986;266.843;-29.244;138.171;211.038;37.625;15.274;-3.166;21.867
4754563.994;279.471;-9.462;152.066;225.604;52.787;29.318;11.809;36.359
4754564.002;279.844;-4.917;152.439;225.715;57.518;30.249;17.956;34.831
4754564.010;272.579;-6.519;144.541;217.073;48.615;28.722;22.948;31.479
4754564.018;265.539;-10.096;139.698;209.361;45.523;27.008;14.901;26.114
4754564.026;265.501;-7.190;144.131;211.485;55.581;41.872;40.084;41.611
4754564.034;231.750;-36.806;119.731;178.739;46.082;35.986;15.274;46.343
4754564.042;189.394;-74.431;79.237;141.785;8.829;21.234;0.857;35.763
4754564.050;156.872;-100.955;45.411;114.292;-33.677;4.768;-1.229;6.147
4754564.030;143.088;-113.361;35.912;97.528;-34.943;-5.737;-20.042;-2.198
4754564.038;152.774;-103.377;46.641;107.102;-22.016;11.884;3.017;23.395
4754564.046;165.887;-87.433;61.877;121.854;-3.129;32.410;9.574;57.667
4754564.054;117.458;-137.351;13.262;73.127;-52.564;-18.775;-41.015;-16.764
4754564.062;115.149;-137.836;11.697;71.302;-53.570;-14.454;-29.467;-12.517
4754564.070;132.322;-119.619;28.871;88.401;-36.210;3.166;-4.582;10.617
4754564.078;141.487;-113.323;38.221;95.144;-25.593;2.757;-10.356;10.692
4754564.086;147.559;-105.016;45.821;101.961;-20.824;0.112;-12.405;12.070
4754564.094;157.654;-97.640;55.432;110.939;-12.629;-1.788;-18.254;16.913
4754564.102;175.014;-80.168;69.886;129.528;-2.384;2.049;-8.717;13.709
4754564.110;189.357;-68.136;81.547;143.722;6.258;5.849;-1.006;13.262
4754564.118;204.593;-60.536;96.709;150.725;23.916;8.382;2.608;19.111
4754564.126;220.016;-44.368;110.194;166.297;35.539;13.784;9.872;24.848
4754564.134;227.652;-41.090;115.074;173.412;39.749;11.772;5.886;28.647
4754564.142;236.928;-32.671;124.387;182.241;51.931;14.603;8.643;29.430
4754564.150;237.487;-34.906;123.717;179.820;48.168;17.807;14.715;29.244
4754564.158;239.499;-35.278;124.574;179.112;51.856;11.176;3.986;23.283
4754564.166;245.720;-26.710;132.769;182.465;63.255;8.531;0.075;21.346
4754564.174;235.997;-35.726;123.978;173.785;56.401;1.639;-8.494;17.434
4754564.182;230.707;-36.620;119.656;170.767;52.676;-0.782;-9.052;13.076
4754564.190;243.261;-22.091;132.397;183.843;67.316;8.568;4.210;21.309
4754564.198;238.270;-26.636;125.803;176.281;61.765;0.484;1.006;13.076
4754564.206;242.479;-17.546;129.119;177.138;67.279;2.645;-3.949;15.087
4754564.214;239.983;-19.372;125.803;171.550;68.322;2.384;-1.900;15.274
4754564.237;235.699;-20.266;121.519;163.279;67.391;-0.522;-8.307;13.523
4754564.245;243.448;-8.717;130.422;172.406;79.460;10.431;3.576;20.862
4754564.253;240.579;-10.915;125.840;168.681;76.704;11.139;5.551;17.583
4754564.261;238.232;-11.995;124.164;159.666;79.013;14.082;7.227;18.515
4754564.269;236.519;-14.603;121.295;154.898;78.157;14.044;7.637;19.409
4754564.277;235.401;-11.362;118.688;154.302;78.268;12.331;5.700;16.093
4754564.285;249.036;5.141;131.503;168.532;94.809;24.512;13.821;26.859
4754564.293;247.285;2.943;128.262;164.025;87.582;23.805;12.405;25.108
4754564.301;243.634;5.476;124.350;162.125;88.625;28.834;21.607;28.610
4754564.309;236.258;-0.149;115.372;157.915;84.043;19.073;11.288;19.781
4754564.317;238.381;7.860;119.358;159.666;91.754;17.211;9.649;16.950
4754564.325;241.585;14.715;120.103;162.460;87.470;16.391;12.144;12.852
4754564.333;245.906;16.429;124.872;160.448;97.044;14.305;5.029;13.188
4754564.341;242.367;19.670;121.258;158.288;90.748;19.036;10.468;18.068
4754564.349;227.913;7.115;107.586;145.510;82.068;7.153;-4.731;7.488
4754564.357;230.633;15.832;110.641;147.820;90.264;8.382;-1.639;9.984
4754564.365;233.985;24.065;113.919;149.198;93.542;13.784;6.594;14.901
4754564.373;227.988;21.718;105.873;145.696;80.243;10.990;4.843;11.399
4754564.381;222.288;22.464;105.426;139.587;89.742;10.952;4.619;10.692
4754564.389;212.453;14.119;95.032;128.299;76.443;12.666;7.041;16.242
4754564.397;201.613;12.368;86.240;121.370;67.018;16.503;16.689;16.578
4754564.405;191.033;7.823;77.710;112.578;59.679;14.119;14.268;10.990
4754564.413;190.325;12.033;75.251;115.409;61.467;13.374;3.837;16.242
4754564.421;183.247;13.225;67.614;113.174;53.868;8.754;4.582;2.682
4754564.429;184.439;15.832;70.333;116.266;58.077;22.650;30.138;20.117
4754564.437;175.275;10.766;63.851;107.139;50.478;21.532;40.755;10.394
4754564.445;194.423;30.659;87.395;123.568;78.939;32.298;11.474;40.904
4754564.453;155.866;-5.960;49.993;89.146;45.821;-14.156;-27.232;-21.867
4754564.494;155.456;-3.055;51.409;89.556;44.741;-5.998;-16.764;-7.488
4754564.502;160.523;2.757;53.942;101.849;41.351;4.619;9.835;2.608
